stim_pw [us],stim_amp [mA],com_elbow_fe [rad],com_forearm_ps [rad],com_wrist_fe [rad],com_wrist_ru [rad],act_elbow_fe [rad],act_forearm_ps [rad],act_wrist_fe [rad],act_wrist_ru [rad],elbow_fe_trq [Nm],forearm_ps_trq [Nm],wrist_fe_trq [Nm],wrist_ru_trq [Nm]
28,60,-1.0472,-0.698132,-0.174533,-0.174533,-1.042,-0.690116,-0.163356,-0.185764,-1.03902,-0.44887,-0.335265,0.336916
28,60,-1.0472,-0.698132,-0.174533,-0.174533,-1.042,-0.690116,-0.163356,-0.185764,-1.03902,-0.44887,-0.335265,0.336916
28,60,-1.0472,-0.698132,-0.174533,-0.174533,-1.042,-0.690116,-0.163356,-0.185764,-1.03902,-0.44887,-0.335265,0.336916
28,60,-1.0472,-0.698132,-0.174533,-0.174533,-1.042,-0.690116,-0.163356,-0.185764,-1.03902,-0.44887,-0.335265,0.336916
28,60,-1.0472,-0.698132,-0.174533,-0.174533,-1.042,-0.690116,-0.163356,-0.185764,-1.03902,-0.44887,-0.335265,0.336916
28,60,-1.0472,-0.698132,-0.174533,-0.174533,-1.042,-0.690116,-0.163356,-0.185764,-1.03902,-0.44887,-0.335265,0.336916
28,60,-1.0472,-0.698132,-0.174533,-0.174533,-1.042,-0.690116,-0.163356,-0.185764,-1.03902,-0.44887,-0.335265,0.336916
28,60,-1.0472,-0.698132,-0.174533,-0.174533,-1.042,-0.690116,-0.163356,-0.185764,-1.03902,-0.44887,-0.335265,0.336916
28,60,-1.0472,-0.698132,-0.174533,-0.174533,-1.042,-0.690116,-0.163356,-0.185764,-1.03902,-0.44887,-0.335265,0.336916
28,60,-1.0472,-0.698132,-0.174533,-0.174533,-1.042,-0.690116,-0.163356,-0.185764,-1.03902,-0.44887,-0.335265,0.336916
28,60,-1.0472,-0.698132,-0.174533,-0.174533,-1.042,-0.690116,-0.163356,-0.185764,-1.03902,-0.44887,-0.335265,0.336916
28,60,-1.0472,-0.698132,-0.174533,-0.174533,-1.042,-0.690116,-0.163356,-0.185764,-1.03902,-0.44887,-0.335265,0.336916
28,60,-1.0472,-0.698132,-0.174533,-0.174533,-1.042,-0.690116,-0.163356,-0.185764,-1.03902,-0.44887,-0.335265,0.336916
28,60,-1.0472,-0.698132,-0.174533,-0.174533,-1.042,-0.690116,-0.163356,-0.185764,-1.03902,-0.44887,-0.335265,0.336916
28,60,-1.0472,-0.698132,-0.174533,-0.174533,-1.042,-0.690116,-0.163356,-0.185764,-1.03902,-0.44887,-0.335265,0.336916
28,60,-1.0472,-0.698132,-0.174533,-0.174533,-1.042,-0.690116,-0.163356,-0.185764,-1.03902,-0.44887,-0.335265,0.336916
28,60,-1.0472,-0.698132,-0.174533,-0.174533,-1.042,-0.690116,-0.163356,-0.185764,-1.03902,-0.44887,-0.335265,0.336916
28,60,-1.0472,-0.698132,-0.174533,-0.174533,-1.042,-0.690116,-0.163356,-0.185764,-1.03902,-0.44887,-0.335265,0.336916
28,60,-1.0472,-0.698132,-0.174533,-0.174533,-1.042,-0.690116,-0.163356,-0.185764,-1.03902,-0.44887,-0.335265,0.336916
28,60,-1.0472,-0.698132,-0.174533,-0.174533,-1.042,-0.690116,-0.163356,-0.185764,-1.03902,-0.44887,-0.335265,0.336916
28,60,-1.0472,-0.698132,-0.174533,-0.174533,-1.042,-0.690116,-0.163356,-0.185764,-1.03902,-0.44887,-0.335265,0.336916
28,60,-1.0472,-0.698132,-0.174533,-0.174533,-1.042,-0.690116,-0.163356,-0.185764,-1.03902,-0.44887,-0.335265,0.336916
28,60,-1.0472,-0.698132,-0.174533,-0.174533,-1.042,-0.690116,-0.163356,-0.185764,-1.03902,-0.44887,-0.335265,0.336916
28,60,-1.0472,-0.698132,-0.174533,-0.174533,-1.042,-0.690116,-0.163356,-0.185764,-1.03902,-0.44887,-0.335265,0.336916
28,60,-1.0472,-0.698132,-0.174533,-0.174533,-1.042,-0.690116,-0.163422,-0.185806,-1.03902,-0.44887,-0.333266,0.338199
28,60,-1.0472,-0.698132,-0.174533,-0.174533,-1.042,-0.690116,-0.163422,-0.185806,-1.03902,-0.44887,-0.333266,0.338199
28,60,-1.0472,-0.698132,-0.174533,-0.174533,-1.042,-0.690116,-0.163422,-0.185806,-1.03902,-0.44887,-0.333266,0.338199
28,60,-1.0472,-0.698132,-0.174533,-0.174533,-1.042,-0.690116,-0.163422,-0.185806,-1.03902,-0.44887,-0.333266,0.338199
28,60,-1.0472,-0.698132,-0.174533,-0.174533,-1.042,-0.690116,-0.163422,-0.185806,-1.03902,-0.44887,-0.333266,0.338199
28,60,-1.0472,-0.698132,-0.174533,-0.174533,-1.042,-0.690116,-0.163422,-0.185806,-1.03902,-0.44887,-0.333266,0.338199
28,60,-1.0472,-0.698132,-0.174533,-0.174533,-1.042,-0.690116,-0.163422,-0.185806,-1.03902,-0.44887,-0.333266,0.338199
28,60,-1.0472,-0.698132,-0.174533,-0.174533,-1.042,-0.690116,-0.163422,-0.185806,-1.03902,-0.44887,-0.333266,0.338199
28,60,-1.0472,-0.698132,-0.174533,-0.174533,-1.042,-0.690116,-0.163422,-0.185806,-1.03902,-0.44887,-0.333266,0.338199
28,60,-1.0472,-0.698132,-0.174533,-0.174533,-1.042,-0.690116,-0.163422,-0.185806,-1.03902,-0.44887,-0.333266,0.338199
28,60,-1.0472,-0.698132,-0.174533,-0.174533,-1.042,-0.690116,-0.163422,-0.185806,-1.03902,-0.44887,-0.333266,0.338199
28,60,-1.0472,-0.698132,-0.174533,-0.174533,-1.042,-0.690116,-0.163422,-0.185806,-1.03902,-0.44887,-0.333266,0.338199
28,60,-1.0472,-0.698132,-0.174533,-0.174533,-1.042,-0.690116,-0.163422,-0.185806,-1.03902,-0.44887,-0.333266,0.338199
28,60,-1.0472,-0.698132,-0.174533,-0.174533,-1.042,-0.690116,-0.163422,-0.185806,-1.03902,-0.44887,-0.333266,0.338199
28,60,-1.0472,-0.698132,-0.174533,-0.174533,-1.042,-0.690116,-0.163422,-0.185806,-1.03902,-0.44887,-0.333266,0.338199
28,60,-1.0472,-0.698132,-0.174533,-0.174533,-1.042,-0.690116,-0.163422,-0.185806,-1.03902,-0.44887,-0.333266,0.338199
28,60,-1.0472,-0.698132,-0.174533,-0.174533,-1.042,-0.690116,-0.163422,-0.185806,-1.03902,-0.44887,-0.333266,0.338199
28,60,-1.0472,-0.698132,-0.174533,-0.174533,-1.042,-0.690116,-0.163422,-0.185806,-1.03902,-0.44887,-0.333266,0.338199
28,60,-1.0472,-0.698132,-0.174533,-0.174533,-1.042,-0.690116,-0.163422,-0.185806,-1.03902,-0.44887,-0.333266,0.338199
28,60,-1.0472,-0.698132,-0.174533,-0.174533,-1.042,-0.690116,-0.163422,-0.185806,-1.03902,-0.44887,-0.333266,0.338199
28,60,-1.0472,-0.698132,-0.174533,-0.174533,-1.042,-0.690116,-0.163422,-0.185806,-1.03902,-0.44887,-0.333266,0.338199
28,60,-1.0472,-0.698132,-0.174533,-0.174533,-1.042,-0.690116,-0.163422,-0.185806,-1.03902,-0.44887,-0.333266,0.338199
28,60,-1.0472,-0.698132,-0.174533,-0.174533,-1.042,-0.690116,-0.163422,-0.185806,-1.03902,-0.44887,-0.333266,0.338199
28,60,-1.0472,-0.698132,-0.174533,-0.174533,-1.042,-0.690116,-0.163422,-0.185806,-1.03902,-0.44887,-0.333266,0.338199
28,60,-1.0472,-0.698132,-0.174533,-0.174533,-1.042,-0.690116,-0.163422,-0.185806,-1.03902,-0.44887,-0.333266,0.338199
28,60,-1.0472,-0.698132,-0.174533,-0.174533,-1.042,-0.690116,-0.163422,-0.185806,-1.03902,-0.44887,-0.333266,0.338199
28,60,-1.0472,-0.698132,-0.174533,-0.174533,-1.042,-0.690116,-0.163422,-0.185806,-1.03902,-0.44887,-0.333266,0.338199
28,60,-1.0472,-0.698132,-0.174533,-0.174533,-1.042,-0.690116,-0.163422,-0.185806,-1.03902,-0.44887,-0.333266,0.338199
28,60,-1.0472,-0.698132,-0.174533,-0.174533,-1.042,-0.690116,-0.163422,-0.185806,-1.03902,-0.44887,-0.333266,0.338199
28,60,-1.0472,-0.698132,-0.174533,-0.174533,-1.042,-0.690116,-0.163422,-0.185806,-1.03902,-0.44887,-0.333266,0.338199
28,60,-1.0472,-0.698132,-0.174533,-0.174533,-1.042,-0.690116,-0.163422,-0.185806,-1.03902,-0.44887,-0.333266,0.338199
28,60,-1.0472,-0.698132,-0.174533,-0.174533,-1.042,-0.690116,-0.163422,-0.185806,-1.03902,-0.44887,-0.333266,0.338199
28,60,-1.0472,-0.698132,-0.174533,-0.174533,-1.042,-0.690116,-0.163422,-0.185806,-1.03902,-0.44887,-0.333266,0.338199
28,60,-1.0472,-0.698132,-0.174533,-0.174533,-1.042,-0.690116,-0.163422,-0.185806,-1.03902,-0.44887,-0.333266,0.338199
28,60,-1.0472,-0.698132,-0.174533,-0.174533,-1.042,-0.690116,-0.163482,-0.185786,-1.03902,-0.44887,-0.331461,0.33762
28,60,-1.0472,-0.698132,-0.174533,-0.174533,-1.042,-0.690116,-0.163482,-0.185786,-1.03902,-0.44887,-0.331461,0.33762
28,60,-1.0472,-0.698132,-0.174533,-0.174533,-1.042,-0.690116,-0.163482,-0.185786,-1.03902,-0.44887,-0.331461,0.33762
28,60,-1.0472,-0.698132,-0.174533,-0.174533,-1.042,-0.690116,-0.163482,-0.185786,-1.03902,-0.44887,-0.331461,0.33762
28,60,-1.0472,-0.698132,-0.174533,-0.174533,-1.042,-0.690116,-0.163482,-0.185786,-1.03902,-0.44887,-0.331461,0.33762
28,60,-1.0472,-0.698132,-0.174533,-0.174533,-1.042,-0.690116,-0.163482,-0.185786,-1.03902,-0.44887,-0.331461,0.33762
28,60,-1.0472,-0.698132,-0.174533,-0.174533,-1.042,-0.690116,-0.163482,-0.185786,-1.03902,-0.44887,-0.331461,0.33762
28,60,-1.0472,-0.698132,-0.174533,-0.174533,-1.042,-0.690116,-0.163482,-0.185786,-1.03902,-0.44887,-0.331461,0.33762
28,60,-1.0472,-0.698132,-0.174533,-0.174533,-1.042,-0.690116,-0.163482,-0.185786,-1.03902,-0.44887,-0.331461,0.33762
28,60,-1.0472,-0.698132,-0.174533,-0.174533,-1.042,-0.690116,-0.163482,-0.185786,-1.03902,-0.44887,-0.331461,0.33762
28,60,-1.0472,-0.698132,-0.174533,-0.174533,-1.042,-0.690116,-0.163482,-0.185786,-1.03902,-0.44887,-0.331461,0.33762
28,60,-1.0472,-0.698132,-0.174533,-0.174533,-1.042,-0.690116,-0.163482,-0.185786,-1.03902,-0.44887,-0.331461,0.33762
28,60,-1.0472,-0.698132,-0.174533,-0.174533,-1.042,-0.690116,-0.163482,-0.185786,-1.03902,-0.44887,-0.331461,0.33762
28,60,-1.0472,-0.698132,-0.174533,-0.174533,-1.042,-0.690116,-0.163482,-0.185786,-1.03902,-0.44887,-0.331461,0.33762
28,60,-1.0472,-0.698132,-0.174533,-0.174533,-1.042,-0.690116,-0.163482,-0.185786,-1.03902,-0.44887,-0.331461,0.33762
28,60,-1.0472,-0.698132,-0.174533,-0.174533,-1.042,-0.690116,-0.163482,-0.185786,-1.03902,-0.44887,-0.331461,0.33762
28,60,-1.0472,-0.698132,-0.174533,-0.174533,-1.042,-0.690116,-0.163482,-0.185786,-1.03902,-0.44887,-0.331461,0.33762
28,60,-1.0472,-0.698132,-0.174533,-0.174533,-1.042,-0.690116,-0.163482,-0.185786,-1.03902,-0.44887,-0.331461,0.33762
28,60,-1.0472,-0.698132,-0.174533,-0.174533,-1.042,-0.690116,-0.163482,-0.185786,-1.03902,-0.44887,-0.331461,0.33762
28,60,-1.0472,-0.698132,-0.174533,-0.174533,-1.042,-0.690116,-0.163482,-0.185786,-1.03902,-0.44887,-0.331461,0.33762
28,60,-1.0472,-0.698132,-0.174533,-0.174533,-1.042,-0.690116,-0.163482,-0.185786,-1.03902,-0.44887,-0.331461,0.33762
28,60,-1.0472,-0.698132,-0.174533,-0.174533,-1.042,-0.690116,-0.163482,-0.185786,-1.03902,-0.44887,-0.331461,0.33762
28,60,-1.0472,-0.698132,-0.174533,-0.174533,-1.042,-0.690116,-0.163482,-0.185786,-1.03902,-0.44887,-0.331461,0.33762
28,60,-1.0472,-0.698132,-0.174533,-0.174533,-1.042,-0.690116,-0.163482,-0.185786,-1.03902,-0.44887,-0.331461,0.33762
28,60,-1.0472,-0.698132,-0.174533,-0.174533,-1.042,-0.690116,-0.163482,-0.185786,-1.03902,-0.44887,-0.331461,0.33762
28,60,-1.0472,-0.698132,-0.174533,-0.174533,-1.042,-0.690116,-0.163482,-0.185786,-1.03902,-0.44887,-0.331461,0.33762
28,60,-1.0472,-0.698132,-0.174533,-0.174533,-1.042,-0.690116,-0.163482,-0.185786,-1.03902,-0.44887,-0.331461,0.33762
28,60,-1.0472,-0.698132,-0.174533,-0.174533,-1.042,-0.690116,-0.163482,-0.185786,-1.03902,-0.44887,-0.331461,0.33762
28,60,-1.0472,-0.698132,-0.174533,-0.174533,-1.042,-0.690116,-0.163482,-0.185786,-1.03902,-0.44887,-0.331461,0.33762
28,60,-1.0472,-0.698132,-0.174533,-0.174533,-1.042,-0.690116,-0.163482,-0.185786,-1.03902,-0.44887,-0.331461,0.33762
28,60,-1.0472,-0.698132,-0.174533,-0.174533,-1.042,-0.690116,-0.163482,-0.185786,-1.03902,-0.44887,-0.331461,0.33762
28,60,-1.0472,-0.698132,-0.174533,-0.174533,-1.042,-0.690116,-0.163482,-0.185786,-1.03902,-0.44887,-0.331461,0.33762
28,60,-1.0472,-0.698132,-0.174533,-0.174533,-1.042,-0.690116,-0.163482,-0.185786,-1.03902,-0.44887,-0.331461,0.33762
28,60,-1.0472,-0.698132,-0.174533,-0.174533,-1.042,-0.690116,-0.163482,-0.185786,-1.03902,-0.44887,-0.331461,0.33762
28,60,-1.0472,-0.698132,-0.174533,-0.174533,-1.042,-0.690116,-0.163482,-0.185786,-1.03902,-0.44887,-0.331461,0.33762
28,60,-1.0472,-0.698132,-0.174533,-0.174533,-1.042,-0.690116,-0.163482,-0.185786,-1.03902,-0.44887,-0.331461,0.33762
28,60,-1.0472,-0.698132,-0.174533,-0.174533,-1.042,-0.690116,-0.163482,-0.185786,-1.03902,-0.44887,-0.331461,0.33762
28,60,-1.0472,-0.698132,-0.174533,-0.174533,-1.042,-0.690116,-0.163482,-0.185786,-1.03902,-0.44887,-0.331461,0.33762
28,60,-1.0472,-0.698132,-0.174533,-0.174533,-1.042,-0.690116,-0.163482,-0.185786,-1.03902,-0.44887,-0.331461,0.33762
28,60,-1.0472,-0.698132,-0.174533,-0.174533,-1.042,-0.690116,-0.163482,-0.185786,-1.03902,-0.44887,-0.331461,0.33762
28,60,-1.0472,-0.698132,-0.174533,-0.174533,-1.042,-0.690116,-0.163482,-0.185786,-1.03902,-0.44887,-0.331461,0.33762
28,60,-1.0472,-0.698132,-0.174533,-0.174533,-1.042,-0.690116,-0.163482,-0.185786,-1.03902,-0.44887,-0.331461,0.33762
28,60,-1.0472,-0.698132,-0.174533,-0.174533,-1.042,-0.690116,-0.163482,-0.185786,-1.03902,-0.44887,-0.331461,0.33762
28,60,-1.0472,-0.698132,-0.174533,-0.174533,-1.042,-0.690116,-0.163482,-0.185786,-1.03902,-0.44887,-0.331461,0.33762
28,60,-1.0472,-0.698132,-0.174533,-0.174533,-1.042,-0.690116,-0.163482,-0.185786,-1.03902,-0.44887,-0.331461,0.33762
28,60,-1.0472,-0.698132,-0.174533,-0.174533,-1.042,-0.690116,-0.163482,-0.185786,-1.03902,-0.44887,-0.331461,0.33762
28,60,-1.0472,-0.698132,-0.174533,-0.174533,-1.042,-0.690116,-0.163482,-0.185786,-1.03902,-0.44887,-0.331461,0.33762
28,60,-1.0472,-0.698132,-0.174533,-0.174533,-1.042,-0.690116,-0.163482,-0.185786,-1.03902,-0.44887,-0.331461,0.33762
28,60,-1.0472,-0.698132,-0.174533,-0.174533,-1.042,-0.690116,-0.163482,-0.185786,-1.03902,-0.44887,-0.331461,0.33762
28,60,-1.0472,-0.698132,-0.174533,-0.174533,-1.042,-0.690116,-0.163482,-0.185786,-1.03902,-0.44887,-0.331461,0.33762
28,60,-1.0472,-0.698132,-0.174533,-0.174533,-1.042,-0.690116,-0.163482,-0.185786,-1.03902,-0.44887,-0.331461,0.33762
28,60,-1.0472,-0.698132,-0.174533,-0.174533,-1.042,-0.690116,-0.163482,-0.185786,-1.03902,-0.44887,-0.331461,0.33762
28,60,-1.0472,-0.698132,-0.174533,-0.174533,-1.042,-0.690116,-0.163482,-0.185786,-1.03902,-0.44887,-0.331461,0.33762
28,60,-1.0472,-0.698132,-0.174533,-0.174533,-1.042,-0.690116,-0.163482,-0.185786,-1.03902,-0.44887,-0.331461,0.33762
28,60,-1.0472,-0.698132,-0.174533,-0.174533,-1.042,-0.690116,-0.163482,-0.185786,-1.03902,-0.44887,-0.331461,0.33762
28,60,-1.0472,-0.698132,-0.174533,-0.174533,-1.042,-0.690116,-0.163482,-0.185786,-1.03902,-0.44887,-0.331461,0.33762
28,60,-1.0472,-0.698132,-0.174533,-0.174533,-1.042,-0.690116,-0.163482,-0.185786,-1.03902,-0.44887,-0.331461,0.33762
28,60,-1.0472,-0.698132,-0.174533,-0.174533,-1.042,-0.690116,-0.163482,-0.185786,-1.03902,-0.44887,-0.331461,0.33762
28,60,-1.0472,-0.698132,-0.174533,-0.174533,-1.042,-0.690116,-0.163482,-0.185786,-1.03902,-0.44887,-0.331461,0.33762
28,60,-1.0472,-0.698132,-0.174533,-0.174533,-1.042,-0.690116,-0.163482,-0.185786,-1.03902,-0.44887,-0.331461,0.33762
28,60,-1.0472,-0.698132,-0.174533,-0.174533,-1.042,-0.690116,-0.163482,-0.185786,-1.03902,-0.44887,-0.331461,0.33762
28,60,-1.0472,-0.698132,-0.174533,-0.174533,-1.042,-0.690116,-0.163482,-0.185786,-1.03902,-0.44887,-0.331461,0.33762
28,60,-1.0472,-0.698132,-0.174533,-0.174533,-1.042,-0.690116,-0.163482,-0.185786,-1.03902,-0.44887,-0.331461,0.33762
28,60,-1.0472,-0.698132,-0.174533,-0.174533,-1.042,-0.690116,-0.163482,-0.185786,-1.03902,-0.44887,-0.331461,0.33762
28,60,-1.0472,-0.698132,-0.174533,-0.174533,-1.042,-0.690116,-0.163482,-0.185786,-1.03902,-0.44887,-0.331461,0.33762
28,60,-1.0472,-0.698132,-0.174533,-0.174533,-1.042,-0.690116,-0.163482,-0.185786,-1.03902,-0.44887,-0.331461,0.33762
28,60,-1.0472,-0.698132,-0.174533,-0.174533,-1.042,-0.690116,-0.163482,-0.185786,-1.03902,-0.44887,-0.331461,0.33762
28,60,-1.0472,-0.698132,-0.174533,-0.174533,-1.042,-0.690116,-0.163482,-0.185786,-1.03902,-0.44887,-0.331461,0.33762
28,60,-1.0472,-0.698132,-0.174533,-0.174533,-1.042,-0.690116,-0.163482,-0.185786,-1.03902,-0.44887,-0.331461,0.33762
28,60,-1.0472,-0.698132,-0.174533,-0.174533,-1.042,-0.690116,-0.163482,-0.185786,-1.03902,-0.44887,-0.331461,0.33762
28,60,-1.0472,-0.698132,-0.174533,-0.174533,-1.042,-0.690116,-0.163482,-0.185786,-1.03902,-0.44887,-0.331461,0.33762
28,60,-1.0472,-0.698132,-0.174533,-0.174533,-1.042,-0.690116,-0.163482,-0.185786,-1.03902,-0.44887,-0.331461,0.33762
28,60,-1.0472,-0.698132,-0.174533,-0.174533,-1.042,-0.690116,-0.163482,-0.185786,-1.03902,-0.44887,-0.331461,0.33762
28,60,-1.0472,-0.698132,-0.174533,-0.174533,-1.042,-0.690116,-0.163482,-0.185786,-1.03902,-0.44887,-0.331461,0.33762
28,60,-1.0472,-0.698132,-0.174533,-0.174533,-1.042,-0.690116,-0.163482,-0.185786,-1.03902,-0.44887,-0.331461,0.33762
28,60,-1.0472,-0.698132,-0.174533,-0.174533,-1.042,-0.690116,-0.163482,-0.185786,-1.03902,-0.44887,-0.331461,0.33762
28,60,-1.0472,-0.698132,-0.174533,-0.174533,-1.042,-0.690116,-0.163482,-0.185786,-1.03902,-0.44887,-0.331461,0.33762
28,60,-1.0472,-0.698132,-0.174533,-0.174533,-1.042,-0.690116,-0.163482,-0.185786,-1.03902,-0.44887,-0.331461,0.33762
28,60,-1.0472,-0.698132,-0.174533,-0.174533,-1.042,-0.690116,-0.163482,-0.185786,-1.03902,-0.44887,-0.331461,0.33762
28,60,-1.0472,-0.698132,-0.174533,-0.174533,-1.042,-0.690116,-0.163482,-0.185786,-1.03902,-0.44887,-0.331461,0.33762
28,60,-1.0472,-0.698132,-0.174533,-0.174533,-1.042,-0.690116,-0.163482,-0.185786,-1.03902,-0.44887,-0.331461,0.33762
28,60,-1.0472,-0.698132,-0.174533,-0.174533,-1.042,-0.690116,-0.163482,-0.185786,-1.03902,-0.44887,-0.331461,0.33762
28,60,-1.0472,-0.698132,-0.174533,-0.174533,-1.042,-0.690116,-0.163482,-0.185786,-1.03902,-0.44887,-0.331461,0.33762
28,60,-1.0472,-0.698132,-0.174533,-0.174533,-1.042,-0.690116,-0.163482,-0.185786,-1.03902,-0.44887,-0.33146,0.337627
28,60,-1.0472,-0.698132,-0.174533,-0.174533,-1.042,-0.690116,-0.163482,-0.185786,-1.03902,-0.44887,-0.33146,0.337627
28,60,-1.0472,-0.698132,-0.174533,-0.174533,-1.042,-0.690116,-0.163482,-0.185786,-1.03902,-0.44887,-0.33146,0.337627
28,60,-1.0472,-0.698132,-0.174533,-0.174533,-1.042,-0.690116,-0.163482,-0.185786,-1.03902,-0.44887,-0.33146,0.337627
28,60,-1.0472,-0.698132,-0.174533,-0.174533,-1.042,-0.690116,-0.163482,-0.185786,-1.03902,-0.44887,-0.33146,0.337627
28,60,-1.0472,-0.698132,-0.174533,-0.174533,-1.042,-0.690116,-0.163482,-0.185786,-1.03902,-0.44887,-0.33146,0.337627
28,60,-1.0472,-0.698132,-0.174533,-0.174533,-1.042,-0.690116,-0.163482,-0.185786,-1.03902,-0.44887,-0.33146,0.337627
28,60,-1.0472,-0.698132,-0.174533,-0.174533,-1.042,-0.690116,-0.163482,-0.185786,-1.03902,-0.44887,-0.33146,0.337627
28,60,-1.0472,-0.698132,-0.174533,-0.174533,-1.042,-0.690116,-0.163482,-0.185786,-1.03902,-0.44887,-0.33146,0.337627
28,60,-1.0472,-0.698132,-0.174533,-0.174533,-1.042,-0.690116,-0.163482,-0.185786,-1.03902,-0.44887,-0.33146,0.337627
28,60,-1.0472,-0.698132,-0.174533,-0.174533,-1.042,-0.690116,-0.163482,-0.185786,-1.03902,-0.44887,-0.33146,0.337627
28,60,-1.0472,-0.698132,-0.174533,-0.174533,-1.042,-0.690116,-0.163482,-0.185786,-1.03902,-0.44887,-0.33146,0.337627
28,60,-1.0472,-0.698132,-0.174533,-0.174533,-1.042,-0.690116,-0.163482,-0.185786,-1.03902,-0.44887,-0.33146,0.337627
28,60,-1.0472,-0.698132,-0.174533,-0.174533,-1.042,-0.690116,-0.163479,-0.185727,-1.03902,-0.44887,-0.331543,0.335837
28,60,-1.0472,-0.698132,-0.174533,-0.174533,-1.042,-0.690116,-0.163479,-0.185727,-1.03902,-0.44887,-0.331543,0.335837
28,60,-1.0472,-0.698132,-0.174533,-0.174533,-1.042,-0.690116,-0.163479,-0.185727,-1.03902,-0.44887,-0.331543,0.335837
28,60,-1.0472,-0.698132,-0.174533,-0.174533,-1.042,-0.690116,-0.163479,-0.185727,-1.03902,-0.44887,-0.331543,0.335837
28,60,-1.0472,-0.698132,-0.174533,-0.174533,-1.042,-0.690116,-0.163479,-0.185727,-1.03902,-0.44887,-0.331543,0.335837
28,60,-1.0472,-0.698132,-0.174533,-0.174533,-1.042,-0.690116,-0.163479,-0.185727,-1.03902,-0.44887,-0.331543,0.335837
28,60,-1.0472,-0.698132,-0.174533,-0.174533,-1.042,-0.690116,-0.16354,-0.185708,-1.03902,-0.44887,-0.329739,0.335259
28,60,-1.0472,-0.698132,-0.174533,-0.174533,-1.042,-0.690116,-0.16354,-0.185708,-1.03902,-0.44887,-0.329739,0.335259
28,60,-1.0472,-0.698132,-0.174533,-0.174533,-1.042,-0.690116,-0.16354,-0.185708,-1.03902,-0.44887,-0.329739,0.335259
28,60,-1.0472,-0.698132,-0.174533,-0.174533,-1.042,-0.690116,-0.16354,-0.185708,-1.03902,-0.44887,-0.329739,0.335259
28,60,-1.0472,-0.698132,-0.174533,-0.174533,-1.042,-0.690116,-0.16354,-0.185708,-1.03902,-0.44887,-0.329739,0.335259
28,60,-1.0472,-0.698132,-0.174533,-0.174533,-1.042,-0.690116,-0.16354,-0.185708,-1.03902,-0.44887,-0.329739,0.335259
28,60,-1.0472,-0.698132,-0.174533,-0.174533,-1.042,-0.690116,-0.16354,-0.185708,-1.03902,-0.44887,-0.329739,0.335259
28,60,-1.0472,-0.698132,-0.174533,-0.174533,-1.042,-0.690116,-0.16354,-0.185708,-1.03902,-0.44887,-0.329739,0.335259
28,60,-1.0472,-0.698132,-0.174533,-0.174533,-1.042,-0.690116,-0.16354,-0.185708,-1.03902,-0.44887,-0.329739,0.335259
28,60,-1.0472,-0.698132,-0.174533,-0.174533,-1.042,-0.690116,-0.16354,-0.185708,-1.03902,-0.44887,-0.329739,0.335259
28,60,-1.0472,-0.698132,-0.174533,-0.174533,-1.042,-0.690116,-0.16354,-0.185708,-1.03902,-0.44887,-0.329739,0.335259
28,60,-1.0472,-0.698132,-0.174533,-0.174533,-1.042,-0.690116,-0.16354,-0.185708,-1.03902,-0.44887,-0.329739,0.335259
28,60,-1.0472,-0.698132,-0.174533,-0.174533,-1.042,-0.690116,-0.16354,-0.185708,-1.03902,-0.44887,-0.329739,0.335259
28,60,-1.0472,-0.698132,-0.174533,-0.174533,-1.042,-0.690116,-0.16354,-0.185708,-1.03902,-0.44887,-0.329739,0.335259
28,60,-1.0472,-0.698132,-0.174533,-0.174533,-1.042,-0.690116,-0.16354,-0.185708,-1.03902,-0.44887,-0.329739,0.335259
28,60,-1.0472,-0.698132,-0.174533,-0.174533,-1.042,-0.690116,-0.16354,-0.185708,-1.03902,-0.44887,-0.329739,0.335259
28,60,-1.0472,-0.698132,-0.174533,-0.174533,-1.042,-0.690116,-0.16354,-0.185708,-1.03902,-0.44887,-0.329739,0.335259
28,60,-1.0472,-0.698132,-0.174533,-0.174533,-1.042,-0.690116,-0.16354,-0.185708,-1.03902,-0.44887,-0.329739,0.335259
28,60,-1.0472,-0.698132,-0.174533,-0.174533,-1.042,-0.690116,-0.16354,-0.185708,-1.03902,-0.44887,-0.329739,0.335259
28,60,-1.0472,-0.698132,-0.174533,-0.174533,-1.042,-0.690116,-0.16354,-0.185708,-1.03902,-0.44887,-0.329739,0.335259
28,60,-1.0472,-0.698132,-0.174533,-0.174533,-1.042,-0.690116,-0.16354,-0.185708,-1.03902,-0.44887,-0.329739,0.335259
28,60,-1.0472,-0.698132,-0.174533,-0.174533,-1.042,-0.690116,-0.16354,-0.185708,-1.03902,-0.44887,-0.329739,0.335259
28,60,-1.0472,-0.698132,-0.174533,-0.174533,-1.042,-0.690116,-0.1636,-0.185688,-1.03902,-0.44887,-0.327933,0.33468
28,60,-1.0472,-0.698132,-0.174533,-0.174533,-1.042,-0.690116,-0.1636,-0.185688,-1.03902,-0.44887,-0.327933,0.33468
28,60,-1.0472,-0.698132,-0.174533,-0.174533,-1.042,-0.690116,-0.1636,-0.185688,-1.03902,-0.44887,-0.327933,0.33468
28,60,-1.0472,-0.698132,-0.174533,-0.174533,-1.042,-0.690116,-0.1636,-0.185688,-1.03902,-0.44887,-0.327933,0.33468
28,60,-1.0472,-0.698132,-0.174533,-0.174533,-1.042,-0.690116,-0.1636,-0.185688,-1.03902,-0.44887,-0.327933,0.33468
28,60,-1.0472,-0.698132,-0.174533,-0.174533,-1.042,-0.690116,-0.1636,-0.185688,-1.03902,-0.44887,-0.327933,0.33468
28,60,-1.0472,-0.698132,-0.174533,-0.174533,-1.042,-0.690116,-0.1636,-0.185688,-1.03902,-0.44887,-0.327933,0.33468
28,60,-1.0472,-0.698132,-0.174533,-0.174533,-1.042,-0.690116,-0.1636,-0.185688,-1.03902,-0.44887,-0.327933,0.33468
28,60,-1.0472,-0.698132,-0.174533,-0.174533,-1.042,-0.690116,-0.1636,-0.185688,-1.03902,-0.44887,-0.327933,0.33468
28,60,-1.0472,-0.698132,-0.174533,-0.174533,-1.042,-0.690116,-0.163666,-0.18573,-1.03902,-0.44887,-0.326003,0.335919
28,60,-1.0472,-0.698132,-0.174533,-0.174533,-1.042,-0.690116,-0.163666,-0.18573,-1.03902,-0.44887,-0.326003,0.335919
28,60,-1.0472,-0.698132,-0.174533,-0.174533,-1.042,-0.690116,-0.163666,-0.18573,-1.03902,-0.44887,-0.326003,0.335919
28,60,-1.0472,-0.698132,-0.174533,-0.174533,-1.042,-0.690116,-0.163666,-0.18573,-1.03902,-0.44887,-0.326003,0.335919
28,60,-1.0472,-0.698132,-0.174533,-0.174533,-1.042,-0.690116,-0.163666,-0.18573,-1.03902,-0.44887,-0.326003,0.335919
28,60,-1.0472,-0.698132,-0.174533,-0.174533,-1.042,-0.690116,-0.163666,-0.18573,-1.03902,-0.44887,-0.326003,0.335919
28,60,-1.0472,-0.698132,-0.174533,-0.174533,-1.042,-0.690116,-0.163666,-0.18573,-1.03902,-0.44887,-0.326003,0.335919
28,60,-1.0472,-0.698132,-0.174533,-0.174533,-1.042,-0.690116,-0.163666,-0.18573,-1.03902,-0.44887,-0.326003,0.335919
28,60,-1.0472,-0.698132,-0.174533,-0.174533,-1.042,-0.690116,-0.163666,-0.18573,-1.03902,-0.44887,-0.326003,0.335919
28,60,-1.0472,-0.698132,-0.174533,-0.174533,-1.042,-0.690116,-0.163666,-0.18573,-1.03902,-0.44887,-0.326003,0.335919
28,60,-1.0472,-0.698132,-0.174533,-0.174533,-1.042,-0.690116,-0.163726,-0.185711,-1.03902,-0.44887,-0.324192,0.335338
28,60,-1.0472,-0.698132,-0.174533,-0.174533,-1.042,-0.690116,-0.163726,-0.185711,-1.03902,-0.44887,-0.324192,0.335338
28,60,-1.0472,-0.698132,-0.174533,-0.174533,-1.042,-0.690116,-0.163726,-0.185711,-1.03902,-0.44887,-0.324192,0.335338
28,60,-1.0472,-0.698132,-0.174533,-0.174533,-1.042,-0.690116,-0.163726,-0.185711,-1.03902,-0.44887,-0.324192,0.335338
28,60,-1.0472,-0.698132,-0.174533,-0.174533,-1.042,-0.690116,-0.163726,-0.185711,-1.03902,-0.44887,-0.324192,0.335338
28,60,-1.0472,-0.698132,-0.174533,-0.174533,-1.042,-0.690116,-0.163726,-0.185711,-1.03902,-0.44887,-0.324192,0.335338
28,60,-1.0472,-0.698132,-0.174533,-0.174533,-1.042,-0.690116,-0.163726,-0.185711,-1.03902,-0.44887,-0.324192,0.335338
28,60,-1.0472,-0.698132,-0.174533,-0.174533,-1.042,-0.690116,-0.163726,-0.185711,-1.03902,-0.44887,-0.324192,0.335338
28,60,-1.0472,-0.698132,-0.174533,-0.174533,-1.042,-0.690116,-0.163792,-0.185753,-1.03902,-0.44887,-0.322217,0.336606
28,60,-1.0472,-0.698132,-0.174533,-0.174533,-1.042,-0.690116,-0.163792,-0.185753,-1.03902,-0.44887,-0.322217,0.336606
28,60,-1.0472,-0.698132,-0.174533,-0.174533,-1.042,-0.690116,-0.163792,-0.185753,-1.03902,-0.44887,-0.322217,0.336606
28,60,-1.0472,-0.698132,-0.174533,-0.174533,-1.042,-0.690116,-0.163792,-0.185753,-1.03902,-0.44887,-0.322217,0.336606
28,60,-1.0472,-0.698132,-0.174533,-0.174533,-1.042,-0.690116,-0.163792,-0.185753,-1.03902,-0.44887,-0.322217,0.336606
28,60,-1.0472,-0.698132,-0.174533,-0.174533,-1.042,-0.690116,-0.163792,-0.185753,-1.03902,-0.44887,-0.322217,0.336606
28,60,-1.0472,-0.698132,-0.174533,-0.174533,-1.042,-0.690116,-0.163792,-0.185753,-1.03902,-0.44887,-0.322217,0.336606
28,60,-1.0472,-0.698132,-0.174533,-0.174533,-1.042,-0.690116,-0.163792,-0.185753,-1.03902,-0.44887,-0.322217,0.336606
28,60,-1.0472,-0.698132,-0.174533,-0.174533,-1.042,-0.690116,-0.163792,-0.185753,-1.03902,-0.44887,-0.322217,0.336606
28,60,-1.0472,-0.698132,-0.174533,-0.174533,-1.042,-0.690116,-0.163792,-0.185753,-1.03902,-0.44887,-0.322217,0.336606
28,60,-1.0472,-0.698132,-0.174533,-0.174533,-1.042,-0.690116,-0.163792,-0.185753,-1.03902,-0.44887,-0.322217,0.336606
28,60,-1.0472,-0.698132,-0.174533,-0.174533,-1.042,-0.690116,-0.163792,-0.185753,-1.03902,-0.44887,-0.322217,0.336606
28,60,-1.0472,-0.698132,-0.174533,-0.174533,-1.042,-0.690116,-0.163792,-0.185753,-1.03902,-0.44887,-0.322217,0.336606
28,60,-1.0472,-0.698132,-0.174533,-0.174533,-1.042,-0.690116,-0.163792,-0.185753,-1.03902,-0.44887,-0.322217,0.336606
28,60,-1.0472,-0.698132,-0.174533,-0.174533,-1.042,-0.690116,-0.163792,-0.185753,-1.03902,-0.44887,-0.322217,0.336606
28,60,-1.0472,-0.698132,-0.174533,-0.174533,-1.042,-0.690116,-0.163857,-0.185795,-1.03902,-0.44887,-0.320241,0.337874
28,60,-1.0472,-0.698132,-0.174533,-0.174533,-1.042,-0.690116,-0.163857,-0.185795,-1.03902,-0.44887,-0.320241,0.337874
28,60,-1.0472,-0.698132,-0.174533,-0.174533,-1.042,-0.690116,-0.163857,-0.185795,-1.03902,-0.44887,-0.320241,0.337874
28,60,-1.0472,-0.698132,-0.174533,-0.174533,-1.042,-0.690116,-0.163857,-0.185795,-1.03902,-0.44887,-0.320241,0.337874
28,60,-1.0472,-0.698132,-0.174533,-0.174533,-1.042,-0.690116,-0.163857,-0.185795,-1.03902,-0.44887,-0.320241,0.337874
28,60,-1.0472,-0.698132,-0.174533,-0.174533,-1.042,-0.690116,-0.163857,-0.185795,-1.03902,-0.44887,-0.320241,0.337874
28,60,-1.0472,-0.698132,-0.174533,-0.174533,-1.042,-0.690116,-0.163857,-0.185795,-1.03902,-0.44887,-0.320241,0.337874
28,60,-1.0472,-0.698132,-0.174533,-0.174533,-1.042,-0.690116,-0.163857,-0.185795,-1.03902,-0.44887,-0.320241,0.337874
28,60,-1.0472,-0.698132,-0.174533,-0.174533,-1.042,-0.690116,-0.163857,-0.185795,-1.03902,-0.44887,-0.320241,0.337874
28,60,-1.0472,-0.698132,-0.174533,-0.174533,-1.042,-0.690116,-0.163857,-0.185795,-1.03902,-0.44887,-0.320241,0.337874
28,60,-1.0472,-0.698132,-0.174533,-0.174533,-1.042,-0.690116,-0.163857,-0.185795,-1.03902,-0.44887,-0.320241,0.337874
28,60,-1.0472,-0.698132,-0.174533,-0.174533,-1.042,-0.690116,-0.163857,-0.185795,-1.03902,-0.44887,-0.320241,0.337874
28,60,-1.0472,-0.698132,-0.174533,-0.174533,-1.042,-0.690116,-0.163857,-0.185795,-1.03902,-0.44887,-0.320241,0.337874
28,60,-1.0472,-0.698132,-0.174533,-0.174533,-1.042,-0.690116,-0.163857,-0.185795,-1.03902,-0.44887,-0.320241,0.337874
28,60,-1.0472,-0.698132,-0.174533,-0.174533,-1.042,-0.690116,-0.163857,-0.185795,-1.03902,-0.44887,-0.320241,0.337874
28,60,-1.0472,-0.698132,-0.174533,-0.174533,-1.042,-0.690116,-0.163857,-0.185795,-1.03902,-0.44887,-0.320241,0.337874
28,60,-1.0472,-0.698132,-0.174533,-0.174533,-1.042,-0.690116,-0.163857,-0.185795,-1.03902,-0.44887,-0.320241,0.337874
28,60,-1.0472,-0.698132,-0.174533,-0.174533,-1.042,-0.690116,-0.163857,-0.185795,-1.03902,-0.44887,-0.320241,0.337874
28,60,-1.0472,-0.698132,-0.174533,-0.174533,-1.042,-0.690116,-0.163857,-0.185795,-1.03902,-0.44887,-0.320241,0.337874
28,60,-1.0472,-0.698132,-0.174533,-0.174533,-1.042,-0.690116,-0.163923,-0.185838,-1.03902,-0.44887,-0.318269,0.339141
28,60,-1.0472,-0.698132,-0.174533,-0.174533,-1.042,-0.690116,-0.163923,-0.185838,-1.03902,-0.44887,-0.318269,0.339141
28,60,-1.0472,-0.698132,-0.174533,-0.174533,-1.042,-0.690116,-0.163923,-0.185838,-1.03902,-0.44887,-0.318269,0.339141
28,60,-1.0472,-0.698132,-0.174533,-0.174533,-1.042,-0.690116,-0.163923,-0.185838,-1.03902,-0.44887,-0.318269,0.339141
28,60,-1.0472,-0.698132,-0.174533,-0.174533,-1.042,-0.690116,-0.163923,-0.185838,-1.03902,-0.44887,-0.318269,0.339141
28,60,-1.0472,-0.698132,-0.174533,-0.174533,-1.042,-0.690116,-0.163923,-0.185838,-1.03902,-0.44887,-0.318269,0.339141
28,60,-1.0472,-0.698132,-0.174533,-0.174533,-1.042,-0.690116,-0.163923,-0.185838,-1.03902,-0.44887,-0.318269,0.339141
28,60,-1.0472,-0.698132,-0.174533,-0.174533,-1.042,-0.690116,-0.163923,-0.185838,-1.03902,-0.44887,-0.318269,0.339141
28,60,-1.0472,-0.698132,-0.174533,-0.174533,-1.042,-0.690116,-0.163923,-0.185838,-1.03902,-0.44887,-0.318269,0.339141
28,60,-1.0472,-0.698132,-0.174533,-0.174533,-1.042,-0.690116,-0.163923,-0.185838,-1.03902,-0.44887,-0.318269,0.339141
28,60,-1.0472,-0.698132,-0.174533,-0.174533,-1.042,-0.690116,-0.163923,-0.185838,-1.03902,-0.44887,-0.318269,0.339141
28,60,-1.0472,-0.698132,-0.174533,-0.174533,-1.042,-0.690116,-0.163923,-0.185838,-1.03902,-0.44887,-0.318269,0.339141
28,60,-1.0472,-0.698132,-0.174533,-0.174533,-1.042,-0.690116,-0.163923,-0.185838,-1.03902,-0.44887,-0.318269,0.339141
28,60,-1.0472,-0.698132,-0.174533,-0.174533,-1.042,-0.690116,-0.163923,-0.185838,-1.03902,-0.44887,-0.318269,0.339141
28,60,-1.0472,-0.698132,-0.174533,-0.174533,-1.042,-0.690116,-0.163923,-0.185838,-1.03902,-0.44887,-0.318269,0.339141
28,60,-1.0472,-0.698132,-0.174533,-0.174533,-1.042,-0.690116,-0.163923,-0.185838,-1.03902,-0.44887,-0.318269,0.339141
28,60,-1.0472,-0.698132,-0.174533,-0.174533,-1.042,-0.690116,-0.163923,-0.185838,-1.03902,-0.44887,-0.318269,0.339141
28,60,-1.0472,-0.698132,-0.174533,-0.174533,-1.042,-0.690116,-0.163989,-0.18588,-1.03902,-0.44887,-0.316286,0.340414
28,60,-1.0472,-0.698132,-0.174533,-0.174533,-1.042,-0.690116,-0.163989,-0.18588,-1.03902,-0.44887,-0.316286,0.340414
28,60,-1.0472,-0.698132,-0.174533,-0.174533,-1.042,-0.690116,-0.163989,-0.18588,-1.03902,-0.44887,-0.316286,0.340414
28,60,-1.0472,-0.698132,-0.174533,-0.174533,-1.042,-0.690116,-0.163989,-0.18588,-1.03902,-0.44887,-0.316286,0.340414
28,60,-1.0472,-0.698132,-0.174533,-0.174533,-1.042,-0.690116,-0.163989,-0.18588,-1.03902,-0.44887,-0.316286,0.340414
28,60,-1.0472,-0.698132,-0.174533,-0.174533,-1.042,-0.690116,-0.163989,-0.18588,-1.03902,-0.44887,-0.316286,0.340414
28,60,-1.0472,-0.698132,-0.174533,-0.174533,-1.042,-0.690116,-0.163989,-0.18588,-1.03902,-0.44887,-0.316286,0.340414
28,60,-1.0472,-0.698132,-0.174533,-0.174533,-1.042,-0.690116,-0.163989,-0.18588,-1.03902,-0.44887,-0.316286,0.340414
28,60,-1.0472,-0.698132,-0.174533,-0.174533,-1.042,-0.690116,-0.163989,-0.18588,-1.03902,-0.44887,-0.316286,0.340414
28,60,-1.0472,-0.698132,-0.174533,-0.174533,-1.042,-0.690116,-0.163989,-0.18588,-1.03902,-0.44887,-0.316286,0.340414
28,60,-1.0472,-0.698132,-0.174533,-0.174533,-1.042,-0.690116,-0.163989,-0.18588,-1.03902,-0.44887,-0.316286,0.340414
28,60,-1.0472,-0.698132,-0.174533,-0.174533,-1.042,-0.690116,-0.163989,-0.18588,-1.03902,-0.44887,-0.316286,0.340414
28,60,-1.0472,-0.698132,-0.174533,-0.174533,-1.042,-0.690116,-0.163989,-0.18588,-1.03902,-0.44887,-0.316286,0.340414
28,60,-1.0472,-0.698132,-0.174533,-0.174533,-1.042,-0.690116,-0.163989,-0.18588,-1.03902,-0.44887,-0.316286,0.340414
28,60,-1.0472,-0.698132,-0.174533,-0.174533,-1.042,-0.690116,-0.163989,-0.18588,-1.03902,-0.44887,-0.316286,0.340414
28,60,-1.0472,-0.698132,-0.174533,-0.174533,-1.042,-0.690116,-0.163989,-0.18588,-1.03902,-0.44887,-0.316286,0.340414
28,60,-1.0472,-0.698132,-0.174533,-0.174533,-1.042,-0.690116,-0.163989,-0.18588,-1.03902,-0.44887,-0.316286,0.340414
28,60,-1.0472,-0.698132,-0.174533,-0.174533,-1.042,-0.690116,-0.163989,-0.18588,-1.03902,-0.44887,-0.316286,0.340414
28,60,-1.0472,-0.698132,-0.174533,-0.174533,-1.042,-0.690116,-0.163989,-0.18588,-1.03902,-0.44887,-0.316286,0.340414
28,60,-1.0472,-0.698132,-0.174533,-0.174533,-1.042,-0.690116,-0.163989,-0.18588,-1.03902,-0.44887,-0.316286,0.340414
28,60,-1.0472,-0.698132,-0.174533,-0.174533,-1.042,-0.690116,-0.163989,-0.18588,-1.03902,-0.44887,-0.316286,0.340414
28,60,-1.0472,-0.698132,-0.174533,-0.174533,-1.042,-0.690116,-0.164054,-0.185922,-1.03902,-0.44887,-0.314263,0.341713
28,60,-1.0472,-0.698132,-0.174533,-0.174533,-1.042,-0.690116,-0.164054,-0.185922,-1.03902,-0.44887,-0.314263,0.341713
28,60,-1.0472,-0.698132,-0.174533,-0.174533,-1.042,-0.690116,-0.164054,-0.185922,-1.03902,-0.44887,-0.314263,0.341713
28,60,-1.0472,-0.698132,-0.174533,-0.174533,-1.042,-0.690116,-0.164054,-0.185922,-1.03902,-0.44887,-0.314263,0.341713
28,60,-1.0472,-0.698132,-0.174533,-0.174533,-1.042,-0.690116,-0.164054,-0.185922,-1.03902,-0.44887,-0.314263,0.341713
28,60,-1.0472,-0.698132,-0.174533,-0.174533,-1.042,-0.690116,-0.164054,-0.185922,-1.03902,-0.44887,-0.314263,0.341713
28,60,-1.0472,-0.698132,-0.174533,-0.174533,-1.042,-0.690116,-0.164054,-0.185922,-1.03902,-0.44887,-0.314263,0.341713
28,60,-1.0472,-0.698132,-0.174533,-0.174533,-1.042,-0.690116,-0.164054,-0.185922,-1.03902,-0.44887,-0.314263,0.341713
28,60,-1.0472,-0.698132,-0.174533,-0.174533,-1.042,-0.690116,-0.164115,-0.185903,-1.03902,-0.44887,-0.312453,0.341133
28,60,-1.0472,-0.698132,-0.174533,-0.174533,-1.042,-0.690116,-0.164115,-0.185903,-1.03902,-0.44887,-0.312453,0.341133
28,60,-1.0472,-0.698132,-0.174533,-0.174533,-1.042,-0.690116,-0.164115,-0.185903,-1.03902,-0.44887,-0.312453,0.341133
28,60,-1.0472,-0.698132,-0.174533,-0.174533,-1.042,-0.690116,-0.164115,-0.185903,-1.03902,-0.44887,-0.312453,0.341133
28,60,-1.0472,-0.698132,-0.174533,-0.174533,-1.042,-0.690116,-0.164115,-0.185903,-1.03902,-0.44887,-0.312453,0.341133
28,60,-1.0472,-0.698132,-0.174533,-0.174533,-1.042,-0.690116,-0.164115,-0.185903,-1.03902,-0.44887,-0.312453,0.341133
28,60,-1.0472,-0.698132,-0.174533,-0.174533,-1.042,-0.690116,-0.164115,-0.185903,-1.03902,-0.44887,-0.312453,0.341133
28,60,-1.0472,-0.698132,-0.174533,-0.174533,-1.042,-0.690116,-0.164115,-0.185903,-1.03902,-0.44887,-0.312453,0.341133
28,60,-1.0472,-0.698132,-0.174533,-0.174533,-1.042,-0.690116,-0.164115,-0.185903,-1.03902,-0.44887,-0.312453,0.341133
28,60,-1.0472,-0.698132,-0.174533,-0.174533,-1.042,-0.690116,-0.164115,-0.185903,-1.03902,-0.44887,-0.312453,0.341133
28,60,-1.0472,-0.698132,-0.174533,-0.174533,-1.042,-0.690116,-0.164115,-0.185903,-1.03902,-0.44887,-0.312453,0.341133
28,60,-1.0472,-0.698132,-0.174533,-0.174533,-1.042,-0.690116,-0.164115,-0.185903,-1.03902,-0.44887,-0.312453,0.341133
28,60,-1.0472,-0.698132,-0.174533,-0.174533,-1.042,-0.690116,-0.164115,-0.185903,-1.03902,-0.44887,-0.312453,0.341133
28,60,-1.0472,-0.698132,-0.174533,-0.174533,-1.042,-0.690116,-0.164115,-0.185903,-1.03902,-0.44887,-0.312453,0.341133
28,60,-1.0472,-0.698132,-0.174533,-0.174533,-1.042,-0.690116,-0.164115,-0.185903,-1.03902,-0.44887,-0.312453,0.341133
28,60,-1.0472,-0.698132,-0.174533,-0.174533,-1.042,-0.690116,-0.164115,-0.185903,-1.03902,-0.44887,-0.312453,0.341133
28,60,-1.0472,-0.698132,-0.174533,-0.174533,-1.042,-0.690116,-0.164115,-0.185903,-1.03902,-0.44887,-0.312453,0.341133
28,60,-1.0472,-0.698132,-0.174533,-0.174533,-1.042,-0.690116,-0.164115,-0.185903,-1.03902,-0.44887,-0.312453,0.341133
28,60,-1.0472,-0.698132,-0.174533,-0.174533,-1.042,-0.690116,-0.164115,-0.185903,-1.03902,-0.44887,-0.312453,0.341133
28,60,-1.0472,-0.698132,-0.174533,-0.174533,-1.042,-0.690116,-0.164115,-0.185903,-1.03902,-0.44887,-0.312453,0.341133
28,60,-1.0472,-0.698132,-0.174533,-0.174533,-1.042,-0.690116,-0.164115,-0.185903,-1.03902,-0.44887,-0.312453,0.341133
28,60,-1.0472,-0.698132,-0.174533,-0.174533,-1.042,-0.690116,-0.164115,-0.185903,-1.03902,-0.44887,-0.312453,0.341133
28,60,-1.0472,-0.698132,-0.174533,-0.174533,-1.042,-0.690116,-0.164115,-0.185903,-1.03902,-0.44887,-0.312453,0.341133
28,60,-1.0472,-0.698132,-0.174533,-0.174533,-1.042,-0.690116,-0.164115,-0.185903,-1.03902,-0.44887,-0.312453,0.341133
28,60,-1.0472,-0.698132,-0.174533,-0.174533,-1.042,-0.690116,-0.164115,-0.185903,-1.03902,-0.44887,-0.312453,0.341133
28,60,-1.0472,-0.698132,-0.174533,-0.174533,-1.042,-0.690116,-0.164115,-0.185903,-1.03902,-0.44887,-0.312453,0.341133
28,60,-1.0472,-0.698132,-0.174533,-0.174533,-1.042,-0.690116,-0.164115,-0.185903,-1.03902,-0.44887,-0.312453,0.341133
28,60,-1.0472,-0.698132,-0.174533,-0.174533,-1.042,-0.690116,-0.164115,-0.185903,-1.03902,-0.44887,-0.312453,0.341133
28,60,-1.0472,-0.698132,-0.174533,-0.174533,-1.042,-0.690116,-0.164115,-0.185903,-1.03902,-0.44887,-0.312453,0.341133
28,60,-1.0472,-0.698132,-0.174533,-0.174533,-1.042,-0.690116,-0.164115,-0.185903,-1.03902,-0.44887,-0.312453,0.341133
28,60,-1.0472,-0.698132,-0.174533,-0.174533,-1.042,-0.690116,-0.164115,-0.185903,-1.03902,-0.44887,-0.312453,0.341133
28,60,-1.0472,-0.698132,-0.174533,-0.174533,-1.042,-0.690116,-0.164115,-0.185903,-1.03902,-0.44887,-0.312453,0.341133
28,60,-1.0472,-0.698132,-0.174533,-0.174533,-1.042,-0.690116,-0.164115,-0.185903,-1.03902,-0.44887,-0.312453,0.341133
28,60,-1.0472,-0.698132,-0.174533,-0.174533,-1.042,-0.690116,-0.164115,-0.185903,-1.03902,-0.44887,-0.312453,0.341133
28,60,-1.0472,-0.698132,-0.174533,-0.174533,-1.042,-0.690116,-0.164115,-0.185903,-1.03902,-0.44887,-0.312453,0.341133
28,60,-1.0472,-0.698132,-0.174533,-0.174533,-1.042,-0.690116,-0.164115,-0.185903,-1.03902,-0.44887,-0.312453,0.341133
28,60,-1.0472,-0.698132,-0.174533,-0.174533,-1.042,-0.690116,-0.164115,-0.185903,-1.03902,-0.44887,-0.312453,0.341133
28,60,-1.0472,-0.698132,-0.174533,-0.174533,-1.042,-0.690116,-0.164115,-0.185903,-1.03902,-0.44887,-0.312453,0.341133
28,60,-1.0472,-0.698132,-0.174533,-0.174533,-1.042,-0.690116,-0.164115,-0.185903,-1.03902,-0.44887,-0.312453,0.341133
28,60,-1.0472,-0.698132,-0.174533,-0.174533,-1.042,-0.690116,-0.164115,-0.185903,-1.03902,-0.44887,-0.312453,0.341133
28,60,-1.0472,-0.698132,-0.174533,-0.174533,-1.042,-0.690116,-0.164115,-0.185903,-1.03902,-0.44887,-0.312453,0.341133
28,60,-1.0472,-0.698132,-0.174533,-0.174533,-1.042,-0.690116,-0.164115,-0.185903,-1.03902,-0.44887,-0.312453,0.341133
28,60,-1.0472,-0.698132,-0.174533,-0.174533,-1.042,-0.690116,-0.164115,-0.185903,-1.03902,-0.44887,-0.312453,0.341133
28,60,-1.0472,-0.698132,-0.174533,-0.174533,-1.042,-0.690116,-0.164115,-0.185903,-1.03902,-0.44887,-0.312453,0.341133
28,60,-1.0472,-0.698132,-0.174533,-0.174533,-1.042,-0.690116,-0.164115,-0.185903,-1.03902,-0.44887,-0.312453,0.341133
28,60,-1.0472,-0.698132,-0.174533,-0.174533,-1.042,-0.690116,-0.164115,-0.185903,-1.03902,-0.44887,-0.312453,0.341133
28,60,-1.0472,-0.698132,-0.174533,-0.174533,-1.042,-0.690116,-0.164115,-0.185903,-1.03902,-0.44887,-0.312453,0.341133
28,60,-1.0472,-0.698132,-0.174533,-0.174533,-1.042,-0.690116,-0.164115,-0.185903,-1.03902,-0.44887,-0.312453,0.341133
28,60,-1.0472,-0.698132,-0.174533,-0.174533,-1.042,-0.690116,-0.164115,-0.185903,-1.03902,-0.44887,-0.312453,0.341133
28,60,-1.0472,-0.698132,-0.174533,-0.174533,-1.042,-0.690116,-0.164115,-0.185903,-1.03902,-0.44887,-0.312453,0.341133
28,60,-1.0472,-0.698132,-0.174533,-0.174533,-1.042,-0.690116,-0.164115,-0.185903,-1.03902,-0.44887,-0.312453,0.341133
28,60,-1.0472,-0.698132,-0.174533,-0.174533,-1.042,-0.690116,-0.164115,-0.185903,-1.03902,-0.44887,-0.312453,0.341133
28,60,-1.0472,-0.698132,-0.174533,-0.174533,-1.042,-0.690116,-0.164115,-0.185903,-1.03902,-0.44887,-0.312453,0.341133
28,60,-1.0472,-0.698132,-0.174533,-0.174533,-1.042,-0.690116,-0.164115,-0.185903,-1.03902,-0.44887,-0.312453,0.341133
28,60,-1.0472,-0.698132,-0.174533,-0.174533,-1.042,-0.690116,-0.164115,-0.185903,-1.03902,-0.44887,-0.312453,0.341133
28,60,-1.0472,-0.698132,-0.174533,-0.174533,-1.042,-0.690116,-0.164115,-0.185903,-1.03902,-0.44887,-0.312453,0.341133
28,60,-1.0472,-0.698132,-0.174533,-0.174533,-1.042,-0.690116,-0.164115,-0.185903,-1.03902,-0.44887,-0.312453,0.341133
28,60,-1.0472,-0.698132,-0.174533,-0.174533,-1.042,-0.690116,-0.164115,-0.185903,-1.03902,-0.44887,-0.312453,0.341133
28,60,-1.0472,-0.698132,-0.174533,-0.174533,-1.042,-0.690116,-0.164115,-0.185903,-1.03902,-0.44887,-0.312453,0.341133
28,60,-1.0472,-0.698132,-0.174533,-0.174533,-1.042,-0.690116,-0.164115,-0.185903,-1.03902,-0.44887,-0.312453,0.341133
28,60,-1.0472,-0.698132,-0.174533,-0.174533,-1.042,-0.690116,-0.164115,-0.185903,-1.03902,-0.44887,-0.312453,0.341133
28,60,-1.0472,-0.698132,-0.174533,-0.174533,-1.042,-0.690116,-0.164115,-0.185903,-1.03902,-0.44887,-0.312453,0.341133
28,60,-1.0472,-0.698132,-0.174533,-0.174533,-1.042,-0.690116,-0.164115,-0.185903,-1.03902,-0.44887,-0.312453,0.341133
28,60,-1.0472,-0.698132,-0.174533,-0.174533,-1.042,-0.690116,-0.164115,-0.185903,-1.03902,-0.44887,-0.312453,0.341133
28,60,-1.0472,-0.698132,-0.174533,-0.174533,-1.042,-0.690116,-0.164115,-0.185903,-1.03902,-0.44887,-0.312453,0.341133
28,60,-1.0472,-0.698132,-0.174533,-0.174533,-1.042,-0.690116,-0.164115,-0.185903,-1.03902,-0.44887,-0.312453,0.341133
28,60,-1.0472,-0.698132,-0.174533,-0.174533,-1.042,-0.690116,-0.164115,-0.185903,-1.03902,-0.44887,-0.312453,0.341133
28,60,-1.0472,-0.698132,-0.174533,-0.174533,-1.042,-0.690116,-0.164115,-0.185903,-1.03902,-0.44887,-0.312453,0.341133
28,60,-1.0472,-0.698132,-0.174533,-0.174533,-1.042,-0.690116,-0.164115,-0.185903,-1.03902,-0.44887,-0.312453,0.341133
28,60,-1.0472,-0.698132,-0.174533,-0.174533,-1.042,-0.690116,-0.164115,-0.185903,-1.03902,-0.44887,-0.312453,0.341133
28,60,-1.0472,-0.698132,-0.174533,-0.174533,-1.042,-0.690116,-0.164115,-0.185903,-1.03902,-0.44887,-0.312453,0.341133
28,60,-1.0472,-0.698132,-0.174533,-0.174533,-1.042,-0.690116,-0.164115,-0.185903,-1.03902,-0.44887,-0.312453,0.341133
28,60,-1.0472,-0.698132,-0.174533,-0.174533,-1.042,-0.690116,-0.164115,-0.185903,-1.03902,-0.44887,-0.312453,0.341133
28,60,-1.0472,-0.698132,-0.174533,-0.174533,-1.042,-0.690116,-0.16418,-0.185945,-1.03902,-0.44887,-0.310484,0.342397
28,60,-1.0472,-0.698132,-0.174533,-0.174533,-1.042,-0.690116,-0.16418,-0.185945,-1.03902,-0.44887,-0.310484,0.3424
28,60,-1.0472,-0.698132,-0.174533,-0.174533,-1.042,-0.690116,-0.16418,-0.185945,-1.03902,-0.44887,-0.310484,0.3424
28,60,-1.0472,-0.698132,-0.174533,-0.174533,-1.042,-0.690116,-0.16418,-0.185945,-1.03902,-0.44887,-0.310484,0.3424
28,60,-1.0472,-0.698132,-0.174533,-0.174533,-1.042,-0.690116,-0.16418,-0.185945,-1.03902,-0.44887,-0.310484,0.3424
28,60,-1.0472,-0.698132,-0.174533,-0.174533,-1.042,-0.690116,-0.16418,-0.185945,-1.03902,-0.44887,-0.310484,0.3424
28,60,-1.0472,-0.698132,-0.174533,-0.174533,-1.042,-0.690116,-0.16418,-0.185945,-1.03902,-0.44887,-0.310484,0.3424
28,60,-1.0472,-0.698132,-0.174533,-0.174533,-1.042,-0.690116,-0.16418,-0.185945,-1.03902,-0.44887,-0.310484,0.3424
28,60,-1.0472,-0.698132,-0.174533,-0.174533,-1.042,-0.690116,-0.16418,-0.185945,-1.03902,-0.44887,-0.310484,0.3424
28,60,-1.0472,-0.698132,-0.174533,-0.174533,-1.042,-0.690116,-0.164241,-0.185926,-1.03902,-0.44887,-0.308674,0.341821
28,60,-1.0472,-0.698132,-0.174533,-0.174533,-1.042,-0.690116,-0.164241,-0.185926,-1.03902,-0.44887,-0.308674,0.341821
28,60,-1.0472,-0.698132,-0.174533,-0.174533,-1.042,-0.690116,-0.164241,-0.185926,-1.03902,-0.44887,-0.308674,0.341821
28,60,-1.0472,-0.698132,-0.174533,-0.174533,-1.042,-0.690116,-0.164241,-0.185926,-1.03902,-0.44887,-0.308674,0.341821
28,60,-1.0472,-0.698132,-0.174533,-0.174533,-1.042,-0.690116,-0.164241,-0.185926,-1.03902,-0.44887,-0.308674,0.341821
28,60,-1.0472,-0.698132,-0.174533,-0.174533,-1.042,-0.690116,-0.164241,-0.185926,-1.03902,-0.44887,-0.308674,0.341821
28,60,-1.0472,-0.698132,-0.174533,-0.174533,-1.042,-0.690116,-0.164241,-0.185926,-1.03902,-0.44887,-0.308674,0.341821
28,60,-1.0472,-0.698132,-0.174533,-0.174533,-1.042,-0.690116,-0.164241,-0.185926,-1.03902,-0.44887,-0.308674,0.341821
28,60,-1.0472,-0.698132,-0.174533,-0.174533,-1.042,-0.690116,-0.164241,-0.185926,-1.03902,-0.44887,-0.308674,0.341821
28,60,-1.0472,-0.698132,-0.174533,-0.174533,-1.042,-0.690116,-0.164241,-0.185926,-1.03902,-0.44887,-0.308674,0.341821
28,60,-1.0472,-0.698132,-0.174533,-0.174533,-1.042,-0.690116,-0.164241,-0.185926,-1.03902,-0.44887,-0.308674,0.341821
28,60,-1.0472,-0.698132,-0.174533,-0.174533,-1.042,-0.690116,-0.164241,-0.185926,-1.03902,-0.44887,-0.308674,0.341821
28,60,-1.0472,-0.698132,-0.174533,-0.174533,-1.042,-0.690116,-0.164241,-0.185926,-1.03902,-0.44887,-0.308674,0.341821
28,60,-1.0472,-0.698132,-0.174533,-0.174533,-1.042,-0.690116,-0.164241,-0.185926,-1.03902,-0.44887,-0.308674,0.341821
28,60,-1.0472,-0.698132,-0.174533,-0.174533,-1.042,-0.690116,-0.164241,-0.185926,-1.03902,-0.44887,-0.308674,0.341821
28,60,-1.0472,-0.698132,-0.174533,-0.174533,-1.042,-0.690116,-0.164306,-0.185968,-1.03902,-0.44887,-0.306737,0.343065
28,60,-1.0472,-0.698132,-0.174533,-0.174533,-1.042,-0.690116,-0.164306,-0.185968,-1.03902,-0.44887,-0.306737,0.343065
28,60,-1.0472,-0.698132,-0.174533,-0.174533,-1.042,-0.690116,-0.164306,-0.185968,-1.03902,-0.44887,-0.306737,0.343065
28,60,-1.0472,-0.698132,-0.174533,-0.174533,-1.042,-0.690116,-0.164306,-0.185968,-1.03902,-0.44887,-0.306737,0.343065
28,60,-1.0472,-0.698132,-0.174533,-0.174533,-1.042,-0.690116,-0.164367,-0.185949,-1.03902,-0.44887,-0.304927,0.342485
28,60,-1.0472,-0.698132,-0.174533,-0.174533,-1.042,-0.690116,-0.164367,-0.185949,-1.03902,-0.44887,-0.304927,0.342485
28,60,-1.0472,-0.698132,-0.174533,-0.174533,-1.042,-0.690116,-0.164367,-0.185949,-1.03902,-0.44887,-0.304927,0.342485
28,60,-1.0472,-0.698132,-0.174533,-0.174533,-1.042,-0.690116,-0.164367,-0.185949,-1.03902,-0.44887,-0.304927,0.342485
28,60,-1.0472,-0.698132,-0.174533,-0.174533,-1.042,-0.690116,-0.164432,-0.185991,-1.03902,-0.44887,-0.302956,0.343751
28,60,-1.0472,-0.698132,-0.174533,-0.174533,-1.042,-0.690116,-0.164432,-0.185991,-1.03902,-0.44887,-0.302956,0.343751
28,60,-1.0472,-0.698132,-0.174533,-0.174533,-1.042,-0.690116,-0.164432,-0.185991,-1.03902,-0.44887,-0.302956,0.343751
28,60,-1.0472,-0.698132,-0.174533,-0.174533,-1.042,-0.690116,-0.164432,-0.185991,-1.03902,-0.44887,-0.302956,0.343751
28,60,-1.0472,-0.698132,-0.174533,-0.174533,-1.042,-0.690116,-0.164432,-0.185991,-1.03902,-0.44887,-0.302956,0.343751
28,60,-1.0472,-0.698132,-0.174533,-0.174533,-1.042,-0.690116,-0.164432,-0.185991,-1.03902,-0.44887,-0.302956,0.343751
28,60,-1.0472,-0.698132,-0.174533,-0.174533,-1.042,-0.690116,-0.164432,-0.185991,-1.03902,-0.44887,-0.302956,0.343751
28,60,-1.0472,-0.698132,-0.174533,-0.174533,-1.042,-0.690116,-0.164432,-0.185991,-1.03902,-0.44887,-0.302956,0.343751
28,60,-1.0472,-0.698132,-0.174533,-0.174533,-1.042,-0.690116,-0.164432,-0.185991,-1.03902,-0.44887,-0.302956,0.343751
28,60,-1.0472,-0.698132,-0.174533,-0.174533,-1.042,-0.690116,-0.164432,-0.185991,-1.03902,-0.44887,-0.302956,0.343751
28,60,-1.0472,-0.698132,-0.174533,-0.174533,-1.042,-0.690116,-0.164432,-0.185991,-1.03902,-0.44887,-0.302956,0.343751
28,60,-1.0472,-0.698132,-0.174533,-0.174533,-1.042,-0.690116,-0.164432,-0.185991,-1.03902,-0.44887,-0.302956,0.343751
28,60,-1.0472,-0.698132,-0.174533,-0.174533,-1.042,-0.690116,-0.164432,-0.185991,-1.03902,-0.44887,-0.302956,0.343751
28,60,-1.0472,-0.698132,-0.174533,-0.174533,-1.042,-0.690116,-0.164432,-0.185991,-1.03902,-0.44887,-0.302956,0.343751
28,60,-1.0472,-0.698132,-0.174533,-0.174533,-1.042,-0.690116,-0.164432,-0.185991,-1.03902,-0.44887,-0.302956,0.343751
28,60,-1.0472,-0.698132,-0.174533,-0.174533,-1.042,-0.690116,-0.164432,-0.185991,-1.03902,-0.44887,-0.302956,0.343751
28,60,-1.0472,-0.698132,-0.174533,-0.174533,-1.042,-0.690116,-0.164432,-0.185991,-1.03902,-0.44887,-0.302956,0.343751
28,60,-1.0472,-0.698132,-0.174533,-0.174533,-1.042,-0.690116,-0.164432,-0.185991,-1.03902,-0.44887,-0.302956,0.343751
28,60,-1.0472,-0.698132,-0.174533,-0.174533,-1.042,-0.690116,-0.164432,-0.185991,-1.03902,-0.44887,-0.302956,0.343751
28,60,-1.0472,-0.698132,-0.174533,-0.174533,-1.042,-0.690116,-0.164432,-0.185991,-1.03902,-0.44887,-0.302956,0.343751
28,60,-1.0472,-0.698132,-0.174533,-0.174533,-1.042,-0.690116,-0.164432,-0.185991,-1.03902,-0.44887,-0.302956,0.343751
28,60,-1.0472,-0.698132,-0.174533,-0.174533,-1.042,-0.690116,-0.164432,-0.185991,-1.03902,-0.44887,-0.302956,0.343751
28,60,-1.0472,-0.698132,-0.174533,-0.174533,-1.042,-0.690116,-0.164432,-0.185991,-1.03902,-0.44887,-0.302956,0.343751
28,60,-1.0472,-0.698132,-0.174533,-0.174533,-1.042,-0.690116,-0.164432,-0.185991,-1.03902,-0.44887,-0.302956,0.343751
28,60,-1.0472,-0.698132,-0.174533,-0.174533,-1.042,-0.690116,-0.164432,-0.185991,-1.03902,-0.44887,-0.302956,0.343751
28,60,-1.0472,-0.698132,-0.174533,-0.174533,-1.042,-0.690116,-0.164432,-0.185991,-1.03902,-0.44887,-0.302956,0.343751
28,60,-1.0472,-0.698132,-0.174533,-0.174533,-1.042,-0.690116,-0.164432,-0.185991,-1.03902,-0.44887,-0.302956,0.343751
28,60,-1.0472,-0.698132,-0.174533,-0.174533,-1.042,-0.690116,-0.164432,-0.185991,-1.03902,-0.44887,-0.302956,0.343751
28,60,-1.0472,-0.698132,-0.174533,-0.174533,-1.042,-0.690116,-0.164432,-0.185991,-1.03902,-0.44887,-0.302956,0.343751
28,60,-1.0472,-0.698132,-0.174533,-0.174533,-1.042,-0.690116,-0.164432,-0.185991,-1.03902,-0.44887,-0.302956,0.343751
28,60,-1.0472,-0.698132,-0.174533,-0.174533,-1.042,-0.690116,-0.164432,-0.185991,-1.03902,-0.44887,-0.302956,0.343751
28,60,-1.0472,-0.698132,-0.174533,-0.174533,-1.042,-0.690116,-0.164432,-0.185991,-1.03902,-0.44887,-0.302956,0.343751
28,60,-1.0472,-0.698132,-0.174533,-0.174533,-1.042,-0.690116,-0.164432,-0.185991,-1.03902,-0.44887,-0.302956,0.343751
28,60,-1.0472,-0.698132,-0.174533,-0.174533,-1.042,-0.690116,-0.164432,-0.185991,-1.03902,-0.44887,-0.302956,0.343751
28,60,-1.0472,-0.698132,-0.174533,-0.174533,-1.042,-0.690116,-0.164493,-0.185971,-1.03902,-0.44887,-0.301148,0.343172
28,60,-1.0472,-0.698132,-0.174533,-0.174533,-1.042,-0.690116,-0.164493,-0.185971,-1.03902,-0.44887,-0.301148,0.343172
28,60,-1.0472,-0.698132,-0.174533,-0.174533,-1.042,-0.690116,-0.164493,-0.185971,-1.03902,-0.44887,-0.301148,0.343172
28,60,-1.0472,-0.698132,-0.174533,-0.174533,-1.042,-0.690116,-0.164493,-0.185971,-1.03902,-0.44887,-0.301148,0.343172
28,60,-1.0472,-0.698132,-0.174533,-0.174533,-1.042,-0.690116,-0.164493,-0.185971,-1.03902,-0.44887,-0.301148,0.343172
28,60,-1.0472,-0.698132,-0.174533,-0.174533,-1.042,-0.690116,-0.164493,-0.185971,-1.03902,-0.44887,-0.301148,0.343172
28,60,-1.0472,-0.698132,-0.174533,-0.174533,-1.042,-0.690116,-0.164493,-0.185971,-1.03902,-0.44887,-0.301148,0.343172
28,60,-1.0472,-0.698132,-0.174533,-0.174533,-1.042,-0.690116,-0.164493,-0.185971,-1.03902,-0.44887,-0.301148,0.343172
28,60,-1.0472,-0.698132,-0.174533,-0.174533,-1.042,-0.690116,-0.164493,-0.185971,-1.03902,-0.44887,-0.301148,0.343172
28,60,-1.0472,-0.698132,-0.174533,-0.174533,-1.042,-0.690116,-0.164493,-0.185971,-1.03902,-0.44887,-0.301148,0.343172
28,60,-1.0472,-0.698132,-0.174533,-0.174533,-1.042,-0.690116,-0.164493,-0.185971,-1.03902,-0.44887,-0.301148,0.343172
28,60,-1.0472,-0.698132,-0.174533,-0.174533,-1.042,-0.690116,-0.164493,-0.185971,-1.03902,-0.44887,-0.301148,0.343172
28,60,-1.0472,-0.698132,-0.174533,-0.174533,-1.042,-0.690116,-0.164493,-0.185971,-1.03902,-0.44887,-0.301148,0.343172
28,60,-1.0472,-0.698132,-0.174533,-0.174533,-1.042,-0.690116,-0.164493,-0.185971,-1.03902,-0.44887,-0.301148,0.343172
28,60,-1.0472,-0.698132,-0.174533,-0.174533,-1.042,-0.690116,-0.164493,-0.185971,-1.03902,-0.44887,-0.301148,0.343172
28,60,-1.0472,-0.698132,-0.174533,-0.174533,-1.042,-0.690116,-0.164493,-0.185971,-1.03902,-0.44887,-0.301148,0.343172
28,60,-1.0472,-0.698132,-0.174533,-0.174533,-1.042,-0.690116,-0.164493,-0.185971,-1.03902,-0.44887,-0.301148,0.343172
28,60,-1.0472,-0.698132,-0.174533,-0.174533,-1.042,-0.690116,-0.164493,-0.185971,-1.03902,-0.44887,-0.301148,0.343172
28,60,-1.0472,-0.698132,-0.174533,-0.174533,-1.042,-0.690116,-0.164493,-0.185971,-1.03902,-0.44887,-0.301148,0.343172
28,60,-1.0472,-0.698132,-0.174533,-0.174533,-1.042,-0.690116,-0.164493,-0.185971,-1.03902,-0.44887,-0.301148,0.343172
28,60,-1.0472,-0.698132,-0.174533,-0.174533,-1.042,-0.690116,-0.164493,-0.185971,-1.03902,-0.44887,-0.301148,0.343172
28,60,-1.0472,-0.698132,-0.174533,-0.174533,-1.042,-0.690116,-0.164493,-0.185971,-1.03902,-0.44887,-0.301148,0.343172
28,60,-1.0472,-0.698132,-0.174533,-0.174533,-1.042,-0.690116,-0.164493,-0.185971,-1.03902,-0.44887,-0.301148,0.343172
28,60,-1.0472,-0.698132,-0.174533,-0.174533,-1.042,-0.690116,-0.164493,-0.185971,-1.03902,-0.44887,-0.301148,0.343172
28,60,-1.0472,-0.698132,-0.174533,-0.174533,-1.042,-0.690116,-0.164493,-0.185971,-1.03902,-0.44887,-0.301148,0.343172
28,60,-1.0472,-0.698132,-0.174533,-0.174533,-1.042,-0.690116,-0.164493,-0.185971,-1.03902,-0.44887,-0.301148,0.343172
28,60,-1.0472,-0.698132,-0.174533,-0.174533,-1.042,-0.690116,-0.164493,-0.185971,-1.03902,-0.44887,-0.301148,0.343172
28,60,-1.0472,-0.698132,-0.174533,-0.174533,-1.042,-0.690116,-0.164493,-0.185971,-1.03902,-0.44887,-0.301148,0.343172
28,60,-1.0472,-0.698132,-0.174533,-0.174533,-1.042,-0.690116,-0.164493,-0.185971,-1.03902,-0.44887,-0.301148,0.343172
28,60,-1.0472,-0.698132,-0.174533,-0.174533,-1.042,-0.690116,-0.164493,-0.185971,-1.03902,-0.44887,-0.301148,0.343172
28,60,-1.0472,-0.698132,-0.174533,-0.174533,-1.042,-0.690116,-0.164493,-0.185971,-1.03902,-0.44887,-0.301148,0.343172
28,60,-1.0472,-0.698132,-0.174533,-0.174533,-1.042,-0.690116,-0.164493,-0.185971,-1.03902,-0.44887,-0.301148,0.343172
28,60,-1.0472,-0.698132,-0.174533,-0.174533,-1.042,-0.690116,-0.164493,-0.185971,-1.03902,-0.44887,-0.301148,0.343172
28,60,-1.0472,-0.698132,-0.174533,-0.174533,-1.042,-0.690116,-0.164493,-0.185971,-1.03902,-0.44887,-0.301148,0.343172
28,60,-1.0472,-0.698132,-0.174533,-0.174533,-1.042,-0.690116,-0.164493,-0.185971,-1.03902,-0.44887,-0.301148,0.343172
28,60,-1.0472,-0.698132,-0.174533,-0.174533,-1.042,-0.690116,-0.164493,-0.185971,-1.03902,-0.44887,-0.301148,0.343172
28,60,-1.0472,-0.698132,-0.174533,-0.174533,-1.042,-0.690116,-0.164493,-0.185971,-1.03902,-0.44887,-0.301148,0.343172
28,60,-1.0472,-0.698132,-0.174533,-0.174533,-1.042,-0.690116,-0.164493,-0.185971,-1.03902,-0.44887,-0.301148,0.343172
28,60,-1.0472,-0.698132,-0.174533,-0.174533,-1.042,-0.690116,-0.164493,-0.185971,-1.03902,-0.44887,-0.301148,0.343172
28,60,-1.0472,-0.698132,-0.174533,-0.174533,-1.042,-0.690116,-0.164493,-0.185971,-1.03902,-0.44887,-0.301148,0.343172
28,60,-1.0472,-0.698132,-0.174533,-0.174533,-1.042,-0.690116,-0.164493,-0.185971,-1.03902,-0.44887,-0.301148,0.343172
28,60,-1.0472,-0.698132,-0.174533,-0.174533,-1.042,-0.690116,-0.164493,-0.185971,-1.03902,-0.44887,-0.301148,0.343172
28,60,-1.0472,-0.698132,-0.174533,-0.174533,-1.042,-0.690116,-0.164558,-0.186014,-1.03902,-0.44887,-0.299173,0.34444
28,60,-1.0472,-0.698132,-0.174533,-0.174533,-1.042,-0.690116,-0.164558,-0.186014,-1.03902,-0.44887,-0.299173,0.34444
28,60,-1.0472,-0.698132,-0.174533,-0.174533,-1.042,-0.690116,-0.164558,-0.186014,-1.03902,-0.44887,-0.299173,0.34444
28,60,-1.0472,-0.698132,-0.174533,-0.174533,-1.042,-0.690116,-0.164558,-0.186014,-1.03902,-0.44887,-0.299173,0.34444
28,60,-1.0472,-0.698132,-0.174533,-0.174533,-1.042,-0.690116,-0.164558,-0.186014,-1.03902,-0.44887,-0.299173,0.34444
28,60,-1.0472,-0.698132,-0.174533,-0.174533,-1.042,-0.690116,-0.164558,-0.186014,-1.03902,-0.44887,-0.299173,0.34444
28,60,-1.0472,-0.698132,-0.174533,-0.174533,-1.042,-0.690116,-0.164558,-0.186014,-1.03902,-0.44887,-0.299173,0.34444
28,60,-1.0472,-0.698132,-0.174533,-0.174533,-1.042,-0.690116,-0.164558,-0.186014,-1.03902,-0.44887,-0.299173,0.34444
28,60,-1.0472,-0.698132,-0.174533,-0.174533,-1.042,-0.690116,-0.164558,-0.186014,-1.03902,-0.44887,-0.299173,0.34444
28,60,-1.0472,-0.698132,-0.174533,-0.174533,-1.042,-0.690116,-0.164558,-0.186014,-1.03902,-0.44887,-0.299173,0.34444
28,60,-1.0472,-0.698132,-0.174533,-0.174533,-1.042,-0.690116,-0.164558,-0.186014,-1.03902,-0.44887,-0.299173,0.34444
28,60,-1.0472,-0.698132,-0.174533,-0.174533,-1.042,-0.690116,-0.164558,-0.186014,-1.03902,-0.44887,-0.299173,0.34444
28,60,-1.0472,-0.698132,-0.174533,-0.174533,-1.042,-0.690116,-0.164558,-0.186014,-1.03902,-0.44887,-0.299173,0.34444
28,60,-1.0472,-0.698132,-0.174533,-0.174533,-1.042,-0.690116,-0.164558,-0.186014,-1.03902,-0.44887,-0.299173,0.34444
28,60,-1.0472,-0.698132,-0.174533,-0.174533,-1.042,-0.690116,-0.164558,-0.186014,-1.03902,-0.44887,-0.299173,0.34444
28,60,-1.0472,-0.698132,-0.174533,-0.174533,-1.042,-0.690116,-0.164558,-0.186014,-1.03902,-0.44887,-0.299173,0.34444
28,60,-1.0472,-0.698132,-0.174533,-0.174533,-1.042,-0.690116,-0.164558,-0.186014,-1.03902,-0.44887,-0.299173,0.34444
28,60,-1.0472,-0.698132,-0.174533,-0.174533,-1.042,-0.690116,-0.164558,-0.186014,-1.03902,-0.44887,-0.299173,0.34444
28,60,-1.0472,-0.698132,-0.174533,-0.174533,-1.042,-0.690116,-0.164558,-0.186014,-1.03902,-0.44887,-0.299173,0.34444
28,60,-1.0472,-0.698132,-0.174533,-0.174533,-1.042,-0.690116,-0.164558,-0.186014,-1.03902,-0.44887,-0.299173,0.34444
28,60,-1.0472,-0.698132,-0.174533,-0.174533,-1.042,-0.690116,-0.164558,-0.186014,-1.03902,-0.44887,-0.299173,0.34444
28,60,-1.0472,-0.698132,-0.174533,-0.174533,-1.042,-0.690116,-0.164558,-0.186014,-1.03902,-0.44887,-0.299173,0.34444
28,60,-1.0472,-0.698132,-0.174533,-0.174533,-1.042,-0.690116,-0.164558,-0.186014,-1.03902,-0.44887,-0.299173,0.34444
28,60,-1.0472,-0.698132,-0.174533,-0.174533,-1.042,-0.690116,-0.164558,-0.186014,-1.03902,-0.44887,-0.299173,0.34444
28,60,-1.0472,-0.698132,-0.174533,-0.174533,-1.042,-0.690116,-0.164558,-0.186014,-1.03902,-0.44887,-0.299173,0.34444
28,60,-1.0472,-0.698132,-0.174533,-0.174533,-1.042,-0.690116,-0.164558,-0.186014,-1.03902,-0.44887,-0.299173,0.34444
28,60,-1.0472,-0.698132,-0.174533,-0.174533,-1.042,-0.690116,-0.164558,-0.186014,-1.03902,-0.44887,-0.299173,0.34444
28,60,-1.0472,-0.698132,-0.174533,-0.174533,-1.042,-0.690116,-0.164558,-0.186014,-1.03902,-0.44887,-0.299173,0.34444
28,60,-1.0472,-0.698132,-0.174533,-0.174533,-1.042,-0.690116,-0.164558,-0.186014,-1.03902,-0.44887,-0.299173,0.34444
28,60,-1.0472,-0.698132,-0.174533,-0.174533,-1.042,-0.690116,-0.164558,-0.186014,-1.03902,-0.44887,-0.299173,0.34444
28,60,-1.0472,-0.698132,-0.174533,-0.174533,-1.042,-0.690116,-0.164558,-0.186014,-1.03902,-0.44887,-0.299173,0.34444
28,60,-1.0472,-0.698132,-0.174533,-0.174533,-1.042,-0.690116,-0.164556,-0.185954,-1.03902,-0.44887,-0.299257,0.342648
28,60,-1.0472,-0.698132,-0.174533,-0.174533,-1.042,-0.690116,-0.164556,-0.185954,-1.03902,-0.44887,-0.299257,0.342648
28,60,-1.0472,-0.698132,-0.174533,-0.174533,-1.042,-0.690116,-0.164621,-0.185996,-1.03902,-0.44887,-0.297295,0.343907
28,60,-1.0472,-0.698132,-0.174533,-0.174533,-1.042,-0.690116,-0.164621,-0.185996,-1.03902,-0.44887,-0.297295,0.343907
28,60,-1.0472,-0.698132,-0.174533,-0.174533,-1.042,-0.690116,-0.164621,-0.185996,-1.03902,-0.44887,-0.297295,0.343907
28,60,-1.0472,-0.698132,-0.174533,-0.174533,-1.042,-0.690116,-0.164621,-0.185996,-1.03902,-0.44887,-0.297295,0.343907
28,60,-1.0472,-0.698132,-0.174533,-0.174533,-1.042,-0.690116,-0.164621,-0.185996,-1.03902,-0.44887,-0.297295,0.343907
28,60,-1.0472,-0.698132,-0.174533,-0.174533,-1.042,-0.690116,-0.164621,-0.185996,-1.03902,-0.44887,-0.297295,0.343907
28,60,-1.0472,-0.698132,-0.174533,-0.174533,-1.042,-0.690116,-0.164621,-0.185996,-1.03902,-0.44887,-0.297295,0.343907
28,60,-1.0472,-0.698132,-0.174533,-0.174533,-1.042,-0.690116,-0.164621,-0.185996,-1.03902,-0.44887,-0.297295,0.343907
28,60,-1.0472,-0.698132,-0.174533,-0.174533,-1.042,-0.690116,-0.164621,-0.185996,-1.03902,-0.44887,-0.297295,0.343907
28,60,-1.0472,-0.698132,-0.174533,-0.174533,-1.042,-0.690116,-0.164621,-0.185996,-1.03902,-0.44887,-0.297295,0.343907
28,60,-1.0472,-0.698132,-0.174533,-0.174533,-1.042,-0.690116,-0.164621,-0.185996,-1.03902,-0.44887,-0.297295,0.343907
28,60,-1.0472,-0.698132,-0.174533,-0.174533,-1.042,-0.690116,-0.164621,-0.185996,-1.03902,-0.44887,-0.297295,0.343907
28,60,-1.0472,-0.698132,-0.174533,-0.174533,-1.042,-0.690116,-0.164621,-0.185996,-1.03902,-0.44887,-0.297295,0.343907
28,60,-1.0472,-0.698132,-0.174533,-0.174533,-1.042,-0.690116,-0.164687,-0.186039,-1.03902,-0.44887,-0.295313,0.34518
28,60,-1.0472,-0.698132,-0.174533,-0.174533,-1.042,-0.690116,-0.164687,-0.186039,-1.03902,-0.44887,-0.295313,0.34518
28,60,-1.0472,-0.698132,-0.174533,-0.174533,-1.042,-0.690116,-0.164687,-0.186039,-1.03902,-0.44887,-0.295313,0.34518
28,60,-1.0472,-0.698132,-0.174533,-0.174533,-1.042,-0.690116,-0.164687,-0.186039,-1.03902,-0.44887,-0.295313,0.34518
28,60,-1.0472,-0.698132,-0.174533,-0.174533,-1.042,-0.690116,-0.164687,-0.186039,-1.03902,-0.44887,-0.295313,0.34518
28,60,-1.0472,-0.698132,-0.174533,-0.174533,-1.042,-0.690116,-0.164687,-0.186039,-1.03902,-0.44887,-0.295313,0.34518
28,60,-1.0472,-0.698132,-0.174533,-0.174533,-1.042,-0.690116,-0.164687,-0.186039,-1.03902,-0.44887,-0.295313,0.34518
28,60,-1.0472,-0.698132,-0.174533,-0.174533,-1.042,-0.690116,-0.164687,-0.186039,-1.03902,-0.44887,-0.295313,0.34518
28,60,-1.0472,-0.698132,-0.174533,-0.174533,-1.042,-0.690116,-0.164687,-0.186039,-1.03902,-0.44887,-0.295313,0.34518
28,60,-1.0472,-0.698132,-0.174533,-0.174533,-1.042,-0.690116,-0.164687,-0.186039,-1.03902,-0.44887,-0.295313,0.34518
28,60,-1.0472,-0.698132,-0.174533,-0.174533,-1.042,-0.690116,-0.164687,-0.186039,-1.03902,-0.44887,-0.295313,0.34518
28,60,-1.0472,-0.698132,-0.174533,-0.174533,-1.042,-0.690116,-0.164687,-0.186039,-1.03902,-0.44887,-0.295313,0.34518
28,60,-1.0472,-0.698132,-0.174533,-0.174533,-1.042,-0.690116,-0.164687,-0.186039,-1.03902,-0.44887,-0.295313,0.34518
28,60,-1.0472,-0.698132,-0.174533,-0.174533,-1.042,-0.690116,-0.164687,-0.186039,-1.03902,-0.44887,-0.295313,0.34518
28,60,-1.0472,-0.698132,-0.174533,-0.174533,-1.042,-0.690116,-0.164687,-0.186039,-1.03902,-0.44887,-0.295313,0.34518
28,60,-1.0472,-0.698132,-0.174533,-0.174533,-1.042,-0.690116,-0.164687,-0.186039,-1.03902,-0.44887,-0.295313,0.34518
28,60,-1.0472,-0.698132,-0.174533,-0.174533,-1.042,-0.690116,-0.164687,-0.186039,-1.03902,-0.44887,-0.295313,0.34518
28,60,-1.0472,-0.698132,-0.174533,-0.174533,-1.042,-0.690116,-0.164687,-0.186039,-1.03902,-0.44887,-0.295313,0.34518
28,60,-1.0472,-0.698132,-0.174533,-0.174533,-1.042,-0.690116,-0.164687,-0.186039,-1.03902,-0.44887,-0.295313,0.34518
28,60,-1.0472,-0.698132,-0.174533,-0.174533,-1.042,-0.690116,-0.164687,-0.186039,-1.03902,-0.44887,-0.295313,0.34518
28,60,-1.0472,-0.698132,-0.174533,-0.174533,-1.042,-0.690116,-0.164687,-0.186039,-1.03902,-0.44887,-0.295313,0.34518
28,60,-1.0472,-0.698132,-0.174533,-0.174533,-1.042,-0.690116,-0.164687,-0.186039,-1.03902,-0.44887,-0.295313,0.34518
28,60,-1.0472,-0.698132,-0.174533,-0.174533,-1.042,-0.690116,-0.164687,-0.186039,-1.03902,-0.44887,-0.295313,0.34518
28,60,-1.0472,-0.698132,-0.174533,-0.174533,-1.042,-0.690116,-0.164687,-0.186039,-1.03902,-0.44887,-0.295313,0.34518
28,60,-1.0472,-0.698132,-0.174533,-0.174533,-1.042,-0.690116,-0.164687,-0.186039,-1.03902,-0.44887,-0.295313,0.34518
28,60,-1.0472,-0.698132,-0.174533,-0.174533,-1.042,-0.690116,-0.164687,-0.186039,-1.03902,-0.44887,-0.295313,0.34518
28,60,-1.0472,-0.698132,-0.174533,-0.174533,-1.042,-0.690116,-0.164687,-0.186039,-1.03902,-0.44887,-0.295313,0.34518
28,60,-1.0472,-0.698132,-0.174533,-0.174533,-1.042,-0.690116,-0.164687,-0.186039,-1.03902,-0.44887,-0.295313,0.34518
28,60,-1.0472,-0.698132,-0.174533,-0.174533,-1.042,-0.690116,-0.164753,-0.186081,-1.03902,-0.44887,-0.293336,0.346449
28,60,-1.0472,-0.698132,-0.174533,-0.174533,-1.042,-0.690116,-0.164753,-0.186081,-1.03902,-0.44887,-0.293336,0.346449
28,60,-1.0472,-0.698132,-0.174533,-0.174533,-1.042,-0.690116,-0.164753,-0.186081,-1.03902,-0.44887,-0.293336,0.346449
28,60,-1.0472,-0.698132,-0.174533,-0.174533,-1.042,-0.690116,-0.164753,-0.186081,-1.03902,-0.44887,-0.293336,0.346449
28,60,-1.0472,-0.698132,-0.174533,-0.174533,-1.042,-0.690116,-0.164753,-0.186081,-1.03902,-0.44887,-0.293336,0.346449
28,60,-1.0472,-0.698132,-0.174533,-0.174533,-1.042,-0.690116,-0.164753,-0.186081,-1.03902,-0.44887,-0.293336,0.346449
28,60,-1.0472,-0.698132,-0.174533,-0.174533,-1.042,-0.690116,-0.164753,-0.186081,-1.03902,-0.44887,-0.293336,0.346449
28,60,-1.0472,-0.698132,-0.174533,-0.174533,-1.042,-0.690116,-0.164753,-0.186081,-1.03902,-0.44887,-0.293336,0.346449
28,60,-1.0472,-0.698132,-0.174533,-0.174533,-1.042,-0.690116,-0.164753,-0.186081,-1.03902,-0.44887,-0.293337,0.346449
28,60,-1.0472,-0.698132,-0.174533,-0.174533,-1.042,-0.690116,-0.164753,-0.186081,-1.03902,-0.44887,-0.293337,0.346449
28,60,-1.0472,-0.698132,-0.174533,-0.174533,-1.042,-0.690116,-0.164753,-0.186081,-1.03902,-0.44887,-0.293337,0.346449
28,60,-1.0472,-0.698132,-0.174533,-0.174533,-1.042,-0.690116,-0.164753,-0.186081,-1.03902,-0.44887,-0.293337,0.346449
28,60,-1.0472,-0.698132,-0.174533,-0.174533,-1.042,-0.690116,-0.164753,-0.186081,-1.03902,-0.44887,-0.293337,0.346449
28,60,-1.0472,-0.698132,-0.174533,-0.174533,-1.042,-0.690116,-0.164753,-0.186081,-1.03902,-0.44887,-0.293338,0.34645
28,60,-1.0472,-0.698132,-0.174533,-0.174533,-1.042,-0.690116,-0.164753,-0.186081,-1.03902,-0.44887,-0.293338,0.34645
28,60,-1.0472,-0.698132,-0.174533,-0.174533,-1.042,-0.690116,-0.164753,-0.186081,-1.03902,-0.44887,-0.293338,0.34645
28,60,-1.0472,-0.698132,-0.174533,-0.174533,-1.042,-0.690116,-0.164753,-0.186081,-1.03902,-0.44887,-0.293338,0.34645
28,60,-1.0472,-0.698132,-0.174533,-0.174533,-1.042,-0.690116,-0.164753,-0.186081,-1.03902,-0.44887,-0.293338,0.34645
28,60,-1.0472,-0.698132,-0.174533,-0.174533,-1.042,-0.690116,-0.164753,-0.186081,-1.03902,-0.44887,-0.293338,0.34645
28,60,-1.0472,-0.698132,-0.174533,-0.174533,-1.042,-0.690116,-0.164753,-0.186081,-1.03902,-0.44887,-0.293338,0.34645
28,60,-1.0472,-0.698132,-0.174533,-0.174533,-1.042,-0.690116,-0.164753,-0.186081,-1.03902,-0.44887,-0.293339,0.34645
28,60,-1.0472,-0.698132,-0.174533,-0.174533,-1.042,-0.690116,-0.164753,-0.186081,-1.03902,-0.44887,-0.293339,0.34645
28,60,-1.0472,-0.698132,-0.174533,-0.174533,-1.042,-0.690116,-0.164753,-0.186081,-1.03902,-0.44887,-0.293339,0.34645
28,60,-1.0472,-0.698132,-0.174533,-0.174533,-1.042,-0.690116,-0.164753,-0.186081,-1.03902,-0.44887,-0.293339,0.34645
28,60,-1.0472,-0.698132,-0.174533,-0.174533,-1.042,-0.690116,-0.164753,-0.186081,-1.03902,-0.44887,-0.293339,0.34645
28,60,-1.0472,-0.698132,-0.174533,-0.174533,-1.042,-0.690116,-0.164753,-0.186081,-1.03902,-0.44887,-0.293339,0.34645
28,60,-1.0472,-0.698132,-0.174533,-0.174533,-1.042,-0.690116,-0.164753,-0.186081,-1.03902,-0.44887,-0.29334,0.34645
28,60,-1.0472,-0.698132,-0.174533,-0.174533,-1.042,-0.690116,-0.164753,-0.186081,-1.03902,-0.44887,-0.29334,0.34645
28,60,-1.0472,-0.698132,-0.174533,-0.174533,-1.042,-0.690116,-0.164753,-0.186081,-1.03902,-0.44887,-0.29334,0.34645
28,60,-1.0472,-0.698132,-0.174533,-0.174533,-1.042,-0.690116,-0.164753,-0.186081,-1.03902,-0.44887,-0.29334,0.34645
28,60,-1.0472,-0.698132,-0.174533,-0.174533,-1.042,-0.690116,-0.164753,-0.186081,-1.03902,-0.44887,-0.29334,0.34645
28,60,-1.0472,-0.698132,-0.174533,-0.174533,-1.042,-0.690116,-0.164753,-0.186081,-1.03902,-0.44887,-0.29334,0.34645
28,60,-1.0472,-0.698132,-0.174533,-0.174533,-1.042,-0.690116,-0.164753,-0.186081,-1.03902,-0.44887,-0.29334,0.34645
28,60,-1.0472,-0.698132,-0.174533,-0.174533,-1.042,-0.690116,-0.164753,-0.186081,-1.03902,-0.44887,-0.29334,0.34645
28,60,-1.0472,-0.698132,-0.174533,-0.174533,-1.042,-0.690116,-0.164753,-0.186081,-1.03902,-0.44887,-0.293341,0.34645
28,60,-1.0472,-0.698132,-0.174533,-0.174533,-1.042,-0.690116,-0.164753,-0.186081,-1.03902,-0.44887,-0.293341,0.346451
28,60,-1.0472,-0.698132,-0.174533,-0.174533,-1.042,-0.690116,-0.164753,-0.186081,-1.03902,-0.44887,-0.293341,0.346451
28,60,-1.0472,-0.698132,-0.174533,-0.174533,-1.042,-0.690116,-0.164753,-0.186081,-1.03902,-0.44887,-0.293341,0.346451
28,60,-1.0472,-0.698132,-0.174533,-0.174533,-1.042,-0.690116,-0.164753,-0.186081,-1.03902,-0.44887,-0.293341,0.346451
28,60,-1.0472,-0.698132,-0.174533,-0.174533,-1.042,-0.690116,-0.164753,-0.186081,-1.03902,-0.44887,-0.293341,0.346451
28,60,-1.0472,-0.698132,-0.174533,-0.174533,-1.042,-0.690116,-0.164753,-0.186081,-1.03902,-0.44887,-0.293341,0.346451
28,60,-1.0472,-0.698132,-0.174533,-0.174533,-1.042,-0.690116,-0.164753,-0.186081,-1.03902,-0.44887,-0.293341,0.346451
28,60,-1.0472,-0.698132,-0.174533,-0.174533,-1.042,-0.690116,-0.164753,-0.186081,-1.03902,-0.44887,-0.293342,0.346451
28,60,-1.0472,-0.698132,-0.174533,-0.174533,-1.042,-0.690116,-0.164753,-0.186081,-1.03902,-0.44887,-0.293342,0.346451
28,60,-1.0472,-0.698132,-0.174533,-0.174533,-1.042,-0.690116,-0.164753,-0.186081,-1.03902,-0.44887,-0.293342,0.346451
28,60,-1.0472,-0.698132,-0.174533,-0.174533,-1.042,-0.690116,-0.164753,-0.186081,-1.03902,-0.44887,-0.293342,0.346451
28,60,-1.0472,-0.698132,-0.174533,-0.174533,-1.042,-0.690116,-0.164753,-0.186081,-1.03902,-0.44887,-0.293342,0.346451
28,60,-1.0472,-0.698132,-0.174533,-0.174533,-1.042,-0.690116,-0.164753,-0.186081,-1.03902,-0.44887,-0.293342,0.346451
28,60,-1.0472,-0.698132,-0.174533,-0.174533,-1.042,-0.690116,-0.164753,-0.186081,-1.03902,-0.44887,-0.293342,0.346451
28,60,-1.0472,-0.698132,-0.174533,-0.174533,-1.042,-0.690116,-0.164753,-0.186081,-1.03902,-0.44887,-0.293342,0.346451
28,60,-1.0472,-0.698132,-0.174533,-0.174533,-1.042,-0.690116,-0.164753,-0.186081,-1.03902,-0.44887,-0.293342,0.346451
28,60,-1.0472,-0.698132,-0.174533,-0.174533,-1.042,-0.690116,-0.164753,-0.186081,-1.03902,-0.44887,-0.293342,0.346451
28,60,-1.0472,-0.698132,-0.174533,-0.174533,-1.042,-0.690116,-0.164753,-0.186081,-1.03902,-0.44887,-0.293343,0.346451
28,60,-1.0472,-0.698132,-0.174533,-0.174533,-1.042,-0.690116,-0.164753,-0.186081,-1.03902,-0.44887,-0.293343,0.346451
28,60,-1.0472,-0.698132,-0.174533,-0.174533,-1.042,-0.690116,-0.164753,-0.186081,-1.03902,-0.44887,-0.293343,0.346451
28,60,-1.0472,-0.698132,-0.174533,-0.174533,-1.042,-0.690116,-0.164753,-0.186081,-1.03902,-0.44887,-0.293343,0.346451
28,60,-1.0472,-0.698132,-0.174533,-0.174533,-1.042,-0.690116,-0.164753,-0.186081,-1.03902,-0.44887,-0.293343,0.346451
28,60,-1.0472,-0.698132,-0.174533,-0.174533,-1.042,-0.690116,-0.164753,-0.186081,-1.03902,-0.44887,-0.293343,0.346451
28,60,-1.0472,-0.698132,-0.174533,-0.174533,-1.042,-0.690116,-0.164753,-0.186081,-1.03902,-0.44887,-0.293343,0.346451
28,60,-1.0472,-0.698132,-0.174533,-0.174533,-1.042,-0.690116,-0.164753,-0.186081,-1.03902,-0.44887,-0.293343,0.346451
28,60,-1.0472,-0.698132,-0.174533,-0.174533,-1.042,-0.690116,-0.164753,-0.186081,-1.03902,-0.44887,-0.293343,0.346451
28,60,-1.0472,-0.698132,-0.174533,-0.174533,-1.042,-0.690116,-0.164753,-0.186081,-1.03902,-0.44887,-0.293343,0.346451
28,60,-1.0472,-0.698132,-0.174533,-0.174533,-1.042,-0.690116,-0.164753,-0.186081,-1.03902,-0.44887,-0.293343,0.346451
28,60,-1.0472,-0.698132,-0.174533,-0.174533,-1.042,-0.690116,-0.164753,-0.186081,-1.03902,-0.44887,-0.293344,0.346451
28,60,-1.0472,-0.698132,-0.174533,-0.174533,-1.042,-0.690116,-0.164753,-0.186081,-1.03902,-0.44887,-0.293344,0.346451
28,60,-1.0472,-0.698132,-0.174533,-0.174533,-1.042,-0.690116,-0.164753,-0.186081,-1.03902,-0.44887,-0.293344,0.346452
28,60,-1.0472,-0.698132,-0.174533,-0.174533,-1.042,-0.690116,-0.164753,-0.186081,-1.03902,-0.44887,-0.293344,0.346452
28,60,-1.0472,-0.698132,-0.174533,-0.174533,-1.042,-0.690116,-0.164753,-0.186081,-1.03902,-0.44887,-0.293344,0.346452
28,60,-1.0472,-0.698132,-0.174533,-0.174533,-1.042,-0.690116,-0.164753,-0.186081,-1.03902,-0.44887,-0.293344,0.346452
28,60,-1.0472,-0.698132,-0.174533,-0.174533,-1.042,-0.690116,-0.164753,-0.186081,-1.03902,-0.44887,-0.293344,0.346452
28,60,-1.0472,-0.698132,-0.174533,-0.174533,-1.042,-0.690116,-0.164753,-0.186081,-1.03902,-0.44887,-0.293344,0.346452
28,60,-1.0472,-0.698132,-0.174533,-0.174533,-1.042,-0.690116,-0.164753,-0.186081,-1.03902,-0.44887,-0.293344,0.346452
28,60,-1.0472,-0.698132,-0.174533,-0.174533,-1.042,-0.690116,-0.164753,-0.186081,-1.03902,-0.44887,-0.293344,0.346452
28,60,-1.0472,-0.698132,-0.174533,-0.174533,-1.042,-0.690116,-0.164753,-0.186081,-1.03902,-0.44887,-0.293344,0.346452
28,60,-1.0472,-0.698132,-0.174533,-0.174533,-1.042,-0.690116,-0.164753,-0.186081,-1.03902,-0.44887,-0.293344,0.346452
28,60,-1.0472,-0.698132,-0.174533,-0.174533,-1.042,-0.690116,-0.164753,-0.186081,-1.03902,-0.44887,-0.293345,0.346452
28,60,-1.0472,-0.698132,-0.174533,-0.174533,-1.042,-0.690116,-0.164753,-0.186081,-1.03902,-0.44887,-0.293345,0.346452
28,60,-1.0472,-0.698132,-0.174533,-0.174533,-1.042,-0.690116,-0.164753,-0.186081,-1.03902,-0.44887,-0.293345,0.346452
28,60,-1.0472,-0.698132,-0.174533,-0.174533,-1.042,-0.690116,-0.164753,-0.186081,-1.03902,-0.44887,-0.293345,0.346452
28,60,-1.0472,-0.698132,-0.174533,-0.174533,-1.042,-0.690116,-0.164753,-0.186081,-1.03902,-0.44887,-0.293345,0.346452
28,60,-1.0472,-0.698132,-0.174533,-0.174533,-1.042,-0.690116,-0.164753,-0.186081,-1.03902,-0.44887,-0.293345,0.346452
28,60,-1.0472,-0.698132,-0.174533,-0.174533,-1.042,-0.690116,-0.164753,-0.186081,-1.03902,-0.44887,-0.293345,0.346452
28,60,-1.0472,-0.698132,-0.174533,-0.174533,-1.042,-0.690116,-0.164753,-0.186081,-1.03902,-0.44887,-0.293345,0.346452
28,60,-1.0472,-0.698132,-0.174533,-0.174533,-1.042,-0.690116,-0.164753,-0.186081,-1.03902,-0.44887,-0.293345,0.346452
28,60,-1.0472,-0.698132,-0.174533,-0.174533,-1.042,-0.690116,-0.164753,-0.186081,-1.03902,-0.44887,-0.293345,0.346452
28,60,-1.0472,-0.698132,-0.174533,-0.174533,-1.042,-0.690116,-0.164753,-0.186081,-1.03902,-0.44887,-0.293345,0.346452
28,60,-1.0472,-0.698132,-0.174533,-0.174533,-1.042,-0.690116,-0.164753,-0.186081,-1.03902,-0.44887,-0.293345,0.346452
28,60,-1.0472,-0.698132,-0.174533,-0.174533,-1.042,-0.690116,-0.164753,-0.186081,-1.03902,-0.44887,-0.293345,0.346452
28,60,-1.0472,-0.698132,-0.174533,-0.174533,-1.042,-0.690116,-0.164753,-0.186081,-1.03902,-0.44887,-0.293346,0.346452
28,60,-1.0472,-0.698132,-0.174533,-0.174533,-1.042,-0.690116,-0.164753,-0.186081,-1.03902,-0.44887,-0.293346,0.346452
28,60,-1.0472,-0.698132,-0.174533,-0.174533,-1.042,-0.690116,-0.164753,-0.186081,-1.03902,-0.44887,-0.293346,0.346452
28,60,-1.0472,-0.698132,-0.174533,-0.174533,-1.042,-0.690116,-0.164753,-0.186081,-1.03902,-0.44887,-0.293346,0.346452
28,60,-1.0472,-0.698132,-0.174533,-0.174533,-1.042,-0.690116,-0.164753,-0.186081,-1.03902,-0.44887,-0.293346,0.346452
28,60,-1.0472,-0.698132,-0.174533,-0.174533,-1.042,-0.690116,-0.164753,-0.186081,-1.03902,-0.44887,-0.293346,0.346452
28,60,-1.0472,-0.698132,-0.174533,-0.174533,-1.042,-0.690116,-0.164753,-0.186081,-1.03902,-0.44887,-0.293359,0.346456
28,60,-1.0472,-0.698132,-0.174533,-0.174533,-1.042,-0.690116,-0.164753,-0.186081,-1.03902,-0.44887,-0.293359,0.346456
28,60,-1.0472,-0.698132,-0.174533,-0.174533,-1.042,-0.690116,-0.164753,-0.186081,-1.03902,-0.44887,-0.293359,0.346456
28,60,-1.0472,-0.698132,-0.174533,-0.174533,-1.042,-0.690116,-0.164753,-0.186081,-1.03902,-0.44887,-0.293359,0.346456
28,60,-1.0472,-0.698132,-0.174533,-0.174533,-1.042,-0.690116,-0.164753,-0.186081,-1.03902,-0.44887,-0.293359,0.346456
28,60,-1.0472,-0.698132,-0.174533,-0.174533,-1.042,-0.690116,-0.164753,-0.186081,-1.03902,-0.44887,-0.293359,0.346456
28,60,-1.0472,-0.698132,-0.174533,-0.174533,-1.042,-0.690116,-0.164753,-0.186081,-1.03902,-0.44887,-0.293359,0.346456
28,60,-1.0472,-0.698132,-0.174533,-0.174533,-1.042,-0.690116,-0.164753,-0.186081,-1.03902,-0.44887,-0.293359,0.346456
28,60,-1.0472,-0.698132,-0.174533,-0.174533,-1.042,-0.690116,-0.164753,-0.186081,-1.03902,-0.44887,-0.293359,0.346456
28,60,-1.0472,-0.698132,-0.174533,-0.174533,-1.042,-0.690116,-0.164753,-0.186081,-1.03902,-0.44887,-0.293359,0.346456
28,60,-1.0472,-0.698132,-0.174533,-0.174533,-1.042,-0.690116,-0.164753,-0.186081,-1.03902,-0.44887,-0.293359,0.346456
28,60,-1.0472,-0.698132,-0.174533,-0.174533,-1.042,-0.690116,-0.164753,-0.186081,-1.03902,-0.44887,-0.293359,0.346456
28,60,-1.0472,-0.698132,-0.174533,-0.174533,-1.042,-0.690116,-0.164753,-0.186081,-1.03902,-0.44887,-0.293359,0.346456
28,60,-1.0472,-0.698132,-0.174533,-0.174533,-1.042,-0.690116,-0.164753,-0.186081,-1.03902,-0.44887,-0.293359,0.346456
28,60,-1.0472,-0.698132,-0.174533,-0.174533,-1.042,-0.690116,-0.164753,-0.186081,-1.03902,-0.44887,-0.293359,0.346456
28,60,-1.0472,-0.698132,-0.174533,-0.174533,-1.042,-0.690116,-0.164753,-0.186081,-1.03902,-0.44887,-0.293359,0.346456
28,60,-1.0472,-0.698132,-0.174533,-0.174533,-1.042,-0.690116,-0.164753,-0.186081,-1.03902,-0.44887,-0.293359,0.346456
28,60,-1.0472,-0.698132,-0.174533,-0.174533,-1.042,-0.690116,-0.164753,-0.186081,-1.03902,-0.44887,-0.293359,0.346456
28,60,-1.0472,-0.698132,-0.174533,-0.174533,-1.042,-0.690116,-0.164753,-0.186081,-1.03902,-0.44887,-0.293359,0.346456
28,60,-1.0472,-0.698132,-0.174533,-0.174533,-1.042,-0.690116,-0.164753,-0.186081,-1.03902,-0.44887,-0.293359,0.346456
28,60,-1.0472,-0.698132,-0.174533,-0.174533,-1.042,-0.690116,-0.164753,-0.186081,-1.03902,-0.44887,-0.293359,0.346456
28,60,-1.0472,-0.698132,-0.174533,-0.174533,-1.042,-0.690116,-0.164753,-0.186081,-1.03902,-0.44887,-0.293359,0.346456
28,60,-1.0472,-0.698132,-0.174533,-0.174533,-1.042,-0.690116,-0.164753,-0.186081,-1.03902,-0.44887,-0.293359,0.346456
28,60,-1.0472,-0.698132,-0.174533,-0.174533,-1.042,-0.690116,-0.164753,-0.186081,-1.03902,-0.44887,-0.293359,0.346456
28,60,-1.0472,-0.698132,-0.174533,-0.174533,-1.042,-0.690116,-0.164753,-0.186081,-1.03902,-0.44887,-0.293359,0.346456
28,60,-1.0472,-0.698132,-0.174533,-0.174533,-1.042,-0.690116,-0.164753,-0.186081,-1.03902,-0.44887,-0.293359,0.346456
28,60,-1.0472,-0.698132,-0.174533,-0.174533,-1.042,-0.690116,-0.164753,-0.186081,-1.03902,-0.44887,-0.293359,0.346456
28,60,-1.0472,-0.698132,-0.174533,-0.174533,-1.042,-0.690116,-0.164753,-0.186081,-1.03902,-0.44887,-0.293359,0.346456
28,60,-1.0472,-0.698132,-0.174533,-0.174533,-1.042,-0.690116,-0.164753,-0.186081,-1.03902,-0.44887,-0.293359,0.346456
28,60,-1.0472,-0.698132,-0.174533,-0.174533,-1.042,-0.690116,-0.164753,-0.186081,-1.03902,-0.44887,-0.293359,0.346456
28,60,-1.0472,-0.698132,-0.174533,-0.174533,-1.042,-0.690116,-0.164753,-0.186081,-1.03902,-0.44887,-0.293359,0.346456
28,60,-1.0472,-0.698132,-0.174533,-0.174533,-1.042,-0.690116,-0.164753,-0.186081,-1.03902,-0.44887,-0.293359,0.346456
28,60,-1.0472,-0.698132,-0.174533,-0.174533,-1.042,-0.690116,-0.164753,-0.186081,-1.03902,-0.44887,-0.293359,0.346456
28,60,-1.0472,-0.698132,-0.174533,-0.174533,-1.042,-0.690116,-0.164753,-0.186081,-1.03902,-0.44887,-0.293359,0.346456
28,60,-1.0472,-0.698132,-0.174533,-0.174533,-1.042,-0.690116,-0.164753,-0.186081,-1.03902,-0.44887,-0.293359,0.346456
28,60,-1.0472,-0.698132,-0.174533,-0.174533,-1.042,-0.690116,-0.164753,-0.186081,-1.03902,-0.44887,-0.293359,0.346456
28,60,-1.0472,-0.698132,-0.174533,-0.174533,-1.042,-0.690116,-0.164753,-0.186081,-1.03902,-0.44887,-0.293359,0.346456
28,60,-1.0472,-0.698132,-0.174533,-0.174533,-1.042,-0.690116,-0.164753,-0.186081,-1.03902,-0.44887,-0.293359,0.346456
28,60,-1.0472,-0.698132,-0.174533,-0.174533,-1.042,-0.690116,-0.164753,-0.186081,-1.03902,-0.44887,-0.293359,0.346456
28,60,-1.0472,-0.698132,-0.174533,-0.174533,-1.042,-0.690116,-0.164753,-0.186081,-1.03902,-0.44887,-0.293359,0.346456
28,60,-1.0472,-0.698132,-0.174533,-0.174533,-1.042,-0.690116,-0.164753,-0.186081,-1.03902,-0.44887,-0.293359,0.346456
28,60,-1.0472,-0.698132,-0.174533,-0.174533,-1.042,-0.690116,-0.164753,-0.186081,-1.03902,-0.44887,-0.293359,0.346456
28,60,-1.0472,-0.698132,-0.174533,-0.174533,-1.042,-0.690116,-0.164753,-0.186081,-1.03902,-0.44887,-0.293359,0.346456
28,60,-1.0472,-0.698132,-0.174533,-0.174533,-1.042,-0.690116,-0.164753,-0.186081,-1.03902,-0.44887,-0.293359,0.346456
28,60,-1.0472,-0.698132,-0.174533,-0.174533,-1.042,-0.690116,-0.164753,-0.186081,-1.03902,-0.44887,-0.293359,0.346456
28,60,-1.0472,-0.698132,-0.174533,-0.174533,-1.042,-0.690116,-0.164753,-0.186081,-1.03902,-0.44887,-0.293359,0.346456
28,60,-1.0472,-0.698132,-0.174533,-0.174533,-1.042,-0.690116,-0.164753,-0.186081,-1.03902,-0.44887,-0.293359,0.346456
28,60,-1.0472,-0.698132,-0.174533,-0.174533,-1.042,-0.690116,-0.164753,-0.186081,-1.03902,-0.44887,-0.293359,0.346456
28,60,-1.0472,-0.698132,-0.174533,-0.174533,-1.042,-0.690116,-0.164753,-0.186081,-1.03902,-0.44887,-0.293359,0.346456
28,60,-1.0472,-0.698132,-0.174533,-0.174533,-1.042,-0.690116,-0.164753,-0.186081,-1.03902,-0.44887,-0.293359,0.346456
28,60,-1.0472,-0.698132,-0.174533,-0.174533,-1.042,-0.690116,-0.164753,-0.186081,-1.03902,-0.44887,-0.293359,0.346456
28,60,-1.0472,-0.698132,-0.174533,-0.174533,-1.042,-0.690116,-0.164753,-0.186081,-1.03902,-0.44887,-0.293359,0.346456
28,60,-1.0472,-0.698132,-0.174533,-0.174533,-1.042,-0.690116,-0.164753,-0.186081,-1.03902,-0.44887,-0.293359,0.346456
28,60,-1.0472,-0.698132,-0.174533,-0.174533,-1.042,-0.690116,-0.164753,-0.186081,-1.03902,-0.44887,-0.293359,0.346456
28,60,-1.0472,-0.698132,-0.174533,-0.174533,-1.042,-0.690116,-0.164753,-0.186081,-1.03902,-0.44887,-0.293359,0.346456
28,60,-1.0472,-0.698132,-0.174533,-0.174533,-1.042,-0.690116,-0.164753,-0.186081,-1.03902,-0.44887,-0.293359,0.346456
28,60,-1.0472,-0.698132,-0.174533,-0.174533,-1.042,-0.690116,-0.164753,-0.186081,-1.03902,-0.44887,-0.293359,0.346456
28,60,-1.0472,-0.698132,-0.174533,-0.174533,-1.042,-0.690116,-0.164753,-0.186081,-1.03902,-0.44887,-0.293359,0.346456
28,60,-1.0472,-0.698132,-0.174533,-0.174533,-1.042,-0.690116,-0.164753,-0.186081,-1.03902,-0.44887,-0.293359,0.346456
28,60,-1.0472,-0.698132,-0.174533,-0.174533,-1.042,-0.690116,-0.164753,-0.186081,-1.03902,-0.44887,-0.293359,0.346456
28,60,-1.0472,-0.698132,-0.174533,-0.174533,-1.042,-0.690116,-0.164753,-0.186081,-1.03902,-0.44887,-0.293359,0.346456
28,60,-1.0472,-0.698132,-0.174533,-0.174533,-1.042,-0.690116,-0.164753,-0.186081,-1.03902,-0.44887,-0.293359,0.346456
28,60,-1.0472,-0.698132,-0.174533,-0.174533,-1.042,-0.690116,-0.164753,-0.186081,-1.03902,-0.44887,-0.293359,0.346456
28,60,-1.0472,-0.698132,-0.174533,-0.174533,-1.042,-0.690116,-0.164753,-0.186081,-1.03902,-0.44887,-0.293359,0.346456
28,60,-1.0472,-0.698132,-0.174533,-0.174533,-1.042,-0.690116,-0.164753,-0.186081,-1.03902,-0.44887,-0.293359,0.346456
28,60,-1.0472,-0.698132,-0.174533,-0.174533,-1.042,-0.690116,-0.164753,-0.186081,-1.03902,-0.44887,-0.293359,0.346456
28,60,-1.0472,-0.698132,-0.174533,-0.174533,-1.042,-0.690116,-0.164753,-0.186081,-1.03902,-0.44887,-0.293359,0.346456
28,60,-1.0472,-0.698132,-0.174533,-0.174533,-1.042,-0.690116,-0.164753,-0.186081,-1.03902,-0.44887,-0.293359,0.346456
28,60,-1.0472,-0.698132,-0.174533,-0.174533,-1.042,-0.690116,-0.164753,-0.186081,-1.03902,-0.44887,-0.293359,0.346456
28,60,-1.0472,-0.698132,-0.174533,-0.174533,-1.042,-0.690116,-0.164753,-0.186081,-1.03902,-0.44887,-0.293359,0.346456
28,60,-1.0472,-0.698132,-0.174533,-0.174533,-1.042,-0.690116,-0.164753,-0.186081,-1.03902,-0.44887,-0.293359,0.346456
28,60,-1.0472,-0.698132,-0.174533,-0.174533,-1.042,-0.690116,-0.164819,-0.186123,-1.03902,-0.44887,-0.291391,0.34772
28,60,-1.0472,-0.698132,-0.174533,-0.174533,-1.042,-0.690116,-0.164819,-0.186123,-1.03902,-0.44887,-0.291391,0.34772
28,60,-1.0472,-0.698132,-0.174533,-0.174533,-1.042,-0.690116,-0.164819,-0.186123,-1.03902,-0.44887,-0.291391,0.347726
28,60,-1.0472,-0.698132,-0.174533,-0.174533,-1.042,-0.690116,-0.164819,-0.186123,-1.03902,-0.44887,-0.291391,0.347726
28,60,-1.0472,-0.698132,-0.174533,-0.174533,-1.042,-0.690116,-0.164819,-0.186123,-1.03902,-0.44887,-0.291391,0.347726
28,60,-1.0472,-0.698132,-0.174533,-0.174533,-1.042,-0.690116,-0.164819,-0.186123,-1.03902,-0.44887,-0.291391,0.347726
28,60,-1.0472,-0.698132,-0.174533,-0.174533,-1.042,-0.690116,-0.164819,-0.186123,-1.03902,-0.44887,-0.291391,0.347726
28,60,-1.0472,-0.698132,-0.174533,-0.174533,-1.042,-0.690116,-0.164819,-0.186123,-1.03902,-0.44887,-0.291391,0.347726
28,60,-1.0472,-0.698132,-0.174533,-0.174533,-1.042,-0.690116,-0.164819,-0.186123,-1.03902,-0.44887,-0.291391,0.347726
28,60,-1.0472,-0.698132,-0.174533,-0.174533,-1.042,-0.690116,-0.164819,-0.186123,-1.03902,-0.44887,-0.291391,0.347726
28,60,-1.0472,-0.698132,-0.174533,-0.174533,-1.042,-0.690116,-0.164819,-0.186123,-1.03902,-0.44887,-0.291391,0.347726
28,60,-1.0472,-0.698132,-0.174533,-0.174533,-1.042,-0.690116,-0.164819,-0.186123,-1.03902,-0.44887,-0.291391,0.347726
28,60,-1.0472,-0.698132,-0.174533,-0.174533,-1.042,-0.690116,-0.164819,-0.186123,-1.03902,-0.44887,-0.291391,0.347726
28,60,-1.0472,-0.698132,-0.174533,-0.174533,-1.042,-0.690116,-0.164819,-0.186123,-1.03902,-0.44887,-0.291391,0.347726
28,60,-1.0472,-0.698132,-0.174533,-0.174533,-1.042,-0.690116,-0.164819,-0.186123,-1.03902,-0.44887,-0.291391,0.347726
28,60,-1.0472,-0.698132,-0.174533,-0.174533,-1.042,-0.690116,-0.164819,-0.186123,-1.03902,-0.44887,-0.291391,0.347726
28,60,-1.0472,-0.698132,-0.174533,-0.174533,-1.042,-0.690116,-0.164819,-0.186123,-1.03902,-0.44887,-0.291391,0.347726
28,60,-1.0472,-0.698132,-0.174533,-0.174533,-1.042,-0.690116,-0.164819,-0.186123,-1.03902,-0.44887,-0.291391,0.347726
28,60,-1.0472,-0.698132,-0.174533,-0.174533,-1.042,-0.690116,-0.164819,-0.186123,-1.03902,-0.44887,-0.291391,0.347726
28,60,-1.0472,-0.698132,-0.174533,-0.174533,-1.042,-0.690116,-0.164819,-0.186123,-1.03902,-0.44887,-0.291391,0.347726
28,60,-1.0472,-0.698132,-0.174533,-0.174533,-1.042,-0.690116,-0.164819,-0.186123,-1.03902,-0.44887,-0.291391,0.347726
28,60,-1.0472,-0.698132,-0.174533,-0.174533,-1.042,-0.690116,-0.164819,-0.186123,-1.03902,-0.44887,-0.291391,0.347726
28,60,-1.0472,-0.698132,-0.174533,-0.174533,-1.042,-0.690116,-0.164819,-0.186123,-1.03902,-0.44887,-0.291391,0.347726
28,60,-1.0472,-0.698132,-0.174533,-0.174533,-1.042,-0.690116,-0.164819,-0.186123,-1.03902,-0.44887,-0.291391,0.347726
28,60,-1.0472,-0.698132,-0.174533,-0.174533,-1.042,-0.690116,-0.164819,-0.186123,-1.03902,-0.44887,-0.291391,0.347726
28,60,-1.0472,-0.698132,-0.174533,-0.174533,-1.042,-0.690116,-0.164819,-0.186123,-1.03902,-0.44887,-0.291391,0.347726
28,60,-1.0472,-0.698132,-0.174533,-0.174533,-1.042,-0.690116,-0.164819,-0.186123,-1.03902,-0.44887,-0.291391,0.347726
28,60,-1.0472,-0.698132,-0.174533,-0.174533,-1.042,-0.690116,-0.164819,-0.186123,-1.03902,-0.44887,-0.291391,0.347726
28,60,-1.0472,-0.698132,-0.174533,-0.174533,-1.042,-0.690116,-0.164819,-0.186123,-1.03902,-0.44887,-0.291391,0.347726
28,60,-1.0472,-0.698132,-0.174533,-0.174533,-1.042,-0.690116,-0.164819,-0.186123,-1.03902,-0.44887,-0.291391,0.347726
28,60,-1.0472,-0.698132,-0.174533,-0.174533,-1.042,-0.690116,-0.164819,-0.186123,-1.03902,-0.44887,-0.291391,0.347726
28,60,-1.0472,-0.698132,-0.174533,-0.174533,-1.042,-0.690116,-0.164819,-0.186123,-1.03902,-0.44887,-0.291391,0.347726
28,60,-1.0472,-0.698132,-0.174533,-0.174533,-1.042,-0.690116,-0.164819,-0.186123,-1.03902,-0.44887,-0.291391,0.347726
28,60,-1.0472,-0.698132,-0.174533,-0.174533,-1.042,-0.690116,-0.164819,-0.186123,-1.03902,-0.44887,-0.291391,0.347726
28,60,-1.0472,-0.698132,-0.174533,-0.174533,-1.042,-0.690116,-0.164819,-0.186123,-1.03902,-0.44887,-0.291391,0.347726
28,60,-1.0472,-0.698132,-0.174533,-0.174533,-1.042,-0.690116,-0.164819,-0.186123,-1.03902,-0.44887,-0.291391,0.347726
28,60,-1.0472,-0.698132,-0.174533,-0.174533,-1.042,-0.690116,-0.164819,-0.186123,-1.03902,-0.44887,-0.291391,0.347726
28,60,-1.0472,-0.698132,-0.174533,-0.174533,-1.042,-0.690116,-0.164819,-0.186123,-1.03902,-0.44887,-0.291391,0.347726
28,60,-1.0472,-0.698132,-0.174533,-0.174533,-1.042,-0.690116,-0.164819,-0.186123,-1.03902,-0.44887,-0.291391,0.347726
28,60,-1.0472,-0.698132,-0.174533,-0.174533,-1.042,-0.690116,-0.164819,-0.186123,-1.03902,-0.44887,-0.291391,0.347726
28,60,-1.0472,-0.698132,-0.174533,-0.174533,-1.042,-0.690116,-0.164819,-0.186123,-1.03902,-0.44887,-0.291391,0.347726
28,60,-1.0472,-0.698132,-0.174533,-0.174533,-1.042,-0.690116,-0.164819,-0.186123,-1.03902,-0.44887,-0.291391,0.347726
28,60,-1.0472,-0.698132,-0.174533,-0.174533,-1.042,-0.690116,-0.164819,-0.186123,-1.03902,-0.44887,-0.291391,0.347726
28,60,-1.0472,-0.698132,-0.174533,-0.174533,-1.042,-0.690116,-0.164819,-0.186123,-1.03902,-0.44887,-0.291391,0.347726
28,60,-1.0472,-0.698132,-0.174533,-0.174533,-1.042,-0.690116,-0.164819,-0.186123,-1.03902,-0.44887,-0.291391,0.347726
28,60,-1.0472,-0.698132,-0.174533,-0.174533,-1.042,-0.690116,-0.164819,-0.186123,-1.03902,-0.44887,-0.291391,0.347726
28,60,-1.0472,-0.698132,-0.174533,-0.174533,-1.042,-0.690116,-0.164819,-0.186123,-1.03902,-0.44887,-0.291391,0.347726
28,60,-1.0472,-0.698132,-0.174533,-0.174533,-1.042,-0.690116,-0.164819,-0.186123,-1.03902,-0.44887,-0.291391,0.347726
28,60,-1.0472,-0.698132,-0.174533,-0.174533,-1.042,-0.690116,-0.164819,-0.186123,-1.03902,-0.44887,-0.291391,0.347726
28,60,-1.0472,-0.698132,-0.174533,-0.174533,-1.042,-0.690116,-0.164819,-0.186123,-1.03902,-0.44887,-0.291391,0.347726
28,60,-1.0472,-0.698132,-0.174533,-0.174533,-1.042,-0.690116,-0.164819,-0.186123,-1.03902,-0.44887,-0.291391,0.347726
28,60,-1.0472,-0.698132,-0.174533,-0.174533,-1.042,-0.690116,-0.164819,-0.186123,-1.03902,-0.44887,-0.291391,0.347726
28,60,-1.0472,-0.698132,-0.174533,-0.174533,-1.042,-0.690116,-0.164819,-0.186123,-1.03902,-0.44887,-0.291391,0.347726
28,60,-1.0472,-0.698132,-0.174533,-0.174533,-1.042,-0.690116,-0.164819,-0.186123,-1.03902,-0.44887,-0.291391,0.347726
28,60,-1.0472,-0.698132,-0.174533,-0.174533,-1.042,-0.690116,-0.164819,-0.186123,-1.03902,-0.44887,-0.291391,0.347726
28,60,-1.0472,-0.698132,-0.174533,-0.174533,-1.042,-0.690116,-0.164819,-0.186123,-1.03902,-0.44887,-0.291391,0.347726
28,60,-1.0472,-0.698132,-0.174533,-0.174533,-1.042,-0.690116,-0.164819,-0.186123,-1.03902,-0.44887,-0.291391,0.347726
28,60,-1.0472,-0.698132,-0.174533,-0.174533,-1.042,-0.690116,-0.164819,-0.186123,-1.03902,-0.44887,-0.291391,0.347726
28,60,-1.0472,-0.698132,-0.174533,-0.174533,-1.042,-0.690116,-0.164819,-0.186123,-1.03902,-0.44887,-0.291391,0.347726
28,60,-1.0472,-0.698132,-0.174533,-0.174533,-1.042,-0.690116,-0.164819,-0.186123,-1.03902,-0.44887,-0.291391,0.347726
28,60,-1.0472,-0.698132,-0.174533,-0.174533,-1.042,-0.690116,-0.164819,-0.186123,-1.03902,-0.44887,-0.291391,0.347726
28,60,-1.0472,-0.698132,-0.174533,-0.174533,-1.042,-0.690116,-0.164819,-0.186123,-1.03902,-0.44887,-0.291391,0.347726
28,60,-1.0472,-0.698132,-0.174533,-0.174533,-1.042,-0.690116,-0.164819,-0.186123,-1.03902,-0.44887,-0.291391,0.347726
28,60,-1.0472,-0.698132,-0.174533,-0.174533,-1.042,-0.690116,-0.164819,-0.186123,-1.03902,-0.44887,-0.291391,0.347726
28,60,-1.0472,-0.698132,-0.174533,-0.174533,-1.042,-0.690116,-0.164885,-0.186165,-1.03902,-0.44887,-0.28943,0.348985
28,60,-1.0472,-0.698132,-0.174533,-0.174533,-1.042,-0.690116,-0.164885,-0.186165,-1.03902,-0.44887,-0.28943,0.348985
28,60,-1.0472,-0.698132,-0.174533,-0.174533,-1.042,-0.690116,-0.164885,-0.186165,-1.03902,-0.44887,-0.28943,0.348985
28,60,-1.0472,-0.698132,-0.174533,-0.174533,-1.042,-0.690116,-0.164885,-0.186165,-1.03902,-0.44887,-0.28943,0.348985
28,60,-1.0472,-0.698132,-0.174533,-0.174533,-1.042,-0.690116,-0.164885,-0.186165,-1.03902,-0.44887,-0.28943,0.348985
28,60,-1.0472,-0.698132,-0.174533,-0.174533,-1.042,-0.690116,-0.164885,-0.186165,-1.03902,-0.44887,-0.28943,0.348985
28,60,-1.0472,-0.698132,-0.174533,-0.174533,-1.042,-0.690116,-0.164885,-0.186165,-1.03902,-0.44887,-0.28943,0.348985
28,60,-1.0472,-0.698132,-0.174533,-0.174533,-1.042,-0.690116,-0.164885,-0.186165,-1.03902,-0.44887,-0.28943,0.348985
28,60,-1.0472,-0.698132,-0.174533,-0.174533,-1.042,-0.690116,-0.164885,-0.186165,-1.03902,-0.44887,-0.28943,0.348985
28,60,-1.0472,-0.698132,-0.174533,-0.174533,-1.042,-0.690116,-0.164885,-0.186165,-1.03902,-0.44887,-0.28943,0.348985
28,60,-1.0472,-0.698132,-0.174533,-0.174533,-1.042,-0.690116,-0.164885,-0.186165,-1.03902,-0.44887,-0.28943,0.348985
28,60,-1.0472,-0.698132,-0.174533,-0.174533,-1.042,-0.690116,-0.164885,-0.186165,-1.03902,-0.44887,-0.28943,0.348985
28,60,-1.0472,-0.698132,-0.174533,-0.174533,-1.042,-0.690116,-0.164885,-0.186165,-1.03902,-0.44887,-0.28943,0.348985
28,60,-1.0472,-0.698132,-0.174533,-0.174533,-1.042,-0.690116,-0.164885,-0.186165,-1.03902,-0.44887,-0.28943,0.348985
28,60,-1.0472,-0.698132,-0.174533,-0.174533,-1.042,-0.690116,-0.164885,-0.186165,-1.03902,-0.44887,-0.28943,0.348985
28,60,-1.0472,-0.698132,-0.174533,-0.174533,-1.042,-0.690116,-0.164885,-0.186165,-1.03902,-0.44887,-0.28943,0.348985
28,60,-1.0472,-0.698132,-0.174533,-0.174533,-1.042,-0.690116,-0.164885,-0.186165,-1.03902,-0.44887,-0.28943,0.348985
28,60,-1.0472,-0.698132,-0.174533,-0.174533,-1.042,-0.690116,-0.164885,-0.186165,-1.03902,-0.44887,-0.28943,0.348985
28,60,-1.0472,-0.698132,-0.174533,-0.174533,-1.042,-0.690116,-0.164885,-0.186165,-1.03902,-0.44887,-0.28943,0.348985
28,60,-1.0472,-0.698132,-0.174533,-0.174533,-1.042,-0.690116,-0.164885,-0.186165,-1.03902,-0.44887,-0.28943,0.348985
28,60,-1.0472,-0.698132,-0.174533,-0.174533,-1.042,-0.690116,-0.164885,-0.186165,-1.03902,-0.44887,-0.28943,0.348985
28,60,-1.0472,-0.698132,-0.174533,-0.174533,-1.042,-0.690116,-0.164885,-0.186165,-1.03902,-0.44887,-0.28943,0.348985
28,60,-1.0472,-0.698132,-0.174533,-0.174533,-1.042,-0.690116,-0.164885,-0.186165,-1.03902,-0.44887,-0.28943,0.348985
28,60,-1.0472,-0.698132,-0.174533,-0.174533,-1.042,-0.690116,-0.164885,-0.186165,-1.03902,-0.44887,-0.28943,0.348985
28,60,-1.0472,-0.698132,-0.174533,-0.174533,-1.042,-0.690116,-0.164885,-0.186165,-1.03902,-0.44887,-0.28943,0.348985
28,60,-1.0472,-0.698132,-0.174533,-0.174533,-1.042,-0.690116,-0.164885,-0.186165,-1.03902,-0.44887,-0.28943,0.348985
28,60,-1.0472,-0.698132,-0.174533,-0.174533,-1.042,-0.690116,-0.164885,-0.186165,-1.03902,-0.44887,-0.28943,0.348985
28,60,-1.0472,-0.698132,-0.174533,-0.174533,-1.042,-0.690116,-0.164885,-0.186165,-1.03902,-0.44887,-0.28943,0.348985
28,60,-1.0472,-0.698132,-0.174533,-0.174533,-1.042,-0.690116,-0.164885,-0.186165,-1.03902,-0.44887,-0.28943,0.348985
28,60,-1.0472,-0.698132,-0.174533,-0.174533,-1.042,-0.690116,-0.164885,-0.186165,-1.03902,-0.44887,-0.28943,0.348985
28,60,-1.0472,-0.698132,-0.174533,-0.174533,-1.042,-0.690116,-0.164885,-0.186165,-1.03902,-0.44887,-0.28943,0.348985
28,60,-1.0472,-0.698132,-0.174533,-0.174533,-1.042,-0.690116,-0.164885,-0.186165,-1.03902,-0.44887,-0.28943,0.348985
28,60,-1.0472,-0.698132,-0.174533,-0.174533,-1.042,-0.690116,-0.164885,-0.186165,-1.03902,-0.44887,-0.28943,0.348985
28,60,-1.0472,-0.698132,-0.174533,-0.174533,-1.042,-0.690116,-0.164885,-0.186165,-1.03902,-0.44887,-0.28943,0.348985
28,60,-1.0472,-0.698132,-0.174533,-0.174533,-1.042,-0.690116,-0.164885,-0.186165,-1.03902,-0.44887,-0.28943,0.348985
28,60,-1.0472,-0.698132,-0.174533,-0.174533,-1.042,-0.690116,-0.164885,-0.186165,-1.03902,-0.44887,-0.28943,0.348985
28,60,-1.0472,-0.698132,-0.174533,-0.174533,-1.042,-0.690116,-0.164885,-0.186165,-1.03902,-0.44887,-0.28943,0.348985
28,60,-1.0472,-0.698132,-0.174533,-0.174533,-1.042,-0.690116,-0.164885,-0.186165,-1.03902,-0.44887,-0.28943,0.348985
28,60,-1.0472,-0.698132,-0.174533,-0.174533,-1.042,-0.690116,-0.164885,-0.186165,-1.03902,-0.44887,-0.28943,0.348985
28,60,-1.0472,-0.698132,-0.174533,-0.174533,-1.042,-0.690116,-0.164885,-0.186165,-1.03902,-0.44887,-0.28943,0.348985
28,60,-1.0472,-0.698132,-0.174533,-0.174533,-1.042,-0.690116,-0.164885,-0.186165,-1.03902,-0.44887,-0.28943,0.348985
28,60,-1.0472,-0.698132,-0.174533,-0.174533,-1.042,-0.690116,-0.164885,-0.186165,-1.03902,-0.44887,-0.28943,0.348985
28,60,-1.0472,-0.698132,-0.174533,-0.174533,-1.042,-0.690116,-0.164885,-0.186165,-1.03902,-0.44887,-0.28943,0.348985
28,60,-1.0472,-0.698132,-0.174533,-0.174533,-1.042,-0.690116,-0.164885,-0.186165,-1.03902,-0.44887,-0.28943,0.348985
28,60,-1.0472,-0.698132,-0.174533,-0.174533,-1.042,-0.690116,-0.164885,-0.186165,-1.03902,-0.44887,-0.28943,0.348985
28,60,-1.0472,-0.698132,-0.174533,-0.174533,-1.042,-0.690116,-0.164885,-0.186165,-1.03902,-0.44887,-0.28943,0.348985
28,60,-1.0472,-0.698132,-0.174533,-0.174533,-1.042,-0.690116,-0.164885,-0.186165,-1.03902,-0.44887,-0.28943,0.348985
28,60,-1.0472,-0.698132,-0.174533,-0.174533,-1.042,-0.690116,-0.164885,-0.186165,-1.03902,-0.44887,-0.28943,0.348985
28,60,-1.0472,-0.698132,-0.174533,-0.174533,-1.042,-0.690116,-0.164885,-0.186165,-1.03902,-0.44887,-0.28943,0.348985
28,60,-1.0472,-0.698132,-0.174533,-0.174533,-1.042,-0.690116,-0.164885,-0.186165,-1.03902,-0.44887,-0.28943,0.348985
28,60,-1.0472,-0.698132,-0.174533,-0.174533,-1.042,-0.690116,-0.164885,-0.186165,-1.03902,-0.44887,-0.28943,0.348985
28,60,-1.0472,-0.698132,-0.174533,-0.174533,-1.042,-0.690116,-0.164885,-0.186165,-1.03902,-0.44887,-0.28943,0.348985
28,60,-1.0472,-0.698132,-0.174533,-0.174533,-1.042,-0.690116,-0.164885,-0.186165,-1.03902,-0.44887,-0.28943,0.348985
28,60,-1.0472,-0.698132,-0.174533,-0.174533,-1.042,-0.690116,-0.164885,-0.186165,-1.03902,-0.44887,-0.28943,0.348985
28,60,-1.0472,-0.698132,-0.174533,-0.174533,-1.042,-0.690116,-0.164885,-0.186165,-1.03902,-0.44887,-0.28943,0.348985
28,60,-1.0472,-0.698132,-0.174533,-0.174533,-1.042,-0.690116,-0.164885,-0.186165,-1.03902,-0.44887,-0.28943,0.348985
28,60,-1.0472,-0.698132,-0.174533,-0.174533,-1.042,-0.690116,-0.164885,-0.186165,-1.03902,-0.44887,-0.28943,0.348985
28,60,-1.0472,-0.698132,-0.174533,-0.174533,-1.042,-0.690116,-0.164885,-0.186165,-1.03902,-0.44887,-0.28943,0.348985
28,60,-1.0472,-0.698132,-0.174533,-0.174533,-1.042,-0.690116,-0.164885,-0.186165,-1.03902,-0.44887,-0.28943,0.348985
28,60,-1.0472,-0.698132,-0.174533,-0.174533,-1.042,-0.690116,-0.164885,-0.186165,-1.03902,-0.44887,-0.28943,0.348985
28,60,-1.0472,-0.698132,-0.174533,-0.174533,-1.042,-0.690116,-0.164885,-0.186165,-1.03902,-0.44887,-0.28943,0.348985
28,60,-1.0472,-0.698132,-0.174533,-0.174533,-1.042,-0.690116,-0.164885,-0.186165,-1.03902,-0.44887,-0.28943,0.348985
28,60,-1.0472,-0.698132,-0.174533,-0.174533,-1.042,-0.690116,-0.164885,-0.186165,-1.03902,-0.44887,-0.28943,0.348985
28,60,-1.0472,-0.698132,-0.174533,-0.174533,-1.042,-0.690116,-0.164885,-0.186165,-1.03902,-0.44887,-0.28943,0.348985
28,60,-1.0472,-0.698132,-0.174533,-0.174533,-1.042,-0.690116,-0.164885,-0.186165,-1.03902,-0.44887,-0.28943,0.348985
28,60,-1.0472,-0.698132,-0.174533,-0.174533,-1.042,-0.690116,-0.164885,-0.186165,-1.03902,-0.44887,-0.28943,0.348985
28,60,-1.0472,-0.698132,-0.174533,-0.174533,-1.042,-0.690116,-0.164885,-0.186165,-1.03902,-0.44887,-0.28943,0.348985
28,60,-1.0472,-0.698132,-0.174533,-0.174533,-1.042,-0.690116,-0.164885,-0.186165,-1.03902,-0.44887,-0.28943,0.348985
28,60,-1.0472,-0.698132,-0.174533,-0.174533,-1.042,-0.690116,-0.164885,-0.186165,-1.03902,-0.44887,-0.28943,0.348985
28,60,-1.0472,-0.698132,-0.174533,-0.174533,-1.042,-0.690116,-0.164885,-0.186165,-1.03902,-0.44887,-0.28943,0.348985
28,60,-1.0472,-0.698132,-0.174533,-0.174533,-1.042,-0.690116,-0.164885,-0.186165,-1.03902,-0.44887,-0.28943,0.348985
28,60,-1.0472,-0.698132,-0.174533,-0.174533,-1.042,-0.690116,-0.164885,-0.186165,-1.03902,-0.44887,-0.28943,0.348985
28,60,-1.0472,-0.698132,-0.174533,-0.174533,-1.042,-0.690116,-0.164885,-0.186165,-1.03902,-0.44887,-0.28943,0.348985
28,60,-1.0472,-0.698132,-0.174533,-0.174533,-1.042,-0.690116,-0.164885,-0.186165,-1.03902,-0.44887,-0.28943,0.348985
28,60,-1.0472,-0.698132,-0.174533,-0.174533,-1.042,-0.690116,-0.164885,-0.186165,-1.03902,-0.44887,-0.28943,0.348985
28,60,-1.0472,-0.698132,-0.174533,-0.174533,-1.042,-0.690116,-0.164885,-0.186165,-1.03902,-0.44887,-0.28943,0.348985
28,60,-1.0472,-0.698132,-0.174533,-0.174533,-1.042,-0.690116,-0.164885,-0.186165,-1.03902,-0.44887,-0.28943,0.348985
28,60,-1.0472,-0.698132,-0.174533,-0.174533,-1.042,-0.690116,-0.164885,-0.186165,-1.03902,-0.44887,-0.28943,0.348985
28,60,-1.0472,-0.698132,-0.174533,-0.174533,-1.042,-0.690116,-0.164885,-0.186165,-1.03902,-0.44887,-0.28943,0.348985
28,60,-1.0472,-0.698132,-0.174533,-0.174533,-1.042,-0.690116,-0.164885,-0.186165,-1.03902,-0.44887,-0.28943,0.348985
28,60,-1.0472,-0.698132,-0.174533,-0.174533,-1.042,-0.690116,-0.164885,-0.186165,-1.03902,-0.44887,-0.28943,0.348985
28,60,-1.0472,-0.698132,-0.174533,-0.174533,-1.042,-0.690116,-0.164885,-0.186165,-1.03902,-0.44887,-0.28943,0.348985
28,60,-1.0472,-0.698132,-0.174533,-0.174533,-1.042,-0.690116,-0.164885,-0.186165,-1.03902,-0.44887,-0.28943,0.348985
28,60,-1.0472,-0.698132,-0.174533,-0.174533,-1.042,-0.690116,-0.164885,-0.186165,-1.03902,-0.44887,-0.28943,0.348985
28,60,-1.0472,-0.698132,-0.174533,-0.174533,-1.042,-0.690116,-0.164885,-0.186165,-1.03902,-0.44887,-0.28943,0.348985
28,60,-1.0472,-0.698132,-0.174533,-0.174533,-1.042,-0.690116,-0.164885,-0.186165,-1.03902,-0.44887,-0.28943,0.348985
28,60,-1.0472,-0.698132,-0.174533,-0.174533,-1.042,-0.690116,-0.164885,-0.186165,-1.03902,-0.44887,-0.28943,0.348985
28,60,-1.0472,-0.698132,-0.174533,-0.174533,-1.042,-0.690116,-0.164885,-0.186165,-1.03902,-0.44887,-0.28943,0.348985
28,60,-1.0472,-0.698132,-0.174533,-0.174533,-1.042,-0.690116,-0.164885,-0.186165,-1.03902,-0.44887,-0.28943,0.348985
28,60,-1.0472,-0.698132,-0.174533,-0.174533,-1.042,-0.690116,-0.164885,-0.186165,-1.03902,-0.44887,-0.28943,0.348985
28,60,-1.0472,-0.698132,-0.174533,-0.174533,-1.042,-0.690116,-0.164885,-0.186165,-1.03902,-0.44887,-0.28943,0.348985
28,60,-1.0472,-0.698132,-0.174533,-0.174533,-1.042,-0.690116,-0.164885,-0.186165,-1.03902,-0.44887,-0.28943,0.348985
28,60,-1.0472,-0.698132,-0.174533,-0.174533,-1.042,-0.690116,-0.164885,-0.186165,-1.03902,-0.44887,-0.28943,0.348985
28,60,-1.0472,-0.698132,-0.174533,-0.174533,-1.042,-0.690116,-0.164885,-0.186165,-1.03902,-0.44887,-0.28943,0.348985
28,60,-1.0472,-0.698132,-0.174533,-0.174533,-1.042,-0.690116,-0.164885,-0.186165,-1.03902,-0.44887,-0.28943,0.348985
28,60,-1.0472,-0.698132,-0.174533,-0.174533,-1.042,-0.690116,-0.164885,-0.186165,-1.03902,-0.44887,-0.28943,0.348985
28,60,-1.0472,-0.698132,-0.174533,-0.174533,-1.042,-0.690116,-0.164885,-0.186165,-1.03902,-0.44887,-0.28943,0.348985
28,60,-1.0472,-0.698132,-0.174533,-0.174533,-1.042,-0.690116,-0.164885,-0.186165,-1.03902,-0.44887,-0.28943,0.348985
28,60,-1.0472,-0.698132,-0.174533,-0.174533,-1.042,-0.690116,-0.164885,-0.186165,-1.03902,-0.44887,-0.28943,0.348985
28,60,-1.0472,-0.698132,-0.174533,-0.174533,-1.042,-0.690116,-0.164885,-0.186165,-1.03902,-0.44887,-0.28943,0.348985
28,60,-1.0472,-0.698132,-0.174533,-0.174533,-1.042,-0.690116,-0.164885,-0.186165,-1.03902,-0.44887,-0.28943,0.348985
28,60,-1.0472,-0.698132,-0.174533,-0.174533,-1.042,-0.690116,-0.164885,-0.186165,-1.03902,-0.44887,-0.28943,0.348985
28,60,-1.0472,-0.698132,-0.174533,-0.174533,-1.042,-0.690116,-0.164885,-0.186165,-1.03902,-0.44887,-0.28943,0.348985
28,60,-1.0472,-0.698132,-0.174533,-0.174533,-1.042,-0.690116,-0.164885,-0.186165,-1.03902,-0.44887,-0.28943,0.348985
28,60,-1.0472,-0.698132,-0.174533,-0.174533,-1.042,-0.690116,-0.164885,-0.186165,-1.03902,-0.44887,-0.28943,0.348985
28,60,-1.0472,-0.698132,-0.174533,-0.174533,-1.042,-0.690116,-0.164885,-0.186165,-1.03902,-0.44887,-0.28943,0.348985
28,60,-1.0472,-0.698132,-0.174533,-0.174533,-1.042,-0.690116,-0.164885,-0.186165,-1.03902,-0.44887,-0.28943,0.348985
28,60,-1.0472,-0.698132,-0.174533,-0.174533,-1.042,-0.690116,-0.164885,-0.186165,-1.03902,-0.44887,-0.28943,0.348985
28,60,-1.0472,-0.698132,-0.174533,-0.174533,-1.042,-0.690116,-0.164885,-0.186165,-1.03902,-0.44887,-0.28943,0.348985
28,60,-1.0472,-0.698132,-0.174533,-0.174533,-1.042,-0.690116,-0.164885,-0.186165,-1.03902,-0.44887,-0.28943,0.348985
28,60,-1.0472,-0.698132,-0.174533,-0.174533,-1.042,-0.690116,-0.164885,-0.186165,-1.03902,-0.44887,-0.28943,0.348985
28,60,-1.0472,-0.698132,-0.174533,-0.174533,-1.042,-0.690116,-0.164885,-0.186165,-1.03902,-0.44887,-0.28943,0.348985
28,60,-1.0472,-0.698132,-0.174533,-0.174533,-1.042,-0.690116,-0.164885,-0.186165,-1.03902,-0.44887,-0.28943,0.348985
28,60,-1.0472,-0.698132,-0.174533,-0.174533,-1.042,-0.690116,-0.164885,-0.186165,-1.03902,-0.44887,-0.28943,0.348985
28,60,-1.0472,-0.698132,-0.174533,-0.174533,-1.042,-0.690116,-0.164885,-0.186165,-1.03902,-0.44887,-0.28943,0.348985
28,60,-1.0472,-0.698132,-0.174533,-0.174533,-1.042,-0.690116,-0.164885,-0.186165,-1.03902,-0.44887,-0.28943,0.348985
28,60,-1.0472,-0.698132,-0.174533,-0.174533,-1.042,-0.690116,-0.164885,-0.186165,-1.03902,-0.44887,-0.28943,0.348985
28,60,-1.0472,-0.698132,-0.174533,-0.174533,-1.042,-0.690116,-0.164885,-0.186165,-1.03902,-0.44887,-0.28943,0.348985
28,60,-1.0472,-0.698132,-0.174533,-0.174533,-1.042,-0.690116,-0.164885,-0.186165,-1.03902,-0.44887,-0.28943,0.348985
28,60,-1.0472,-0.698132,-0.174533,-0.174533,-1.042,-0.690116,-0.164885,-0.186165,-1.03902,-0.44887,-0.28943,0.348985
28,60,-1.0472,-0.698132,-0.174533,-0.174533,-1.042,-0.690116,-0.164885,-0.186165,-1.03902,-0.44887,-0.28943,0.348985
28,60,-1.0472,-0.698132,-0.174533,-0.174533,-1.042,-0.690116,-0.164885,-0.186165,-1.03902,-0.44887,-0.28943,0.348985
28,60,-1.0472,-0.698132,-0.174533,-0.174533,-1.042,-0.690116,-0.164885,-0.186165,-1.03902,-0.44887,-0.28943,0.348985
28,60,-1.0472,-0.698132,-0.174533,-0.174533,-1.042,-0.690116,-0.164885,-0.186165,-1.03902,-0.44887,-0.28943,0.348985
28,60,-1.0472,-0.698132,-0.174533,-0.174533,-1.042,-0.690116,-0.164885,-0.186165,-1.03902,-0.44887,-0.28943,0.348985
28,60,-1.0472,-0.698132,-0.174533,-0.174533,-1.042,-0.690116,-0.164885,-0.186165,-1.03902,-0.44887,-0.28943,0.348985
28,60,-1.0472,-0.698132,-0.174533,-0.174533,-1.042,-0.690116,-0.164885,-0.186165,-1.03902,-0.44887,-0.28943,0.348985
28,60,-1.0472,-0.698132,-0.174533,-0.174533,-1.042,-0.690116,-0.164885,-0.186165,-1.03902,-0.44887,-0.28943,0.348985
28,60,-1.0472,-0.698132,-0.174533,-0.174533,-1.042,-0.690116,-0.164885,-0.186165,-1.03902,-0.44887,-0.28943,0.348985
28,60,-1.0472,-0.698132,-0.174533,-0.174533,-1.042,-0.690116,-0.164885,-0.186165,-1.03902,-0.44887,-0.28943,0.348985
28,60,-1.0472,-0.698132,-0.174533,-0.174533,-1.042,-0.690116,-0.164885,-0.186165,-1.03902,-0.44887,-0.28943,0.348985
28,60,-1.0472,-0.698132,-0.174533,-0.174533,-1.042,-0.690116,-0.164885,-0.186165,-1.03902,-0.44887,-0.28943,0.348985
28,60,-1.0472,-0.698132,-0.174533,-0.174533,-1.042,-0.690116,-0.164885,-0.186165,-1.03902,-0.44887,-0.28943,0.348985
28,60,-1.0472,-0.698132,-0.174533,-0.174533,-1.042,-0.690116,-0.164885,-0.186165,-1.03902,-0.44887,-0.28943,0.348985
28,60,-1.0472,-0.698132,-0.174533,-0.174533,-1.042,-0.690116,-0.164885,-0.186165,-1.03902,-0.44887,-0.28943,0.348985
28,60,-1.0472,-0.698132,-0.174533,-0.174533,-1.042,-0.690116,-0.164885,-0.186165,-1.03902,-0.44887,-0.28943,0.348985
28,60,-1.0472,-0.698132,-0.174533,-0.174533,-1.042,-0.690116,-0.164885,-0.186165,-1.03902,-0.44887,-0.28943,0.348985
28,60,-1.0472,-0.698132,-0.174533,-0.174533,-1.042,-0.690116,-0.164885,-0.186165,-1.03902,-0.44887,-0.28943,0.348985
28,60,-1.0472,-0.698132,-0.174533,-0.174533,-1.042,-0.690116,-0.164885,-0.186165,-1.03902,-0.44887,-0.28943,0.348985
28,60,-1.0472,-0.698132,-0.174533,-0.174533,-1.042,-0.690116,-0.164885,-0.186165,-1.03902,-0.44887,-0.28943,0.348985
28,60,-1.0472,-0.698132,-0.174533,-0.174533,-1.042,-0.690116,-0.164885,-0.186165,-1.03902,-0.44887,-0.28943,0.348985
28,60,-1.0472,-0.698132,-0.174533,-0.174533,-1.042,-0.690116,-0.164885,-0.186165,-1.03902,-0.44887,-0.28943,0.348985
28,60,-1.0472,-0.698132,-0.174533,-0.174533,-1.042,-0.690116,-0.164885,-0.186165,-1.03902,-0.44887,-0.28943,0.348985
28,60,-1.0472,-0.698132,-0.174533,-0.174533,-1.042,-0.690116,-0.164885,-0.186165,-1.03902,-0.44887,-0.28943,0.348985
28,60,-1.0472,-0.698132,-0.174533,-0.174533,-1.042,-0.690116,-0.164885,-0.186165,-1.03902,-0.44887,-0.28943,0.348985
28,60,-1.0472,-0.698132,-0.174533,-0.174533,-1.042,-0.690116,-0.164885,-0.186165,-1.03902,-0.44887,-0.28943,0.348985
28,60,-1.0472,-0.698132,-0.174533,-0.174533,-1.042,-0.690116,-0.164885,-0.186165,-1.03902,-0.44887,-0.28943,0.348985
28,60,-1.0472,-0.698132,-0.174533,-0.174533,-1.042,-0.690116,-0.164885,-0.186165,-1.03902,-0.44887,-0.28943,0.348985
28,60,-1.0472,-0.698132,-0.174533,-0.174533,-1.042,-0.690116,-0.164885,-0.186165,-1.03902,-0.44887,-0.28943,0.348985
28,60,-1.0472,-0.698132,-0.174533,-0.174533,-1.042,-0.690116,-0.164885,-0.186165,-1.03902,-0.44887,-0.28943,0.348985
28,60,-1.0472,-0.698132,-0.174533,-0.174533,-1.042,-0.690116,-0.164885,-0.186165,-1.03902,-0.44887,-0.28943,0.348985
28,60,-1.0472,-0.698132,-0.174533,-0.174533,-1.042,-0.690116,-0.164885,-0.186165,-1.03902,-0.44887,-0.28943,0.348985
28,60,-1.0472,-0.698132,-0.174533,-0.174533,-1.042,-0.690116,-0.164885,-0.186165,-1.03902,-0.44887,-0.28943,0.348985
28,60,-1.0472,-0.698132,-0.174533,-0.174533,-1.042,-0.690116,-0.164885,-0.186165,-1.03902,-0.44887,-0.28943,0.348985
28,60,-1.0472,-0.698132,-0.174533,-0.174533,-1.042,-0.690116,-0.164885,-0.186165,-1.03902,-0.44887,-0.28943,0.348985
28,60,-1.0472,-0.698132,-0.174533,-0.174533,-1.042,-0.690116,-0.164885,-0.186165,-1.03902,-0.44887,-0.28943,0.348985
28,60,-1.0472,-0.698132,-0.174533,-0.174533,-1.042,-0.690116,-0.164885,-0.186165,-1.03902,-0.44887,-0.28943,0.348985
28,60,-1.0472,-0.698132,-0.174533,-0.174533,-1.042,-0.690116,-0.164885,-0.186165,-1.03902,-0.44887,-0.28943,0.348985
28,60,-1.0472,-0.698132,-0.174533,-0.174533,-1.042,-0.690116,-0.164885,-0.186165,-1.03902,-0.44887,-0.28943,0.348985
28,60,-1.0472,-0.698132,-0.174533,-0.174533,-1.042,-0.690116,-0.164885,-0.186165,-1.03902,-0.44887,-0.28943,0.348985
28,60,-1.0472,-0.698132,-0.174533,-0.174533,-1.042,-0.690116,-0.164885,-0.186165,-1.03902,-0.44887,-0.28943,0.348985
28,60,-1.0472,-0.698132,-0.174533,-0.174533,-1.042,-0.690116,-0.164885,-0.186165,-1.03902,-0.44887,-0.28943,0.348985
28,60,-1.0472,-0.698132,-0.174533,-0.174533,-1.042,-0.690116,-0.164885,-0.186165,-1.03902,-0.44887,-0.28943,0.348985
28,60,-1.0472,-0.698132,-0.174533,-0.174533,-1.042,-0.690116,-0.164885,-0.186165,-1.03902,-0.44887,-0.28943,0.348985
28,60,-1.0472,-0.698132,-0.174533,-0.174533,-1.042,-0.690116,-0.164885,-0.186165,-1.03902,-0.44887,-0.28943,0.348985
28,60,-1.0472,-0.698132,-0.174533,-0.174533,-1.042,-0.690116,-0.164885,-0.186165,-1.03902,-0.44887,-0.28943,0.348985
28,60,-1.0472,-0.698132,-0.174533,-0.174533,-1.042,-0.690116,-0.164885,-0.186165,-1.03902,-0.44887,-0.28943,0.348985
28,60,-1.0472,-0.698132,-0.174533,-0.174533,-1.042,-0.690116,-0.164885,-0.186165,-1.03902,-0.44887,-0.28943,0.348985
28,60,-1.0472,-0.698132,-0.174533,-0.174533,-1.042,-0.690116,-0.164885,-0.186165,-1.03902,-0.44887,-0.28943,0.348985
28,60,-1.0472,-0.698132,-0.174533,-0.174533,-1.042,-0.690116,-0.164885,-0.186165,-1.03902,-0.44887,-0.28943,0.348985
28,60,-1.0472,-0.698132,-0.174533,-0.174533,-1.042,-0.690116,-0.164885,-0.186165,-1.03902,-0.44887,-0.28943,0.348985
28,60,-1.0472,-0.698132,-0.174533,-0.174533,-1.042,-0.690116,-0.164885,-0.186165,-1.03902,-0.44887,-0.28943,0.348985
28,60,-1.0472,-0.698132,-0.174533,-0.174533,-1.042,-0.690116,-0.16495,-0.186208,-1.03902,-0.44887,-0.287459,0.35025
28,60,-1.0472,-0.698132,-0.174533,-0.174533,-1.042,-0.690116,-0.16495,-0.186208,-1.03902,-0.44887,-0.287459,0.35025
28,60,-1.0472,-0.698132,-0.174533,-0.174533,-1.042,-0.690116,-0.16495,-0.186208,-1.03902,-0.44887,-0.287459,0.35025
28,60,-1.0472,-0.698132,-0.174533,-0.174533,-1.042,-0.690116,-0.16495,-0.186208,-1.03902,-0.44887,-0.287459,0.35025
28,60,-1.0472,-0.698132,-0.174533,-0.174533,-1.042,-0.690116,-0.16495,-0.186208,-1.03902,-0.44887,-0.287459,0.35025
28,60,-1.0472,-0.698132,-0.174533,-0.174533,-1.042,-0.690116,-0.16495,-0.186208,-1.03902,-0.44887,-0.287459,0.35025
28,60,-1.0472,-0.698132,-0.174533,-0.174533,-1.042,-0.690116,-0.16495,-0.186208,-1.03902,-0.44887,-0.287459,0.35025
28,60,-1.0472,-0.698132,-0.174533,-0.174533,-1.042,-0.690116,-0.16495,-0.186208,-1.03902,-0.44887,-0.287459,0.35025
28,60,-1.0472,-0.698132,-0.174533,-0.174533,-1.042,-0.690116,-0.16495,-0.186208,-1.03902,-0.44887,-0.287459,0.35025
28,60,-1.0472,-0.698132,-0.174533,-0.174533,-1.042,-0.690116,-0.16495,-0.186208,-1.03902,-0.44887,-0.287459,0.35025
28,60,-1.0472,-0.698132,-0.174533,-0.174533,-1.042,-0.690116,-0.16495,-0.186208,-1.03902,-0.44887,-0.287459,0.35025
28,60,-1.0472,-0.698132,-0.174533,-0.174533,-1.042,-0.690116,-0.16495,-0.186208,-1.03902,-0.44887,-0.287459,0.35025
28,60,-1.0472,-0.698132,-0.174533,-0.174533,-1.042,-0.690116,-0.16495,-0.186208,-1.03902,-0.44887,-0.287459,0.35025
28,60,-1.0472,-0.698132,-0.174533,-0.174533,-1.042,-0.690116,-0.16495,-0.186208,-1.03902,-0.44887,-0.287459,0.35025
28,60,-1.0472,-0.698132,-0.174533,-0.174533,-1.042,-0.690116,-0.16495,-0.186208,-1.03902,-0.44887,-0.287459,0.35025
28,60,-1.0472,-0.698132,-0.174533,-0.174533,-1.042,-0.690116,-0.16495,-0.186208,-1.03902,-0.44887,-0.287459,0.35025
28,60,-1.0472,-0.698132,-0.174533,-0.174533,-1.042,-0.690116,-0.16495,-0.186208,-1.03902,-0.44887,-0.287459,0.35025
28,60,-1.0472,-0.698132,-0.174533,-0.174533,-1.042,-0.690116,-0.16495,-0.186208,-1.03902,-0.44887,-0.287459,0.35025
28,60,-1.0472,-0.698132,-0.174533,-0.174533,-1.042,-0.690116,-0.16495,-0.186208,-1.03902,-0.44887,-0.287459,0.35025
28,60,-1.0472,-0.698132,-0.174533,-0.174533,-1.042,-0.690116,-0.16495,-0.186208,-1.03902,-0.44887,-0.287459,0.35025
28,60,-1.0472,-0.698132,-0.174533,-0.174533,-1.042,-0.690116,-0.16495,-0.186208,-1.03902,-0.44887,-0.287459,0.35025
28,60,-1.0472,-0.698132,-0.174533,-0.174533,-1.042,-0.690116,-0.16495,-0.186208,-1.03902,-0.44887,-0.287459,0.35025
28,60,-1.0472,-0.698132,-0.174533,-0.174533,-1.042,-0.690116,-0.16495,-0.186208,-1.03902,-0.44887,-0.287459,0.35025
28,60,-1.0472,-0.698132,-0.174533,-0.174533,-1.042,-0.690116,-0.16495,-0.186208,-1.03902,-0.44887,-0.287459,0.35025
28,60,-1.0472,-0.698132,-0.174533,-0.174533,-1.042,-0.690116,-0.16495,-0.186208,-1.03902,-0.44887,-0.287459,0.35025
28,60,-1.0472,-0.698132,-0.174533,-0.174533,-1.042,-0.690116,-0.16495,-0.186208,-1.03902,-0.44887,-0.287459,0.35025
28,60,-1.0472,-0.698132,-0.174533,-0.174533,-1.042,-0.690116,-0.16495,-0.186208,-1.03902,-0.44887,-0.287459,0.35025
28,60,-1.0472,-0.698132,-0.174533,-0.174533,-1.042,-0.690116,-0.16495,-0.186208,-1.03902,-0.44887,-0.287459,0.35025
28,60,-1.0472,-0.698132,-0.174533,-0.174533,-1.042,-0.690116,-0.16495,-0.186208,-1.03902,-0.44887,-0.287459,0.35025
28,60,-1.0472,-0.698132,-0.174533,-0.174533,-1.042,-0.690116,-0.16495,-0.186208,-1.03902,-0.44887,-0.287459,0.35025
28,60,-1.0472,-0.698132,-0.174533,-0.174533,-1.042,-0.690116,-0.16495,-0.186208,-1.03902,-0.44887,-0.287459,0.35025
28,60,-1.0472,-0.698132,-0.174533,-0.174533,-1.042,-0.690116,-0.16495,-0.186208,-1.03902,-0.44887,-0.287459,0.35025
28,60,-1.0472,-0.698132,-0.174533,-0.174533,-1.042,-0.690116,-0.16495,-0.186208,-1.03902,-0.44887,-0.287459,0.35025
28,60,-1.0472,-0.698132,-0.174533,-0.174533,-1.042,-0.690116,-0.16495,-0.186208,-1.03902,-0.44887,-0.287459,0.35025
28,60,-1.0472,-0.698132,-0.174533,-0.174533,-1.042,-0.690116,-0.16495,-0.186208,-1.03902,-0.44887,-0.287459,0.35025
28,60,-1.0472,-0.698132,-0.174533,-0.174533,-1.042,-0.690116,-0.16495,-0.186208,-1.03902,-0.44887,-0.287459,0.35025
28,60,-1.0472,-0.698132,-0.174533,-0.174533,-1.042,-0.690116,-0.16495,-0.186208,-1.03902,-0.44887,-0.287459,0.35025
28,60,-1.0472,-0.698132,-0.174533,-0.174533,-1.042,-0.690116,-0.16495,-0.186208,-1.03902,-0.44887,-0.287459,0.35025
28,60,-1.0472,-0.698132,-0.174533,-0.174533,-1.042,-0.690116,-0.16495,-0.186208,-1.03902,-0.44887,-0.287459,0.35025
28,60,-1.0472,-0.698132,-0.174533,-0.174533,-1.042,-0.690116,-0.16495,-0.186208,-1.03902,-0.44887,-0.287459,0.35025
28,60,-1.0472,-0.698132,-0.174533,-0.174533,-1.042,-0.690116,-0.16495,-0.186208,-1.03902,-0.44887,-0.287459,0.35025
28,60,-1.0472,-0.698132,-0.174533,-0.174533,-1.042,-0.690116,-0.16495,-0.186208,-1.03902,-0.44887,-0.287459,0.35025
28,60,-1.0472,-0.698132,-0.174533,-0.174533,-1.042,-0.690116,-0.16495,-0.186208,-1.03902,-0.44887,-0.287459,0.35025
28,60,-1.0472,-0.698132,-0.174533,-0.174533,-1.042,-0.690116,-0.16495,-0.186208,-1.03902,-0.44887,-0.287459,0.35025
28,60,-1.0472,-0.698132,-0.174533,-0.174533,-1.042,-0.690116,-0.16495,-0.186208,-1.03902,-0.44887,-0.287459,0.35025
28,60,-1.0472,-0.698132,-0.174533,-0.174533,-1.042,-0.690116,-0.16495,-0.186208,-1.03902,-0.44887,-0.287459,0.35025
28,60,-1.0472,-0.698132,-0.174533,-0.174533,-1.042,-0.690116,-0.16495,-0.186208,-1.03902,-0.44887,-0.287459,0.35025
28,60,-1.0472,-0.698132,-0.174533,-0.174533,-1.042,-0.690116,-0.16495,-0.186208,-1.03902,-0.44887,-0.287459,0.35025
28,60,-1.0472,-0.698132,-0.174533,-0.174533,-1.042,-0.690116,-0.16495,-0.186208,-1.03902,-0.44887,-0.287459,0.35025
28,60,-1.0472,-0.698132,-0.174533,-0.174533,-1.042,-0.690116,-0.16495,-0.186208,-1.03902,-0.44887,-0.287459,0.35025
28,60,-1.0472,-0.698132,-0.174533,-0.174533,-1.042,-0.690116,-0.16495,-0.186208,-1.03902,-0.44887,-0.287459,0.35025
28,60,-1.0472,-0.698132,-0.174533,-0.174533,-1.042,-0.690116,-0.165016,-0.18625,-1.03902,-0.44887,-0.285492,0.351513
28,60,-1.0472,-0.698132,-0.174533,-0.174533,-1.042,-0.690116,-0.165016,-0.18625,-1.03902,-0.44887,-0.285492,0.351513
28,60,-1.0472,-0.698132,-0.174533,-0.174533,-1.042,-0.690116,-0.165016,-0.18625,-1.03902,-0.44887,-0.285492,0.351513
28,60,-1.0472,-0.698132,-0.174533,-0.174533,-1.042,-0.690116,-0.165016,-0.18625,-1.03902,-0.44887,-0.285492,0.351513
