stim_pw [us],stim_amp [mA],com_elbow_fe [rad],com_forearm_ps [rad],com_wrist_fe [rad],com_wrist_ru [rad],act_elbow_fe [rad],act_forearm_ps [rad],act_wrist_fe [rad],act_wrist_ru [rad],elbow_fe_trq [Nm],forearm_ps_trq [Nm],wrist_fe_trq [Nm],wrist_ru_trq [Nm]
23,30,-1.0472,-0.698132,-0.174533,-0.174533,-1.04071,-0.690269,-0.167106,-0.189525,-1.29673,-0.440256,-0.222802,0.449809
23,30,-1.0472,-0.698132,-0.174533,-0.174533,-1.04071,-0.690269,-0.167106,-0.189525,-1.29673,-0.440256,-0.222802,0.449808
23,30,-1.0472,-0.698132,-0.174533,-0.174533,-1.04071,-0.690269,-0.167106,-0.189525,-1.29673,-0.440256,-0.222802,0.449808
23,30,-1.0472,-0.698132,-0.174533,-0.174533,-1.04071,-0.690269,-0.167106,-0.189525,-1.29673,-0.440256,-0.222802,0.449807
23,30,-1.0472,-0.698132,-0.174533,-0.174533,-1.04071,-0.690269,-0.167106,-0.189525,-1.29673,-0.440256,-0.222802,0.449807
23,30,-1.0472,-0.698132,-0.174533,-0.174533,-1.04071,-0.690269,-0.167106,-0.189525,-1.29673,-0.440256,-0.222802,0.449807
23,30,-1.0472,-0.698132,-0.174533,-0.174533,-1.04071,-0.690269,-0.167106,-0.189525,-1.29673,-0.440256,-0.222802,0.449806
23,30,-1.0472,-0.698132,-0.174533,-0.174533,-1.04071,-0.690269,-0.167106,-0.189525,-1.29673,-0.440256,-0.222802,0.449806
23,30,-1.0472,-0.698132,-0.174533,-0.174533,-1.04071,-0.690269,-0.167106,-0.189525,-1.29673,-0.440256,-0.222802,0.449805
23,30,-1.0472,-0.698132,-0.174533,-0.174533,-1.04071,-0.690269,-0.167106,-0.189525,-1.29673,-0.440256,-0.222802,0.449805
23,30,-1.0472,-0.698132,-0.174533,-0.174533,-1.04071,-0.690269,-0.167106,-0.189525,-1.29673,-0.440256,-0.222802,0.449805
23,30,-1.0472,-0.698132,-0.174533,-0.174533,-1.04071,-0.690269,-0.167106,-0.189525,-1.29673,-0.440256,-0.222802,0.449804
23,30,-1.0472,-0.698132,-0.174533,-0.174533,-1.04071,-0.690269,-0.167106,-0.189525,-1.29673,-0.440256,-0.222802,0.449804
23,30,-1.0472,-0.698132,-0.174533,-0.174533,-1.04071,-0.690269,-0.167106,-0.189525,-1.29673,-0.440256,-0.222802,0.449804
23,30,-1.0472,-0.698132,-0.174533,-0.174533,-1.04071,-0.690269,-0.167106,-0.189525,-1.29673,-0.440256,-0.222802,0.449803
23,30,-1.0472,-0.698132,-0.174533,-0.174533,-1.04071,-0.690269,-0.167106,-0.189525,-1.29673,-0.440256,-0.222802,0.449803
23,30,-1.0472,-0.698132,-0.174533,-0.174533,-1.04071,-0.690269,-0.167106,-0.189525,-1.29673,-0.440256,-0.222802,0.449803
23,30,-1.0472,-0.698132,-0.174533,-0.174533,-1.04071,-0.690269,-0.167106,-0.189525,-1.29673,-0.440256,-0.222802,0.449802
23,30,-1.0472,-0.698132,-0.174533,-0.174533,-1.04071,-0.690269,-0.167106,-0.189525,-1.29673,-0.440256,-0.222802,0.449802
23,30,-1.0472,-0.698132,-0.174533,-0.174533,-1.04071,-0.690269,-0.167106,-0.189525,-1.29673,-0.440256,-0.222802,0.449802
23,30,-1.0472,-0.698132,-0.174533,-0.174533,-1.04071,-0.690269,-0.167106,-0.189525,-1.29673,-0.440256,-0.222802,0.449801
23,30,-1.0472,-0.698132,-0.174533,-0.174533,-1.04071,-0.690269,-0.167106,-0.189525,-1.29673,-0.440256,-0.222802,0.449801
23,30,-1.0472,-0.698132,-0.174533,-0.174533,-1.04071,-0.690269,-0.167106,-0.189525,-1.29673,-0.440256,-0.222802,0.449801
23,30,-1.0472,-0.698132,-0.174533,-0.174533,-1.04071,-0.690269,-0.167106,-0.189525,-1.29673,-0.440256,-0.222802,0.449801
23,30,-1.0472,-0.698132,-0.174533,-0.174533,-1.04071,-0.690269,-0.167106,-0.189525,-1.29673,-0.440256,-0.222802,0.4498
23,30,-1.0472,-0.698132,-0.174533,-0.174533,-1.04071,-0.690269,-0.167106,-0.189525,-1.29673,-0.440256,-0.222802,0.4498
23,30,-1.0472,-0.698132,-0.174533,-0.174533,-1.04071,-0.690269,-0.167106,-0.189525,-1.29673,-0.440256,-0.222802,0.4498
23,30,-1.0472,-0.698132,-0.174533,-0.174533,-1.04071,-0.690269,-0.167106,-0.189525,-1.29673,-0.440256,-0.222802,0.4498
23,30,-1.0472,-0.698132,-0.174533,-0.174533,-1.04071,-0.690269,-0.167106,-0.189525,-1.29673,-0.440256,-0.222802,0.449799
23,30,-1.0472,-0.698132,-0.174533,-0.174533,-1.04071,-0.690269,-0.167106,-0.189525,-1.29673,-0.440256,-0.222802,0.449799
23,30,-1.0472,-0.698132,-0.174533,-0.174533,-1.04071,-0.690269,-0.167106,-0.189525,-1.29673,-0.440256,-0.222802,0.449799
23,30,-1.0472,-0.698132,-0.174533,-0.174533,-1.04071,-0.690269,-0.167106,-0.189525,-1.29673,-0.440256,-0.222802,0.449799
23,30,-1.0472,-0.698132,-0.174533,-0.174533,-1.04071,-0.690269,-0.167106,-0.189525,-1.29673,-0.440256,-0.222802,0.449798
23,30,-1.0472,-0.698132,-0.174533,-0.174533,-1.04071,-0.690269,-0.167106,-0.189525,-1.29673,-0.440256,-0.222802,0.449798
23,30,-1.0472,-0.698132,-0.174533,-0.174533,-1.04071,-0.690269,-0.167106,-0.189525,-1.29673,-0.440256,-0.222802,0.449798
23,30,-1.0472,-0.698132,-0.174533,-0.174533,-1.04071,-0.690269,-0.167106,-0.189525,-1.29673,-0.440256,-0.222802,0.449798
23,30,-1.0472,-0.698132,-0.174533,-0.174533,-1.04071,-0.690269,-0.167106,-0.189525,-1.29673,-0.440256,-0.222802,0.449798
23,30,-1.0472,-0.698132,-0.174533,-0.174533,-1.04071,-0.690269,-0.167106,-0.189525,-1.29673,-0.440256,-0.222802,0.449797
23,30,-1.0472,-0.698132,-0.174533,-0.174533,-1.04071,-0.690269,-0.167106,-0.189525,-1.29673,-0.440256,-0.222802,0.449797
23,30,-1.0472,-0.698132,-0.174533,-0.174533,-1.04071,-0.690269,-0.167106,-0.189525,-1.29673,-0.440256,-0.222802,0.449797
23,30,-1.0472,-0.698132,-0.174533,-0.174533,-1.04071,-0.690269,-0.167106,-0.189525,-1.29673,-0.440256,-0.222802,0.449797
23,30,-1.0472,-0.698132,-0.174533,-0.174533,-1.04071,-0.690269,-0.167106,-0.189525,-1.29673,-0.440256,-0.222802,0.449797
23,30,-1.0472,-0.698132,-0.174533,-0.174533,-1.04071,-0.690269,-0.167106,-0.189525,-1.29673,-0.440256,-0.222802,0.449796
23,30,-1.0472,-0.698132,-0.174533,-0.174533,-1.04071,-0.690269,-0.167106,-0.189525,-1.29673,-0.440256,-0.222802,0.449796
23,30,-1.0472,-0.698132,-0.174533,-0.174533,-1.04071,-0.690269,-0.167106,-0.189525,-1.29673,-0.440256,-0.222802,0.449796
23,30,-1.0472,-0.698132,-0.174533,-0.174533,-1.04071,-0.690269,-0.167106,-0.189525,-1.29673,-0.440256,-0.222802,0.449796
23,30,-1.0472,-0.698132,-0.174533,-0.174533,-1.04071,-0.690269,-0.167106,-0.189525,-1.29673,-0.440256,-0.222802,0.449796
23,30,-1.0472,-0.698132,-0.174533,-0.174533,-1.04071,-0.690269,-0.167106,-0.189525,-1.29673,-0.440256,-0.222802,0.449796
23,30,-1.0472,-0.698132,-0.174533,-0.174533,-1.04071,-0.690269,-0.167106,-0.189525,-1.29673,-0.440256,-0.222802,0.449795
23,30,-1.0472,-0.698132,-0.174533,-0.174533,-1.04071,-0.690269,-0.167106,-0.189525,-1.29673,-0.440256,-0.222802,0.449795
23,30,-1.0472,-0.698132,-0.174533,-0.174533,-1.04071,-0.690269,-0.167106,-0.189525,-1.29673,-0.440256,-0.222802,0.449795
23,30,-1.0472,-0.698132,-0.174533,-0.174533,-1.04071,-0.690269,-0.167106,-0.189525,-1.29673,-0.440256,-0.222802,0.449795
23,30,-1.0472,-0.698132,-0.174533,-0.174533,-1.04071,-0.690269,-0.167106,-0.189525,-1.29673,-0.440256,-0.222802,0.449795
23,30,-1.0472,-0.698132,-0.174533,-0.174533,-1.04071,-0.690269,-0.167106,-0.189525,-1.29673,-0.440256,-0.222802,0.449795
23,30,-1.0472,-0.698132,-0.174533,-0.174533,-1.04071,-0.690269,-0.167106,-0.189525,-1.29673,-0.440256,-0.222802,0.449794
23,30,-1.0472,-0.698132,-0.174533,-0.174533,-1.04071,-0.690269,-0.167106,-0.189525,-1.29673,-0.440256,-0.222802,0.449794
23,30,-1.0472,-0.698132,-0.174533,-0.174533,-1.04071,-0.690269,-0.167106,-0.189525,-1.29673,-0.440256,-0.222802,0.449794
23,30,-1.0472,-0.698132,-0.174533,-0.174533,-1.04071,-0.690269,-0.167106,-0.189525,-1.29673,-0.440256,-0.222802,0.449794
23,30,-1.0472,-0.698132,-0.174533,-0.174533,-1.04071,-0.690269,-0.167106,-0.189525,-1.29673,-0.440256,-0.222802,0.449794
23,30,-1.0472,-0.698132,-0.174533,-0.174533,-1.04071,-0.690269,-0.167106,-0.189525,-1.29673,-0.440256,-0.222802,0.449794
23,30,-1.0472,-0.698132,-0.174533,-0.174533,-1.04071,-0.690269,-0.167106,-0.189525,-1.29673,-0.440256,-0.222802,0.449794
23,30,-1.0472,-0.698132,-0.174533,-0.174533,-1.04071,-0.690269,-0.167106,-0.189525,-1.29673,-0.440256,-0.222802,0.449793
23,30,-1.0472,-0.698132,-0.174533,-0.174533,-1.04071,-0.690269,-0.167106,-0.189525,-1.29673,-0.440256,-0.222802,0.449793
23,30,-1.0472,-0.698132,-0.174533,-0.174533,-1.04071,-0.690269,-0.167106,-0.189525,-1.29673,-0.440256,-0.222802,0.449793
23,30,-1.0472,-0.698132,-0.174533,-0.174533,-1.04071,-0.690269,-0.167106,-0.189525,-1.29673,-0.440256,-0.222802,0.449793
23,30,-1.0472,-0.698132,-0.174533,-0.174533,-1.04071,-0.690269,-0.167106,-0.189525,-1.29673,-0.440256,-0.222802,0.449793
23,30,-1.0472,-0.698132,-0.174533,-0.174533,-1.04071,-0.690269,-0.167106,-0.189525,-1.29673,-0.440256,-0.222802,0.449793
23,30,-1.0472,-0.698132,-0.174533,-0.174533,-1.04071,-0.690269,-0.167106,-0.189525,-1.29673,-0.440256,-0.222802,0.449793
23,30,-1.0472,-0.698132,-0.174533,-0.174533,-1.04071,-0.690269,-0.167106,-0.189525,-1.29673,-0.440256,-0.222802,0.449793
23,30,-1.0472,-0.698132,-0.174533,-0.174533,-1.04071,-0.690269,-0.167173,-0.189568,-1.29673,-0.440256,-0.220801,0.451074
23,30,-1.0472,-0.698132,-0.174533,-0.174533,-1.04071,-0.690269,-0.167173,-0.189568,-1.29673,-0.440256,-0.220801,0.451074
23,30,-1.0472,-0.698132,-0.174533,-0.174533,-1.04071,-0.690269,-0.167173,-0.189568,-1.29673,-0.440256,-0.220801,0.451074
23,30,-1.0472,-0.698132,-0.174533,-0.174533,-1.04071,-0.690269,-0.167173,-0.189568,-1.29673,-0.440256,-0.220801,0.451074
23,30,-1.0472,-0.698132,-0.174533,-0.174533,-1.04071,-0.690269,-0.167173,-0.189568,-1.29673,-0.440256,-0.220801,0.451073
23,30,-1.0472,-0.698132,-0.174533,-0.174533,-1.04071,-0.690269,-0.167173,-0.189568,-1.29673,-0.440256,-0.220801,0.451073
23,30,-1.0472,-0.698132,-0.174533,-0.174533,-1.04071,-0.690269,-0.167173,-0.189568,-1.29673,-0.440256,-0.220801,0.451073
23,30,-1.0472,-0.698132,-0.174533,-0.174533,-1.04071,-0.690269,-0.167173,-0.189568,-1.29673,-0.440256,-0.220801,0.451073
23,30,-1.0472,-0.698132,-0.174533,-0.174533,-1.04071,-0.690269,-0.167173,-0.189568,-1.29673,-0.440256,-0.220801,0.451073
23,30,-1.0472,-0.698132,-0.174533,-0.174533,-1.04071,-0.690269,-0.167173,-0.189568,-1.29673,-0.440256,-0.220801,0.451073
23,30,-1.0472,-0.698132,-0.174533,-0.174533,-1.04071,-0.690269,-0.167173,-0.189568,-1.29673,-0.440256,-0.220801,0.451073
23,30,-1.0472,-0.698132,-0.174533,-0.174533,-1.04071,-0.690269,-0.167173,-0.189568,-1.29673,-0.440256,-0.220801,0.451073
23,30,-1.0472,-0.698132,-0.174533,-0.174533,-1.04071,-0.690269,-0.167173,-0.189568,-1.29673,-0.440256,-0.220801,0.451073
23,30,-1.0472,-0.698132,-0.174533,-0.174533,-1.04071,-0.690269,-0.167173,-0.189568,-1.29673,-0.440256,-0.220801,0.451073
23,30,-1.0472,-0.698132,-0.174533,-0.174533,-1.04071,-0.690269,-0.167173,-0.189568,-1.29673,-0.440256,-0.220801,0.451072
23,30,-1.0472,-0.698132,-0.174533,-0.174533,-1.04071,-0.690269,-0.167173,-0.189568,-1.29673,-0.440256,-0.220801,0.451072
23,30,-1.0472,-0.698132,-0.174533,-0.174533,-1.04071,-0.690269,-0.167173,-0.189568,-1.29673,-0.440256,-0.220801,0.451072
23,30,-1.0472,-0.698132,-0.174533,-0.174533,-1.04071,-0.690269,-0.167173,-0.189568,-1.29673,-0.440256,-0.220801,0.451072
23,30,-1.0472,-0.698132,-0.174533,-0.174533,-1.04071,-0.690269,-0.167173,-0.189568,-1.29673,-0.440256,-0.220801,0.451072
23,30,-1.0472,-0.698132,-0.174533,-0.174533,-1.04071,-0.690269,-0.167173,-0.189568,-1.29673,-0.440256,-0.220801,0.451072
23,30,-1.0472,-0.698132,-0.174533,-0.174533,-1.04071,-0.690269,-0.167173,-0.189568,-1.29673,-0.440256,-0.220801,0.451072
23,30,-1.0472,-0.698132,-0.174533,-0.174533,-1.04071,-0.690269,-0.167173,-0.189568,-1.29673,-0.440256,-0.220801,0.451072
23,30,-1.0472,-0.698132,-0.174533,-0.174533,-1.04071,-0.690269,-0.167173,-0.189568,-1.29673,-0.440256,-0.220801,0.451072
23,30,-1.0472,-0.698132,-0.174533,-0.174533,-1.04071,-0.690269,-0.167173,-0.189568,-1.29673,-0.440256,-0.220801,0.451072
23,30,-1.0472,-0.698132,-0.174533,-0.174533,-1.04071,-0.690269,-0.167173,-0.189568,-1.29673,-0.440256,-0.220801,0.451071
23,30,-1.0472,-0.698132,-0.174533,-0.174533,-1.04071,-0.690269,-0.167173,-0.189568,-1.29673,-0.440256,-0.220801,0.451071
23,30,-1.0472,-0.698132,-0.174533,-0.174533,-1.04071,-0.690269,-0.167173,-0.189568,-1.29673,-0.440256,-0.220801,0.451071
23,30,-1.0472,-0.698132,-0.174533,-0.174533,-1.04071,-0.690269,-0.167173,-0.189568,-1.29673,-0.440256,-0.220801,0.451071
23,30,-1.0472,-0.698132,-0.174533,-0.174533,-1.04071,-0.690269,-0.167173,-0.189568,-1.29673,-0.440256,-0.220801,0.451071
23,30,-1.0472,-0.698132,-0.174533,-0.174533,-1.04071,-0.690269,-0.167173,-0.189568,-1.29673,-0.440256,-0.220801,0.451071
23,30,-1.0472,-0.698132,-0.174533,-0.174533,-1.04071,-0.690269,-0.167173,-0.189568,-1.29673,-0.440256,-0.220801,0.451071
23,30,-1.0472,-0.698132,-0.174533,-0.174533,-1.04071,-0.690269,-0.167173,-0.189568,-1.29673,-0.440256,-0.220801,0.451071
23,30,-1.0472,-0.698132,-0.174533,-0.174533,-1.04071,-0.690269,-0.167173,-0.189568,-1.29673,-0.440256,-0.220801,0.451071
23,30,-1.0472,-0.698132,-0.174533,-0.174533,-1.04071,-0.690269,-0.167173,-0.189568,-1.29673,-0.440256,-0.220801,0.451071
23,30,-1.0472,-0.698132,-0.174533,-0.174533,-1.04071,-0.690269,-0.167173,-0.189568,-1.29673,-0.440256,-0.220801,0.451071
23,30,-1.0472,-0.698132,-0.174533,-0.174533,-1.04071,-0.690269,-0.167173,-0.189568,-1.29673,-0.440256,-0.220801,0.451071
23,30,-1.0472,-0.698132,-0.174533,-0.174533,-1.04071,-0.690269,-0.167173,-0.189568,-1.29673,-0.440256,-0.220801,0.451071
23,30,-1.0472,-0.698132,-0.174533,-0.174533,-1.04071,-0.690269,-0.167173,-0.189568,-1.29673,-0.440256,-0.220801,0.45107
23,30,-1.0472,-0.698132,-0.174533,-0.174533,-1.04071,-0.690269,-0.167173,-0.189568,-1.29673,-0.440256,-0.220801,0.45107
23,30,-1.0472,-0.698132,-0.174533,-0.174533,-1.04071,-0.690269,-0.167173,-0.189568,-1.29673,-0.440256,-0.220801,0.45107
23,30,-1.0472,-0.698132,-0.174533,-0.174533,-1.04071,-0.690269,-0.167173,-0.189568,-1.29673,-0.440256,-0.220801,0.45107
23,30,-1.0472,-0.698132,-0.174533,-0.174533,-1.04071,-0.690269,-0.167173,-0.189568,-1.29673,-0.440256,-0.220801,0.45107
23,30,-1.0472,-0.698132,-0.174533,-0.174533,-1.04071,-0.690269,-0.167173,-0.189568,-1.29673,-0.440256,-0.220801,0.45107
23,30,-1.0472,-0.698132,-0.174533,-0.174533,-1.04071,-0.690269,-0.167173,-0.189568,-1.29673,-0.440256,-0.220801,0.45107
23,30,-1.0472,-0.698132,-0.174533,-0.174533,-1.04071,-0.690269,-0.167173,-0.189568,-1.29673,-0.440256,-0.220801,0.45107
23,30,-1.0472,-0.698132,-0.174533,-0.174533,-1.04071,-0.690269,-0.167173,-0.189568,-1.29673,-0.440256,-0.220801,0.45107
23,30,-1.0472,-0.698132,-0.174533,-0.174533,-1.04071,-0.690269,-0.167173,-0.189568,-1.29673,-0.440256,-0.220801,0.45107
23,30,-1.0472,-0.698132,-0.174533,-0.174533,-1.04071,-0.690269,-0.167173,-0.189568,-1.29673,-0.440256,-0.220801,0.45107
23,30,-1.0472,-0.698132,-0.174533,-0.174533,-1.04071,-0.690269,-0.167173,-0.189568,-1.29673,-0.440256,-0.220801,0.45107
23,30,-1.0472,-0.698132,-0.174533,-0.174533,-1.04071,-0.690269,-0.167173,-0.189568,-1.29673,-0.440256,-0.220801,0.45107
23,30,-1.0472,-0.698132,-0.174533,-0.174533,-1.04071,-0.690269,-0.167173,-0.189568,-1.29673,-0.440256,-0.220801,0.45107
23,30,-1.0472,-0.698132,-0.174533,-0.174533,-1.04071,-0.690269,-0.167173,-0.189568,-1.29673,-0.440256,-0.220801,0.451069
23,30,-1.0472,-0.698132,-0.174533,-0.174533,-1.04071,-0.690269,-0.167173,-0.189568,-1.29673,-0.440256,-0.220801,0.451069
23,30,-1.0472,-0.698132,-0.174533,-0.174533,-1.04071,-0.690269,-0.167173,-0.189568,-1.29673,-0.440256,-0.220801,0.451069
23,30,-1.0472,-0.698132,-0.174533,-0.174533,-1.04071,-0.690269,-0.167173,-0.189568,-1.29673,-0.440256,-0.220801,0.451069
23,30,-1.0472,-0.698132,-0.174533,-0.174533,-1.04071,-0.690269,-0.167173,-0.189568,-1.29673,-0.440256,-0.220801,0.451069
23,30,-1.0472,-0.698132,-0.174533,-0.174533,-1.04071,-0.690269,-0.167173,-0.189568,-1.29673,-0.440256,-0.220801,0.451069
23,30,-1.0472,-0.698132,-0.174533,-0.174533,-1.04071,-0.690269,-0.167173,-0.189568,-1.29673,-0.440256,-0.220801,0.451069
23,30,-1.0472,-0.698132,-0.174533,-0.174533,-1.04071,-0.690269,-0.167173,-0.189568,-1.29673,-0.440256,-0.220801,0.451069
23,30,-1.0472,-0.698132,-0.174533,-0.174533,-1.04071,-0.690269,-0.167173,-0.189568,-1.29673,-0.440256,-0.220801,0.451069
23,30,-1.0472,-0.698132,-0.174533,-0.174533,-1.04071,-0.690269,-0.167173,-0.189568,-1.29673,-0.440256,-0.220801,0.451069
23,30,-1.0472,-0.698132,-0.174533,-0.174533,-1.04071,-0.690269,-0.167173,-0.189568,-1.29673,-0.440256,-0.220801,0.451069
23,30,-1.0472,-0.698132,-0.174533,-0.174533,-1.04071,-0.690269,-0.167173,-0.189568,-1.29673,-0.440256,-0.220801,0.451069
23,30,-1.0472,-0.698132,-0.174533,-0.174533,-1.04071,-0.690269,-0.167173,-0.189568,-1.29673,-0.440256,-0.220801,0.451069
23,30,-1.0472,-0.698132,-0.174533,-0.174533,-1.04071,-0.690269,-0.167173,-0.189568,-1.29673,-0.440256,-0.220801,0.451069
23,30,-1.0472,-0.698132,-0.174533,-0.174533,-1.04071,-0.690269,-0.167173,-0.189568,-1.29673,-0.440256,-0.220801,0.451069
23,30,-1.0472,-0.698132,-0.174533,-0.174533,-1.04071,-0.690269,-0.167173,-0.189568,-1.29673,-0.440256,-0.220801,0.451069
23,30,-1.0472,-0.698132,-0.174533,-0.174533,-1.04071,-0.690269,-0.167173,-0.189568,-1.29673,-0.440256,-0.220801,0.451069
23,30,-1.0472,-0.698132,-0.174533,-0.174533,-1.04071,-0.690269,-0.167173,-0.189568,-1.29673,-0.440256,-0.220801,0.451069
23,30,-1.0472,-0.698132,-0.174533,-0.174533,-1.04071,-0.690269,-0.167173,-0.189568,-1.29673,-0.440256,-0.220801,0.451068
23,30,-1.0472,-0.698132,-0.174533,-0.174533,-1.04071,-0.690269,-0.167173,-0.189568,-1.29673,-0.440256,-0.220801,0.451068
23,30,-1.0472,-0.698132,-0.174533,-0.174533,-1.04071,-0.690269,-0.167173,-0.189568,-1.29673,-0.440256,-0.220802,0.451057
23,30,-1.0472,-0.698132,-0.174533,-0.174533,-1.04071,-0.690269,-0.167173,-0.189568,-1.29673,-0.440256,-0.220802,0.451057
23,30,-1.0472,-0.698132,-0.174533,-0.174533,-1.04071,-0.690269,-0.167173,-0.189568,-1.29673,-0.440256,-0.220802,0.451057
23,30,-1.0472,-0.698132,-0.174533,-0.174533,-1.04071,-0.690269,-0.167173,-0.189568,-1.29673,-0.440256,-0.220802,0.451057
23,30,-1.0472,-0.698132,-0.174533,-0.174533,-1.04071,-0.690269,-0.167173,-0.189568,-1.29673,-0.440256,-0.220802,0.451057
23,30,-1.0472,-0.698132,-0.174533,-0.174533,-1.04071,-0.690269,-0.167173,-0.189568,-1.29673,-0.440256,-0.220802,0.451057
23,30,-1.0472,-0.698132,-0.174533,-0.174533,-1.04071,-0.690269,-0.167173,-0.189568,-1.29673,-0.440256,-0.220802,0.451057
23,30,-1.0472,-0.698132,-0.174533,-0.174533,-1.04071,-0.690269,-0.167173,-0.189568,-1.29673,-0.440256,-0.220802,0.451057
23,30,-1.0472,-0.698132,-0.174533,-0.174533,-1.04071,-0.690269,-0.167173,-0.189568,-1.29673,-0.440256,-0.220802,0.451057
23,30,-1.0472,-0.698132,-0.174533,-0.174533,-1.04071,-0.690269,-0.167173,-0.189568,-1.29673,-0.440256,-0.220802,0.451057
23,30,-1.0472,-0.698132,-0.174533,-0.174533,-1.04071,-0.690269,-0.167173,-0.189568,-1.29673,-0.440256,-0.220802,0.451057
23,30,-1.0472,-0.698132,-0.174533,-0.174533,-1.04071,-0.690269,-0.167173,-0.189568,-1.29673,-0.440256,-0.220802,0.451057
23,30,-1.0472,-0.698132,-0.174533,-0.174533,-1.04071,-0.690269,-0.167173,-0.189568,-1.29673,-0.440256,-0.220802,0.451057
23,30,-1.0472,-0.698132,-0.174533,-0.174533,-1.04071,-0.690269,-0.167173,-0.189568,-1.29673,-0.440256,-0.220802,0.451057
23,30,-1.0472,-0.698132,-0.174533,-0.174533,-1.04071,-0.690269,-0.167173,-0.189568,-1.29673,-0.440256,-0.220802,0.451057
23,30,-1.0472,-0.698132,-0.174533,-0.174533,-1.04071,-0.690269,-0.167173,-0.189568,-1.29673,-0.440256,-0.220802,0.451057
23,30,-1.0472,-0.698132,-0.174533,-0.174533,-1.04071,-0.690269,-0.167173,-0.189568,-1.29673,-0.440256,-0.220802,0.451057
23,30,-1.0472,-0.698132,-0.174533,-0.174533,-1.04071,-0.690269,-0.167173,-0.189568,-1.29673,-0.440256,-0.220802,0.451057
23,30,-1.0472,-0.698132,-0.174533,-0.174533,-1.04071,-0.690269,-0.167173,-0.189568,-1.29673,-0.440256,-0.220802,0.451057
23,30,-1.0472,-0.698132,-0.174533,-0.174533,-1.04071,-0.690269,-0.167173,-0.189568,-1.29673,-0.440256,-0.220802,0.451057
23,30,-1.0472,-0.698132,-0.174533,-0.174533,-1.04071,-0.690269,-0.167173,-0.189568,-1.29673,-0.440256,-0.220802,0.451057
23,30,-1.0472,-0.698132,-0.174533,-0.174533,-1.04071,-0.690269,-0.167173,-0.189568,-1.29673,-0.440256,-0.220802,0.451057
23,30,-1.0472,-0.698132,-0.174533,-0.174533,-1.04071,-0.690269,-0.167173,-0.189568,-1.29673,-0.440256,-0.220802,0.451057
23,30,-1.0472,-0.698132,-0.174533,-0.174533,-1.04071,-0.690269,-0.167173,-0.189568,-1.29673,-0.440256,-0.220802,0.451057
23,30,-1.0472,-0.698132,-0.174533,-0.174533,-1.04071,-0.690269,-0.167173,-0.189568,-1.29673,-0.440256,-0.220802,0.451057
23,30,-1.0472,-0.698132,-0.174533,-0.174533,-1.04071,-0.690269,-0.167173,-0.189568,-1.29673,-0.440256,-0.220802,0.451057
23,30,-1.0472,-0.698132,-0.174533,-0.174533,-1.04071,-0.690269,-0.167173,-0.189568,-1.29673,-0.440256,-0.220802,0.451057
23,30,-1.0472,-0.698132,-0.174533,-0.174533,-1.04071,-0.690269,-0.167173,-0.189568,-1.29673,-0.440256,-0.220802,0.451057
23,30,-1.0472,-0.698132,-0.174533,-0.174533,-1.04071,-0.690269,-0.167173,-0.189568,-1.29673,-0.440256,-0.220802,0.451057
23,30,-1.0472,-0.698132,-0.174533,-0.174533,-1.04071,-0.690269,-0.167173,-0.189568,-1.29673,-0.440328,-0.220802,0.451057
23,30,-1.0472,-0.698132,-0.174533,-0.174533,-1.04071,-0.690269,-0.167173,-0.189568,-1.29673,-0.440328,-0.220802,0.451057
23,30,-1.0472,-0.698132,-0.174533,-0.174533,-1.04071,-0.690269,-0.167173,-0.189568,-1.29673,-0.440328,-0.220802,0.451057
23,30,-1.0472,-0.698132,-0.174533,-0.174533,-1.04071,-0.690269,-0.167173,-0.189568,-1.29673,-0.440328,-0.220802,0.451057
23,30,-1.0472,-0.698132,-0.174533,-0.174533,-1.04071,-0.690269,-0.167173,-0.189568,-1.29673,-0.440328,-0.220802,0.451057
23,30,-1.0472,-0.698132,-0.174533,-0.174533,-1.04071,-0.690269,-0.167173,-0.189568,-1.29673,-0.440328,-0.220802,0.451057
23,30,-1.0472,-0.698132,-0.174533,-0.174533,-1.04071,-0.690269,-0.167173,-0.189568,-1.29673,-0.440328,-0.220802,0.451057
23,30,-1.0472,-0.698132,-0.174533,-0.174533,-1.04071,-0.690269,-0.167173,-0.189568,-1.29673,-0.440328,-0.220802,0.451057
23,30,-1.0472,-0.698132,-0.174533,-0.174533,-1.04071,-0.690269,-0.167173,-0.189568,-1.29673,-0.440328,-0.220802,0.451057
23,30,-1.0472,-0.698132,-0.174533,-0.174533,-1.04071,-0.690269,-0.167173,-0.189568,-1.29673,-0.440328,-0.220802,0.451057
23,30,-1.0472,-0.698132,-0.174533,-0.174533,-1.04071,-0.690269,-0.167173,-0.189568,-1.29673,-0.440328,-0.220802,0.451057
23,30,-1.0472,-0.698132,-0.174533,-0.174533,-1.04071,-0.690269,-0.167173,-0.189568,-1.29673,-0.440328,-0.220802,0.451057
23,30,-1.0472,-0.698132,-0.174533,-0.174533,-1.04071,-0.690269,-0.167173,-0.189568,-1.29673,-0.440328,-0.220802,0.451057
23,30,-1.0472,-0.698132,-0.174533,-0.174533,-1.04071,-0.690269,-0.167173,-0.189568,-1.29673,-0.440328,-0.220802,0.451057
23,30,-1.0472,-0.698132,-0.174533,-0.174533,-1.04071,-0.690269,-0.167173,-0.189568,-1.29673,-0.440328,-0.220802,0.451057
23,30,-1.0472,-0.698132,-0.174533,-0.174533,-1.04071,-0.690269,-0.167173,-0.189568,-1.29673,-0.440328,-0.220802,0.451057
23,30,-1.0472,-0.698132,-0.174533,-0.174533,-1.04071,-0.690269,-0.167173,-0.189568,-1.29673,-0.440328,-0.220802,0.451057
23,30,-1.0472,-0.698132,-0.174533,-0.174533,-1.04071,-0.690269,-0.167173,-0.189568,-1.29673,-0.440328,-0.220802,0.451057
23,30,-1.0472,-0.698132,-0.174533,-0.174533,-1.04071,-0.690269,-0.167173,-0.189568,-1.29673,-0.440328,-0.220802,0.451057
23,30,-1.0472,-0.698132,-0.174533,-0.174533,-1.04071,-0.690269,-0.167173,-0.189568,-1.29673,-0.440328,-0.220802,0.451057
23,30,-1.0472,-0.698132,-0.174533,-0.174533,-1.04071,-0.690269,-0.167173,-0.189568,-1.29673,-0.440328,-0.220802,0.451057
23,30,-1.0472,-0.698132,-0.174533,-0.174533,-1.04071,-0.690269,-0.167173,-0.189568,-1.29673,-0.440328,-0.220802,0.451057
23,30,-1.0472,-0.698132,-0.174533,-0.174533,-1.04071,-0.690269,-0.167173,-0.189568,-1.29673,-0.440328,-0.220802,0.451057
23,30,-1.0472,-0.698132,-0.174533,-0.174533,-1.04071,-0.690269,-0.167173,-0.189568,-1.29673,-0.440328,-0.220802,0.451057
23,30,-1.0472,-0.698132,-0.174533,-0.174533,-1.04071,-0.690269,-0.167173,-0.189568,-1.29673,-0.440328,-0.220802,0.451057
23,30,-1.0472,-0.698132,-0.174533,-0.174533,-1.04071,-0.690269,-0.167173,-0.189568,-1.29673,-0.440328,-0.220802,0.451057
23,30,-1.0472,-0.698132,-0.174533,-0.174533,-1.04071,-0.690269,-0.167173,-0.189568,-1.29673,-0.440328,-0.220802,0.451057
23,30,-1.0472,-0.698132,-0.174533,-0.174533,-1.04071,-0.690269,-0.167173,-0.189568,-1.29673,-0.440328,-0.220802,0.451057
23,30,-1.0472,-0.698132,-0.174533,-0.174533,-1.04071,-0.690269,-0.167173,-0.189568,-1.29673,-0.440328,-0.220802,0.451057
23,30,-1.0472,-0.698132,-0.174533,-0.174533,-1.04071,-0.690269,-0.167173,-0.189568,-1.29673,-0.440328,-0.220802,0.451057
23,30,-1.0472,-0.698132,-0.174533,-0.174533,-1.04071,-0.690269,-0.167173,-0.189568,-1.29673,-0.440328,-0.220802,0.451057
23,30,-1.0472,-0.698132,-0.174533,-0.174533,-1.04071,-0.690269,-0.167173,-0.189568,-1.29673,-0.440328,-0.220802,0.451057
23,30,-1.0472,-0.698132,-0.174533,-0.174533,-1.04071,-0.690269,-0.167173,-0.189568,-1.29673,-0.440328,-0.220802,0.451057
23,30,-1.0472,-0.698132,-0.174533,-0.174533,-1.04071,-0.690269,-0.167173,-0.189568,-1.29673,-0.440328,-0.220802,0.451057
23,30,-1.0472,-0.698132,-0.174533,-0.174533,-1.04071,-0.690269,-0.167173,-0.189568,-1.29673,-0.440328,-0.220802,0.451057
23,30,-1.0472,-0.698132,-0.174533,-0.174533,-1.04071,-0.690269,-0.167173,-0.189568,-1.29673,-0.440328,-0.220802,0.451057
23,30,-1.0472,-0.698132,-0.174533,-0.174533,-1.04071,-0.690269,-0.167173,-0.189568,-1.29673,-0.440328,-0.220802,0.451057
23,30,-1.0472,-0.698132,-0.174533,-0.174533,-1.04071,-0.690269,-0.167173,-0.189568,-1.29673,-0.440328,-0.220802,0.451057
23,30,-1.0472,-0.698132,-0.174533,-0.174533,-1.04071,-0.690269,-0.167173,-0.189568,-1.29673,-0.440328,-0.220802,0.451057
23,30,-1.0472,-0.698132,-0.174533,-0.174533,-1.04071,-0.690269,-0.167173,-0.189568,-1.29673,-0.440328,-0.220802,0.451057
23,30,-1.0472,-0.698132,-0.174533,-0.174533,-1.04071,-0.690269,-0.167173,-0.189568,-1.29673,-0.440328,-0.220802,0.451057
23,30,-1.0472,-0.698132,-0.174533,-0.174533,-1.04071,-0.690269,-0.167173,-0.189568,-1.29673,-0.440328,-0.220802,0.451057
23,30,-1.0472,-0.698132,-0.174533,-0.174533,-1.04071,-0.690269,-0.167173,-0.189568,-1.29673,-0.440328,-0.220802,0.451057
23,30,-1.0472,-0.698132,-0.174533,-0.174533,-1.04071,-0.690269,-0.167173,-0.189568,-1.29673,-0.440328,-0.220802,0.451057
23,30,-1.0472,-0.698132,-0.174533,-0.174533,-1.04071,-0.690269,-0.167173,-0.189568,-1.29673,-0.440328,-0.220802,0.451057
23,30,-1.0472,-0.698132,-0.174533,-0.174533,-1.04071,-0.690269,-0.167173,-0.189568,-1.29673,-0.440328,-0.220802,0.451057
23,30,-1.0472,-0.698132,-0.174533,-0.174533,-1.04071,-0.690269,-0.167173,-0.189568,-1.29673,-0.440328,-0.220802,0.451057
23,30,-1.0472,-0.698132,-0.174533,-0.174533,-1.04071,-0.690269,-0.167173,-0.189568,-1.29673,-0.440328,-0.220802,0.451057
23,30,-1.0472,-0.698132,-0.174533,-0.174533,-1.04071,-0.690269,-0.167173,-0.189568,-1.29673,-0.440328,-0.220802,0.451057
23,30,-1.0472,-0.698132,-0.174533,-0.174533,-1.04071,-0.690269,-0.167173,-0.189568,-1.29673,-0.440328,-0.220802,0.451057
23,30,-1.0472,-0.698132,-0.174533,-0.174533,-1.04071,-0.690269,-0.167173,-0.189568,-1.29673,-0.440328,-0.220802,0.451057
23,30,-1.0472,-0.698132,-0.174533,-0.174533,-1.04071,-0.690269,-0.167173,-0.189568,-1.29673,-0.440328,-0.220802,0.451057
23,30,-1.0472,-0.698132,-0.174533,-0.174533,-1.04071,-0.690269,-0.167173,-0.189568,-1.29673,-0.440328,-0.220802,0.451057
23,30,-1.0472,-0.698132,-0.174533,-0.174533,-1.04071,-0.690269,-0.167173,-0.189568,-1.29673,-0.440328,-0.220802,0.451057
23,30,-1.0472,-0.698132,-0.174533,-0.174533,-1.04071,-0.690269,-0.167173,-0.189568,-1.29673,-0.440328,-0.220802,0.451057
23,30,-1.0472,-0.698132,-0.174533,-0.174533,-1.04071,-0.690269,-0.167173,-0.189568,-1.29673,-0.440328,-0.220802,0.451057
23,30,-1.0472,-0.698132,-0.174533,-0.174533,-1.04071,-0.690269,-0.167173,-0.189568,-1.29673,-0.440328,-0.220802,0.451057
23,30,-1.0472,-0.698132,-0.174533,-0.174533,-1.04071,-0.690269,-0.167173,-0.189568,-1.29673,-0.440328,-0.220802,0.451057
23,30,-1.0472,-0.698132,-0.174533,-0.174533,-1.04071,-0.690269,-0.167173,-0.189568,-1.29673,-0.440328,-0.220802,0.451057
23,30,-1.0472,-0.698132,-0.174533,-0.174533,-1.04071,-0.690269,-0.167173,-0.189568,-1.29673,-0.440328,-0.220802,0.451057
23,30,-1.0472,-0.698132,-0.174533,-0.174533,-1.04071,-0.690269,-0.167173,-0.189568,-1.29673,-0.440328,-0.220802,0.451057
23,30,-1.0472,-0.698132,-0.174533,-0.174533,-1.04071,-0.690269,-0.167173,-0.189568,-1.29673,-0.440328,-0.220802,0.451057
23,30,-1.0472,-0.698132,-0.174533,-0.174533,-1.04071,-0.690269,-0.167173,-0.189568,-1.29673,-0.440328,-0.220802,0.451057
23,30,-1.0472,-0.698132,-0.174533,-0.174533,-1.04071,-0.690269,-0.167173,-0.189568,-1.29673,-0.440328,-0.220802,0.451057
23,30,-1.0472,-0.698132,-0.174533,-0.174533,-1.04071,-0.690269,-0.167173,-0.189568,-1.29673,-0.440328,-0.220802,0.451057
23,30,-1.0472,-0.698132,-0.174533,-0.174533,-1.04071,-0.690269,-0.167173,-0.189568,-1.29673,-0.440328,-0.220802,0.451057
23,30,-1.0472,-0.698132,-0.174533,-0.174533,-1.04071,-0.690269,-0.167173,-0.189568,-1.29673,-0.440328,-0.220802,0.451057
23,30,-1.0472,-0.698132,-0.174533,-0.174533,-1.04071,-0.690269,-0.167173,-0.189568,-1.29673,-0.440328,-0.220802,0.451057
23,30,-1.0472,-0.698132,-0.174533,-0.174533,-1.04071,-0.690269,-0.167173,-0.189568,-1.29673,-0.440328,-0.220802,0.451057
23,30,-1.0472,-0.698132,-0.174533,-0.174533,-1.04071,-0.690269,-0.167173,-0.189568,-1.29673,-0.440328,-0.220802,0.451057
23,30,-1.0472,-0.698132,-0.174533,-0.174533,-1.04071,-0.690269,-0.167173,-0.189568,-1.29673,-0.440328,-0.220802,0.451057
23,30,-1.0472,-0.698132,-0.174533,-0.174533,-1.04071,-0.690269,-0.167173,-0.189568,-1.29673,-0.440328,-0.220802,0.451057
23,30,-1.0472,-0.698132,-0.174533,-0.174533,-1.04071,-0.690269,-0.167173,-0.189568,-1.29673,-0.440328,-0.220802,0.451057
23,30,-1.0472,-0.698132,-0.174533,-0.174533,-1.04071,-0.690269,-0.167173,-0.189568,-1.29673,-0.440328,-0.220802,0.451057
23,30,-1.0472,-0.698132,-0.174533,-0.174533,-1.04071,-0.690269,-0.167173,-0.189568,-1.29673,-0.440328,-0.220802,0.451057
23,30,-1.0472,-0.698132,-0.174533,-0.174533,-1.04071,-0.690269,-0.167173,-0.189568,-1.29673,-0.440328,-0.220802,0.451057
23,30,-1.0472,-0.698132,-0.174533,-0.174533,-1.04071,-0.690269,-0.167173,-0.189568,-1.29673,-0.440328,-0.220802,0.451057
23,30,-1.0472,-0.698132,-0.174533,-0.174533,-1.04071,-0.690269,-0.167173,-0.189568,-1.29673,-0.440328,-0.220802,0.451057
23,30,-1.0472,-0.698132,-0.174533,-0.174533,-1.04071,-0.690269,-0.167173,-0.189568,-1.29673,-0.440328,-0.220802,0.451057
23,30,-1.0472,-0.698132,-0.174533,-0.174533,-1.04071,-0.690269,-0.167173,-0.189568,-1.29673,-0.440328,-0.220802,0.451057
23,30,-1.0472,-0.698132,-0.174533,-0.174533,-1.04071,-0.690269,-0.167173,-0.189568,-1.29673,-0.440328,-0.220802,0.451057
23,30,-1.0472,-0.698132,-0.174533,-0.174533,-1.04071,-0.690269,-0.167173,-0.189568,-1.29673,-0.440328,-0.220802,0.451057
23,30,-1.0472,-0.698132,-0.174533,-0.174533,-1.04071,-0.690269,-0.167173,-0.189568,-1.29673,-0.440328,-0.220802,0.451057
23,30,-1.0472,-0.698132,-0.174533,-0.174533,-1.04071,-0.690269,-0.167173,-0.189568,-1.29673,-0.440328,-0.220802,0.451057
23,30,-1.0472,-0.698132,-0.174533,-0.174533,-1.04071,-0.690269,-0.167173,-0.189568,-1.29673,-0.440328,-0.220802,0.451057
23,30,-1.0472,-0.698132,-0.174533,-0.174533,-1.04071,-0.690269,-0.167173,-0.189568,-1.29673,-0.440328,-0.220802,0.451057
23,30,-1.0472,-0.698132,-0.174533,-0.174533,-1.04071,-0.690269,-0.167173,-0.189568,-1.29673,-0.440328,-0.220802,0.451057
23,30,-1.0472,-0.698132,-0.174533,-0.174533,-1.04071,-0.690269,-0.167173,-0.189568,-1.29673,-0.440328,-0.220802,0.451057
23,30,-1.0472,-0.698132,-0.174533,-0.174533,-1.04071,-0.690269,-0.167173,-0.189568,-1.29673,-0.440328,-0.220802,0.451057
23,30,-1.0472,-0.698132,-0.174533,-0.174533,-1.04071,-0.690269,-0.167173,-0.189568,-1.29673,-0.440328,-0.220802,0.451057
23,30,-1.0472,-0.698132,-0.174533,-0.174533,-1.04071,-0.690269,-0.167173,-0.189568,-1.29673,-0.440328,-0.220802,0.451057
23,30,-1.0472,-0.698132,-0.174533,-0.174533,-1.04071,-0.690269,-0.167173,-0.189568,-1.29673,-0.440328,-0.220802,0.451057
23,30,-1.0472,-0.698132,-0.174533,-0.174533,-1.04071,-0.690269,-0.167173,-0.189568,-1.29673,-0.440328,-0.220802,0.451057
23,30,-1.0472,-0.698132,-0.174533,-0.174533,-1.04071,-0.690269,-0.167173,-0.189568,-1.29673,-0.440328,-0.220802,0.451057
23,30,-1.0472,-0.698132,-0.174533,-0.174533,-1.04071,-0.690269,-0.167173,-0.189568,-1.29673,-0.440328,-0.220802,0.451057
23,30,-1.0472,-0.698132,-0.174533,-0.174533,-1.04071,-0.690269,-0.167173,-0.189568,-1.29673,-0.440328,-0.220802,0.451057
23,30,-1.0472,-0.698132,-0.174533,-0.174533,-1.04071,-0.690269,-0.167173,-0.189568,-1.29673,-0.440328,-0.220802,0.451057
23,30,-1.0472,-0.698132,-0.174533,-0.174533,-1.04071,-0.690269,-0.167176,-0.189628,-1.29673,-0.440328,-0.22071,0.452853
23,30,-1.0472,-0.698132,-0.174533,-0.174533,-1.04071,-0.69032,-0.167176,-0.189628,-1.29673,-0.437402,-0.22071,0.452853
23,30,-1.0472,-0.698132,-0.174533,-0.174533,-1.04071,-0.69032,-0.167176,-0.189628,-1.29673,-0.437402,-0.22071,0.452853
23,30,-1.0472,-0.698132,-0.174533,-0.174533,-1.04071,-0.69032,-0.167176,-0.189628,-1.29673,-0.437402,-0.22071,0.452853
23,30,-1.0472,-0.698132,-0.174533,-0.174533,-1.04071,-0.69032,-0.167176,-0.189628,-1.29673,-0.437402,-0.22071,0.452853
23,30,-1.0472,-0.698132,-0.174533,-0.174533,-1.04071,-0.69032,-0.167176,-0.189628,-1.29673,-0.437402,-0.22071,0.452853
23,30,-1.0472,-0.698132,-0.174533,-0.174533,-1.04071,-0.69032,-0.167176,-0.189628,-1.29673,-0.437402,-0.22071,0.452853
23,30,-1.0472,-0.698132,-0.174533,-0.174533,-1.04071,-0.69032,-0.167176,-0.189628,-1.29673,-0.437402,-0.22071,0.452853
23,30,-1.0472,-0.698132,-0.174533,-0.174533,-1.04071,-0.69032,-0.167176,-0.189628,-1.29673,-0.437402,-0.22071,0.452853
23,30,-1.0472,-0.698132,-0.174533,-0.174533,-1.04071,-0.69032,-0.167176,-0.189628,-1.29673,-0.437402,-0.22071,0.452853
23,30,-1.0472,-0.698132,-0.174533,-0.174533,-1.04071,-0.69032,-0.167176,-0.189628,-1.29673,-0.437402,-0.22071,0.452853
23,30,-1.0472,-0.698132,-0.174533,-0.174533,-1.04071,-0.69032,-0.167176,-0.189628,-1.29673,-0.437402,-0.22071,0.452853
23,30,-1.0472,-0.698132,-0.174533,-0.174533,-1.04071,-0.69032,-0.167176,-0.189628,-1.29673,-0.437402,-0.22071,0.452853
23,30,-1.0472,-0.698132,-0.174533,-0.174533,-1.04071,-0.69032,-0.167176,-0.189628,-1.29673,-0.437402,-0.220719,0.452847
23,30,-1.0472,-0.698132,-0.174533,-0.174533,-1.04071,-0.69032,-0.167176,-0.189628,-1.29673,-0.437402,-0.220719,0.452847
23,30,-1.0472,-0.698132,-0.174533,-0.174533,-1.04071,-0.69032,-0.167176,-0.189628,-1.29673,-0.437402,-0.220719,0.452847
23,30,-1.0472,-0.698132,-0.174533,-0.174533,-1.04071,-0.69032,-0.167176,-0.189628,-1.29673,-0.437402,-0.220719,0.452847
23,30,-1.0472,-0.698132,-0.174533,-0.174533,-1.04071,-0.69032,-0.167176,-0.189628,-1.29673,-0.437402,-0.220719,0.452847
23,30,-1.0472,-0.698132,-0.174533,-0.174533,-1.04071,-0.69032,-0.167176,-0.189628,-1.29673,-0.437402,-0.220719,0.452847
23,30,-1.0472,-0.698132,-0.174533,-0.174533,-1.04071,-0.69032,-0.167176,-0.189628,-1.29673,-0.437402,-0.220719,0.452847
23,30,-1.0472,-0.698132,-0.174533,-0.174533,-1.04071,-0.69032,-0.167176,-0.189628,-1.29673,-0.437402,-0.220719,0.452847
23,30,-1.0472,-0.698132,-0.174533,-0.174533,-1.04071,-0.69032,-0.167176,-0.189628,-1.29673,-0.437402,-0.220719,0.452847
23,30,-1.0472,-0.698132,-0.174533,-0.174533,-1.04071,-0.69032,-0.167176,-0.189628,-1.29673,-0.437402,-0.220719,0.452847
23,30,-1.0472,-0.698132,-0.174533,-0.174533,-1.04071,-0.69032,-0.167176,-0.189628,-1.29673,-0.437402,-0.220719,0.452847
23,30,-1.0472,-0.698132,-0.174533,-0.174533,-1.04071,-0.69032,-0.167176,-0.189628,-1.29673,-0.437402,-0.220719,0.452847
23,30,-1.0472,-0.698132,-0.174533,-0.174533,-1.04071,-0.69032,-0.167176,-0.189628,-1.29673,-0.437402,-0.220719,0.452847
23,30,-1.0472,-0.698132,-0.174533,-0.174533,-1.04071,-0.69032,-0.167176,-0.189628,-1.29673,-0.437402,-0.220719,0.452847
23,30,-1.0472,-0.698132,-0.174533,-0.174533,-1.04071,-0.69032,-0.167176,-0.189628,-1.29673,-0.437402,-0.220719,0.452847
23,30,-1.0472,-0.698132,-0.174533,-0.174533,-1.04071,-0.69032,-0.167176,-0.189628,-1.29673,-0.437402,-0.220719,0.452847
23,30,-1.0472,-0.698132,-0.174533,-0.174533,-1.04071,-0.69032,-0.167176,-0.189628,-1.29673,-0.437402,-0.220719,0.452847
23,30,-1.0472,-0.698132,-0.174533,-0.174533,-1.04071,-0.69032,-0.167176,-0.189628,-1.29673,-0.437402,-0.220719,0.452847
23,30,-1.0472,-0.698132,-0.174533,-0.174533,-1.04071,-0.69032,-0.167176,-0.189628,-1.29673,-0.437402,-0.220719,0.452847
23,30,-1.0472,-0.698132,-0.174533,-0.174533,-1.04071,-0.69032,-0.167176,-0.189628,-1.29673,-0.437402,-0.220719,0.452847
23,30,-1.0472,-0.698132,-0.174533,-0.174533,-1.04071,-0.69032,-0.167176,-0.189628,-1.29673,-0.437402,-0.220719,0.452847
23,30,-1.0472,-0.698132,-0.174533,-0.174533,-1.04071,-0.69032,-0.167176,-0.189628,-1.29673,-0.437402,-0.220719,0.452847
23,30,-1.0472,-0.698132,-0.174533,-0.174533,-1.04071,-0.69032,-0.167176,-0.189628,-1.29673,-0.437402,-0.220719,0.452847
23,30,-1.0472,-0.698132,-0.174533,-0.174533,-1.04071,-0.69032,-0.167176,-0.189628,-1.29673,-0.437402,-0.220719,0.452847
23,30,-1.0472,-0.698132,-0.174533,-0.174533,-1.04071,-0.69032,-0.167176,-0.189628,-1.29673,-0.437402,-0.220719,0.452847
23,30,-1.0472,-0.698132,-0.174533,-0.174533,-1.04071,-0.69032,-0.167176,-0.189628,-1.29673,-0.437402,-0.220719,0.452847
23,30,-1.0472,-0.698132,-0.174533,-0.174533,-1.04071,-0.69032,-0.167176,-0.189628,-1.29673,-0.437402,-0.220719,0.452847
23,30,-1.0472,-0.698132,-0.174533,-0.174533,-1.04071,-0.69032,-0.167176,-0.189628,-1.29673,-0.437402,-0.220719,0.452847
23,30,-1.0472,-0.698132,-0.174533,-0.174533,-1.04071,-0.69032,-0.167176,-0.189628,-1.29673,-0.437402,-0.220719,0.452847
23,30,-1.0472,-0.698132,-0.174533,-0.174533,-1.04071,-0.69032,-0.167176,-0.189628,-1.29673,-0.437402,-0.220719,0.452847
23,30,-1.0472,-0.698132,-0.174533,-0.174533,-1.04071,-0.69032,-0.167176,-0.189628,-1.29673,-0.437402,-0.220719,0.452847
23,30,-1.0472,-0.698132,-0.174533,-0.174533,-1.04071,-0.69032,-0.167176,-0.189628,-1.29673,-0.437402,-0.220719,0.452847
23,30,-1.0472,-0.698132,-0.174533,-0.174533,-1.04071,-0.69032,-0.167176,-0.189628,-1.29673,-0.437402,-0.220719,0.452847
23,30,-1.0472,-0.698132,-0.174533,-0.174533,-1.04071,-0.69032,-0.167176,-0.189628,-1.29673,-0.437402,-0.220719,0.452847
23,30,-1.0472,-0.698132,-0.174533,-0.174533,-1.04071,-0.69032,-0.167176,-0.189628,-1.29673,-0.437402,-0.220719,0.452847
23,30,-1.0472,-0.698132,-0.174533,-0.174533,-1.04071,-0.69032,-0.167242,-0.18967,-1.29673,-0.437402,-0.218724,0.454125
23,30,-1.0472,-0.698132,-0.174533,-0.174533,-1.04071,-0.69032,-0.167242,-0.18967,-1.29673,-0.437402,-0.218724,0.454125
23,30,-1.0472,-0.698132,-0.174533,-0.174533,-1.04071,-0.69032,-0.167242,-0.18967,-1.29673,-0.437402,-0.218724,0.454125
23,30,-1.0472,-0.698132,-0.174533,-0.174533,-1.04071,-0.69032,-0.167242,-0.18967,-1.29673,-0.437402,-0.218724,0.454125
23,30,-1.0472,-0.698132,-0.174533,-0.174533,-1.04071,-0.69032,-0.167242,-0.18967,-1.29673,-0.437402,-0.218724,0.454125
23,30,-1.0472,-0.698132,-0.174533,-0.174533,-1.04071,-0.69032,-0.167242,-0.18967,-1.29673,-0.437402,-0.218724,0.454125
23,30,-1.0472,-0.698132,-0.174533,-0.174533,-1.04071,-0.69032,-0.167242,-0.18967,-1.29673,-0.437402,-0.218724,0.454125
23,30,-1.0472,-0.698132,-0.174533,-0.174533,-1.04071,-0.69032,-0.167242,-0.18967,-1.29673,-0.437402,-0.218724,0.454125
23,30,-1.0472,-0.698132,-0.174533,-0.174533,-1.04071,-0.69032,-0.167242,-0.18967,-1.29673,-0.437402,-0.218724,0.454125
23,30,-1.0472,-0.698132,-0.174533,-0.174533,-1.04071,-0.69032,-0.167242,-0.18967,-1.29673,-0.437402,-0.218724,0.454125
23,30,-1.0472,-0.698132,-0.174533,-0.174533,-1.04071,-0.69032,-0.167242,-0.18967,-1.29673,-0.437402,-0.218724,0.454125
23,30,-1.0472,-0.698132,-0.174533,-0.174533,-1.04071,-0.69032,-0.167242,-0.18967,-1.29673,-0.437402,-0.218724,0.454125
23,30,-1.0472,-0.698132,-0.174533,-0.174533,-1.04071,-0.69032,-0.167242,-0.18967,-1.29673,-0.437402,-0.218724,0.454125
23,30,-1.0472,-0.698132,-0.174533,-0.174533,-1.04071,-0.69032,-0.167242,-0.18967,-1.29673,-0.437402,-0.218724,0.454125
23,30,-1.0472,-0.698132,-0.174533,-0.174533,-1.04071,-0.69032,-0.167242,-0.18967,-1.29673,-0.437402,-0.218724,0.454125
23,30,-1.0472,-0.698132,-0.174533,-0.174533,-1.04071,-0.69032,-0.167242,-0.18967,-1.29673,-0.437402,-0.218724,0.454125
23,30,-1.0472,-0.698132,-0.174533,-0.174533,-1.04071,-0.69032,-0.167242,-0.18967,-1.29673,-0.437402,-0.218724,0.454125
23,30,-1.0472,-0.698132,-0.174533,-0.174533,-1.04071,-0.69032,-0.167242,-0.18967,-1.29673,-0.437402,-0.218724,0.454125
23,30,-1.0472,-0.698132,-0.174533,-0.174533,-1.04071,-0.69032,-0.167242,-0.18967,-1.29673,-0.437402,-0.218724,0.454125
23,30,-1.0472,-0.698132,-0.174533,-0.174533,-1.04071,-0.69032,-0.167242,-0.18967,-1.29673,-0.437402,-0.218724,0.454125
23,30,-1.0472,-0.698132,-0.174533,-0.174533,-1.04071,-0.69032,-0.167242,-0.18967,-1.29673,-0.437402,-0.218724,0.454125
23,30,-1.0472,-0.698132,-0.174533,-0.174533,-1.04071,-0.69032,-0.167242,-0.18967,-1.29673,-0.437402,-0.218724,0.454125
23,30,-1.0472,-0.698132,-0.174533,-0.174533,-1.04071,-0.69032,-0.167242,-0.18967,-1.29673,-0.437402,-0.218724,0.454125
23,30,-1.0472,-0.698132,-0.174533,-0.174533,-1.04071,-0.69032,-0.167242,-0.18967,-1.29673,-0.437402,-0.218724,0.454125
23,30,-1.0472,-0.698132,-0.174533,-0.174533,-1.04071,-0.69032,-0.167242,-0.18967,-1.29673,-0.437402,-0.218724,0.454125
23,30,-1.0472,-0.698132,-0.174533,-0.174533,-1.04071,-0.69032,-0.167242,-0.18967,-1.29673,-0.437402,-0.218724,0.454125
23,30,-1.0472,-0.698132,-0.174533,-0.174533,-1.04071,-0.69032,-0.167242,-0.18967,-1.29673,-0.437402,-0.218724,0.454125
23,30,-1.0472,-0.698132,-0.174533,-0.174533,-1.04071,-0.69032,-0.167242,-0.18967,-1.29673,-0.437402,-0.218724,0.454125
23,30,-1.0472,-0.698132,-0.174533,-0.174533,-1.04071,-0.69032,-0.167242,-0.18967,-1.29673,-0.437402,-0.218724,0.454125
23,30,-1.0472,-0.698132,-0.174533,-0.174533,-1.04071,-0.69032,-0.167242,-0.18967,-1.29673,-0.437402,-0.218724,0.454125
23,30,-1.0472,-0.698132,-0.174533,-0.174533,-1.04071,-0.69032,-0.167242,-0.18967,-1.29673,-0.437402,-0.218724,0.454125
23,30,-1.0472,-0.698132,-0.174533,-0.174533,-1.04071,-0.69032,-0.167242,-0.18967,-1.29673,-0.437402,-0.218724,0.454125
23,30,-1.0472,-0.698132,-0.174533,-0.174533,-1.04071,-0.69032,-0.167242,-0.18967,-1.29673,-0.437402,-0.218724,0.454125
23,30,-1.0472,-0.698132,-0.174533,-0.174533,-1.04071,-0.69032,-0.167242,-0.18967,-1.29673,-0.437402,-0.218724,0.454125
23,30,-1.0472,-0.698132,-0.174533,-0.174533,-1.04071,-0.69032,-0.167242,-0.18967,-1.29673,-0.437402,-0.218724,0.454125
23,30,-1.0472,-0.698132,-0.174533,-0.174533,-1.04071,-0.69032,-0.167242,-0.18967,-1.29673,-0.437402,-0.218724,0.454125
23,30,-1.0472,-0.698132,-0.174533,-0.174533,-1.04071,-0.69032,-0.167242,-0.18967,-1.29673,-0.437402,-0.218724,0.454125
23,30,-1.0472,-0.698132,-0.174533,-0.174533,-1.04071,-0.69032,-0.167242,-0.18967,-1.29673,-0.437402,-0.218724,0.454125
23,30,-1.0472,-0.698132,-0.174533,-0.174533,-1.04071,-0.69032,-0.167242,-0.18967,-1.29673,-0.437402,-0.218724,0.454125
23,30,-1.0472,-0.698132,-0.174533,-0.174533,-1.04071,-0.69032,-0.167242,-0.18967,-1.29673,-0.437402,-0.218724,0.454125
23,30,-1.0472,-0.698132,-0.174533,-0.174533,-1.04071,-0.69032,-0.167242,-0.18967,-1.29673,-0.437402,-0.218724,0.454125
23,30,-1.0472,-0.698132,-0.174533,-0.174533,-1.04071,-0.69032,-0.167242,-0.18967,-1.29673,-0.437402,-0.218724,0.454125
23,30,-1.0472,-0.698132,-0.174533,-0.174533,-1.04071,-0.69032,-0.167242,-0.18967,-1.29673,-0.437402,-0.218724,0.454125
23,30,-1.0472,-0.698132,-0.174533,-0.174533,-1.04071,-0.69032,-0.167242,-0.18967,-1.29673,-0.437402,-0.218724,0.454125
23,30,-1.0472,-0.698132,-0.174533,-0.174533,-1.04071,-0.69032,-0.167242,-0.18967,-1.29673,-0.437402,-0.218724,0.454125
23,30,-1.0472,-0.698132,-0.174533,-0.174533,-1.04071,-0.69032,-0.167242,-0.18967,-1.29673,-0.437402,-0.218724,0.454125
23,30,-1.0472,-0.698132,-0.174533,-0.174533,-1.04071,-0.69032,-0.167242,-0.18967,-1.29673,-0.437402,-0.218724,0.454125
23,30,-1.0472,-0.698132,-0.174533,-0.174533,-1.04071,-0.69032,-0.167242,-0.18967,-1.29673,-0.437402,-0.218724,0.454125
23,30,-1.0472,-0.698132,-0.174533,-0.174533,-1.04071,-0.69032,-0.167242,-0.18967,-1.29673,-0.437402,-0.218724,0.454125
23,30,-1.0472,-0.698132,-0.174533,-0.174533,-1.04071,-0.69032,-0.167242,-0.18967,-1.29673,-0.437402,-0.218724,0.454125
23,30,-1.0472,-0.698132,-0.174533,-0.174533,-1.04071,-0.69032,-0.167242,-0.18967,-1.29673,-0.437402,-0.218724,0.454125
23,30,-1.0472,-0.698132,-0.174533,-0.174533,-1.04071,-0.69032,-0.167242,-0.18967,-1.29673,-0.437402,-0.218724,0.454125
23,30,-1.0472,-0.698132,-0.174533,-0.174533,-1.04071,-0.69032,-0.167242,-0.18967,-1.29673,-0.437402,-0.218724,0.454125
23,30,-1.0472,-0.698132,-0.174533,-0.174533,-1.04071,-0.69032,-0.167242,-0.18967,-1.29673,-0.437402,-0.218724,0.454125
23,30,-1.0472,-0.698132,-0.174533,-0.174533,-1.04071,-0.69032,-0.167242,-0.18967,-1.29673,-0.437402,-0.218724,0.454125
23,30,-1.0472,-0.698132,-0.174533,-0.174533,-1.04071,-0.69032,-0.167242,-0.18967,-1.29673,-0.437402,-0.218724,0.454125
23,30,-1.0472,-0.698132,-0.174533,-0.174533,-1.04071,-0.69032,-0.167242,-0.18967,-1.29673,-0.437402,-0.218724,0.454125
23,30,-1.0472,-0.698132,-0.174533,-0.174533,-1.04071,-0.69032,-0.167242,-0.18967,-1.29673,-0.437402,-0.218724,0.454125
23,30,-1.0472,-0.698132,-0.174533,-0.174533,-1.04071,-0.69032,-0.167242,-0.18967,-1.29673,-0.437402,-0.218724,0.454125
23,30,-1.0472,-0.698132,-0.174533,-0.174533,-1.04071,-0.69032,-0.167242,-0.18967,-1.29673,-0.437402,-0.218724,0.454125
23,30,-1.0472,-0.698132,-0.174533,-0.174533,-1.04071,-0.69032,-0.167242,-0.18967,-1.29673,-0.437402,-0.218724,0.454125
23,30,-1.0472,-0.698132,-0.174533,-0.174533,-1.04071,-0.69032,-0.167242,-0.18967,-1.29673,-0.437402,-0.218724,0.454125
23,30,-1.0472,-0.698132,-0.174533,-0.174533,-1.04071,-0.69032,-0.167242,-0.18967,-1.29673,-0.437402,-0.218724,0.454125
23,30,-1.0472,-0.698132,-0.174533,-0.174533,-1.04071,-0.69032,-0.167242,-0.18967,-1.29673,-0.437402,-0.218724,0.454125
23,30,-1.0472,-0.698132,-0.174533,-0.174533,-1.04071,-0.69032,-0.167242,-0.18967,-1.29673,-0.437402,-0.218724,0.454125
23,30,-1.0472,-0.698132,-0.174533,-0.174533,-1.04071,-0.69032,-0.167242,-0.18967,-1.29673,-0.437402,-0.218724,0.454125
23,30,-1.0472,-0.698132,-0.174533,-0.174533,-1.04071,-0.69032,-0.167242,-0.18967,-1.29673,-0.437402,-0.218724,0.454125
23,30,-1.0472,-0.698132,-0.174533,-0.174533,-1.04071,-0.69032,-0.167242,-0.18967,-1.29673,-0.437402,-0.218724,0.454125
23,30,-1.0472,-0.698132,-0.174533,-0.174533,-1.04071,-0.69032,-0.167242,-0.18967,-1.29673,-0.437402,-0.218724,0.454125
23,30,-1.0472,-0.698132,-0.174533,-0.174533,-1.04071,-0.69032,-0.167242,-0.18967,-1.29673,-0.437402,-0.218724,0.454125
23,30,-1.0472,-0.698132,-0.174533,-0.174533,-1.04071,-0.69032,-0.167242,-0.18967,-1.29673,-0.437402,-0.218724,0.454125
23,30,-1.0472,-0.698132,-0.174533,-0.174533,-1.04071,-0.69032,-0.167242,-0.18967,-1.29673,-0.437402,-0.218724,0.454125
23,30,-1.0472,-0.698132,-0.174533,-0.174533,-1.04071,-0.69032,-0.167242,-0.18967,-1.29673,-0.437402,-0.218724,0.454125
23,30,-1.0472,-0.698132,-0.174533,-0.174533,-1.04071,-0.69032,-0.167242,-0.18967,-1.29673,-0.437402,-0.218724,0.454125
23,30,-1.0472,-0.698132,-0.174533,-0.174533,-1.04071,-0.69032,-0.167242,-0.18967,-1.29673,-0.437402,-0.218724,0.454125
23,30,-1.0472,-0.698132,-0.174533,-0.174533,-1.04071,-0.69032,-0.167242,-0.18967,-1.29673,-0.437402,-0.218724,0.454125
23,30,-1.0472,-0.698132,-0.174533,-0.174533,-1.04071,-0.69032,-0.167242,-0.18967,-1.29673,-0.437402,-0.218724,0.454125
23,30,-1.0472,-0.698132,-0.174533,-0.174533,-1.04071,-0.69032,-0.167242,-0.18967,-1.29673,-0.437402,-0.218724,0.454125
23,30,-1.0472,-0.698132,-0.174533,-0.174533,-1.04071,-0.69032,-0.167242,-0.18967,-1.29673,-0.437402,-0.218724,0.454125
23,30,-1.0472,-0.698132,-0.174533,-0.174533,-1.04071,-0.69032,-0.167242,-0.18967,-1.29673,-0.437402,-0.218724,0.454125
23,30,-1.0472,-0.698132,-0.174533,-0.174533,-1.04071,-0.69032,-0.167242,-0.18967,-1.29673,-0.437402,-0.218724,0.454125
23,30,-1.0472,-0.698132,-0.174533,-0.174533,-1.04071,-0.69032,-0.167242,-0.18967,-1.29673,-0.437402,-0.218724,0.454125
23,30,-1.0472,-0.698132,-0.174533,-0.174533,-1.04071,-0.69032,-0.167242,-0.18967,-1.29673,-0.437402,-0.218724,0.454125
23,30,-1.0472,-0.698132,-0.174533,-0.174533,-1.04071,-0.69032,-0.167242,-0.18967,-1.29673,-0.437402,-0.218724,0.454125
23,30,-1.0472,-0.698132,-0.174533,-0.174533,-1.04071,-0.69032,-0.167242,-0.18967,-1.29673,-0.437402,-0.218724,0.454125
23,30,-1.0472,-0.698132,-0.174533,-0.174533,-1.04071,-0.69032,-0.167242,-0.18967,-1.29673,-0.437402,-0.218724,0.454125
23,30,-1.0472,-0.698132,-0.174533,-0.174533,-1.04071,-0.69032,-0.167242,-0.18967,-1.29673,-0.437402,-0.218724,0.454125
23,30,-1.0472,-0.698132,-0.174533,-0.174533,-1.04071,-0.69032,-0.167242,-0.18967,-1.29673,-0.437402,-0.218724,0.454125
23,30,-1.0472,-0.698132,-0.174533,-0.174533,-1.04071,-0.69032,-0.167242,-0.18967,-1.29673,-0.437402,-0.218724,0.454125
23,30,-1.0472,-0.698132,-0.174533,-0.174533,-1.04071,-0.69032,-0.167242,-0.18967,-1.29673,-0.437402,-0.218724,0.454125
23,30,-1.0472,-0.698132,-0.174533,-0.174533,-1.04071,-0.69032,-0.167242,-0.18967,-1.29673,-0.437402,-0.218724,0.454125
23,30,-1.0472,-0.698132,-0.174533,-0.174533,-1.04071,-0.69032,-0.167242,-0.18967,-1.29673,-0.437402,-0.218724,0.454125
23,30,-1.0472,-0.698132,-0.174533,-0.174533,-1.04071,-0.69032,-0.167242,-0.18967,-1.29673,-0.437402,-0.218724,0.454125
23,30,-1.0472,-0.698132,-0.174533,-0.174533,-1.04071,-0.69032,-0.167242,-0.18967,-1.29673,-0.437402,-0.218724,0.454125
23,30,-1.0472,-0.698132,-0.174533,-0.174533,-1.04071,-0.69032,-0.167242,-0.18967,-1.29673,-0.437402,-0.218724,0.454125
23,30,-1.0472,-0.698132,-0.174533,-0.174533,-1.04071,-0.69032,-0.167242,-0.18967,-1.29673,-0.437402,-0.218724,0.454125
23,30,-1.0472,-0.698132,-0.174533,-0.174533,-1.04071,-0.69032,-0.167242,-0.18967,-1.29673,-0.437402,-0.218724,0.454125
23,30,-1.0472,-0.698132,-0.174533,-0.174533,-1.04071,-0.69032,-0.167242,-0.18967,-1.29673,-0.437402,-0.218724,0.454125
23,30,-1.0472,-0.698132,-0.174533,-0.174533,-1.04071,-0.69032,-0.167242,-0.18967,-1.29673,-0.437402,-0.218724,0.454125
23,30,-1.0472,-0.698132,-0.174533,-0.174533,-1.04071,-0.69032,-0.167242,-0.18967,-1.29673,-0.437402,-0.218724,0.454125
23,30,-1.0472,-0.698132,-0.174533,-0.174533,-1.04071,-0.69032,-0.167242,-0.18967,-1.29673,-0.437402,-0.218724,0.454125
23,30,-1.0472,-0.698132,-0.174533,-0.174533,-1.04071,-0.69032,-0.167242,-0.18967,-1.29673,-0.437402,-0.218724,0.454125
23,30,-1.0472,-0.698132,-0.174533,-0.174533,-1.04071,-0.69032,-0.167242,-0.18967,-1.29673,-0.437402,-0.218724,0.454125
23,30,-1.0472,-0.698132,-0.174533,-0.174533,-1.04071,-0.69032,-0.167242,-0.18967,-1.29673,-0.437402,-0.218724,0.454125
23,30,-1.0472,-0.698132,-0.174533,-0.174533,-1.04071,-0.69032,-0.167242,-0.18967,-1.29673,-0.437402,-0.218724,0.454125
23,30,-1.0472,-0.698132,-0.174533,-0.174533,-1.04071,-0.69032,-0.167242,-0.18967,-1.29673,-0.437402,-0.218724,0.454125
23,30,-1.0472,-0.698132,-0.174533,-0.174533,-1.04071,-0.69032,-0.167242,-0.18967,-1.29673,-0.437402,-0.218724,0.454125
23,30,-1.0472,-0.698132,-0.174533,-0.174533,-1.04071,-0.69032,-0.167242,-0.18967,-1.29673,-0.437402,-0.218724,0.454125
23,30,-1.0472,-0.698132,-0.174533,-0.174533,-1.04071,-0.69032,-0.167242,-0.18967,-1.29673,-0.437402,-0.218724,0.454125
23,30,-1.0472,-0.698132,-0.174533,-0.174533,-1.04071,-0.69032,-0.167242,-0.18967,-1.29673,-0.437402,-0.218724,0.454125
23,30,-1.0472,-0.698132,-0.174533,-0.174533,-1.04071,-0.69032,-0.167242,-0.18967,-1.29673,-0.437402,-0.218724,0.454125
23,30,-1.0472,-0.698132,-0.174533,-0.174533,-1.04071,-0.69032,-0.167242,-0.18967,-1.29673,-0.437402,-0.218724,0.454125
23,30,-1.0472,-0.698132,-0.174533,-0.174533,-1.04071,-0.69032,-0.167242,-0.18967,-1.29673,-0.437402,-0.218724,0.454125
23,30,-1.0472,-0.698132,-0.174533,-0.174533,-1.04071,-0.69032,-0.167242,-0.18967,-1.29673,-0.437402,-0.218724,0.454125
23,30,-1.0472,-0.698132,-0.174533,-0.174533,-1.04071,-0.69032,-0.167242,-0.18967,-1.29673,-0.437402,-0.218724,0.454125
23,30,-1.0472,-0.698132,-0.174533,-0.174533,-1.04071,-0.69032,-0.167242,-0.18967,-1.29673,-0.437402,-0.218724,0.454125
23,30,-1.0472,-0.698132,-0.174533,-0.174533,-1.04071,-0.69032,-0.167242,-0.18967,-1.29673,-0.437402,-0.218724,0.454125
23,30,-1.0472,-0.698132,-0.174533,-0.174533,-1.04071,-0.69032,-0.167242,-0.18967,-1.29673,-0.437402,-0.218724,0.454125
23,30,-1.0472,-0.698132,-0.174533,-0.174533,-1.04071,-0.69032,-0.167242,-0.18967,-1.29673,-0.437402,-0.218724,0.454125
23,30,-1.0472,-0.698132,-0.174533,-0.174533,-1.04071,-0.69032,-0.167242,-0.18967,-1.29673,-0.437402,-0.218724,0.454125
23,30,-1.0472,-0.698132,-0.174533,-0.174533,-1.04071,-0.69032,-0.167242,-0.18967,-1.29673,-0.437402,-0.218724,0.454125
23,30,-1.0472,-0.698132,-0.174533,-0.174533,-1.04071,-0.69032,-0.167242,-0.18967,-1.29673,-0.437402,-0.218724,0.454125
23,30,-1.0472,-0.698132,-0.174533,-0.174533,-1.04071,-0.69032,-0.167242,-0.18967,-1.29673,-0.437402,-0.218724,0.454125
23,30,-1.0472,-0.698132,-0.174533,-0.174533,-1.04071,-0.69032,-0.167242,-0.18967,-1.29673,-0.437402,-0.218724,0.454125
23,30,-1.0472,-0.698132,-0.174533,-0.174533,-1.04071,-0.69032,-0.167242,-0.18967,-1.29673,-0.437402,-0.218724,0.454125
23,30,-1.0472,-0.698132,-0.174533,-0.174533,-1.04071,-0.69032,-0.167242,-0.18967,-1.29673,-0.437402,-0.218724,0.454125
23,30,-1.0472,-0.698132,-0.174533,-0.174533,-1.04071,-0.69032,-0.167242,-0.18967,-1.29673,-0.437402,-0.218724,0.454125
23,30,-1.0472,-0.698132,-0.174533,-0.174533,-1.04071,-0.69032,-0.167242,-0.18967,-1.29673,-0.437402,-0.218724,0.454125
23,30,-1.0472,-0.698132,-0.174533,-0.174533,-1.04071,-0.69032,-0.167242,-0.18967,-1.29673,-0.437402,-0.218724,0.454125
23,30,-1.0472,-0.698132,-0.174533,-0.174533,-1.04071,-0.69032,-0.167242,-0.18967,-1.29673,-0.437402,-0.218724,0.454125
23,30,-1.0472,-0.698132,-0.174533,-0.174533,-1.04071,-0.69032,-0.167242,-0.18967,-1.29673,-0.437402,-0.218724,0.454125
23,30,-1.0472,-0.698132,-0.174533,-0.174533,-1.04071,-0.69032,-0.167242,-0.18967,-1.29673,-0.437402,-0.218724,0.454125
23,30,-1.0472,-0.698132,-0.174533,-0.174533,-1.04071,-0.69032,-0.167242,-0.18967,-1.29673,-0.437402,-0.218724,0.454125
23,30,-1.0472,-0.698132,-0.174533,-0.174533,-1.04071,-0.69032,-0.167242,-0.18967,-1.29673,-0.437402,-0.218724,0.454125
23,30,-1.0472,-0.698132,-0.174533,-0.174533,-1.04071,-0.69032,-0.167242,-0.18967,-1.29673,-0.437402,-0.218724,0.454125
23,30,-1.0472,-0.698132,-0.174533,-0.174533,-1.04071,-0.69032,-0.167242,-0.18967,-1.29673,-0.437402,-0.218724,0.454125
23,30,-1.0472,-0.698132,-0.174533,-0.174533,-1.04071,-0.69032,-0.167242,-0.18967,-1.29673,-0.437402,-0.218724,0.454125
23,30,-1.0472,-0.698132,-0.174533,-0.174533,-1.04071,-0.69032,-0.167242,-0.18967,-1.29673,-0.437402,-0.218724,0.454125
23,30,-1.0472,-0.698132,-0.174533,-0.174533,-1.04071,-0.69032,-0.167242,-0.18967,-1.29673,-0.437402,-0.218724,0.454125
23,30,-1.0472,-0.698132,-0.174533,-0.174533,-1.04071,-0.69032,-0.167242,-0.18967,-1.29673,-0.437402,-0.218724,0.454125
23,30,-1.0472,-0.698132,-0.174533,-0.174533,-1.04071,-0.69032,-0.167242,-0.18967,-1.29673,-0.437402,-0.218724,0.454125
23,30,-1.0472,-0.698132,-0.174533,-0.174533,-1.04071,-0.69032,-0.167242,-0.18967,-1.29673,-0.437402,-0.218724,0.454125
23,30,-1.0472,-0.698132,-0.174533,-0.174533,-1.04071,-0.69032,-0.167242,-0.18967,-1.29673,-0.437402,-0.218724,0.454125
23,30,-1.0472,-0.698132,-0.174533,-0.174533,-1.04071,-0.69032,-0.167242,-0.18967,-1.29673,-0.437402,-0.218724,0.454125
23,30,-1.0472,-0.698132,-0.174533,-0.174533,-1.04071,-0.69032,-0.167242,-0.18967,-1.29673,-0.437402,-0.218724,0.454125
23,30,-1.0472,-0.698132,-0.174533,-0.174533,-1.04071,-0.69032,-0.167242,-0.18967,-1.29673,-0.437402,-0.218724,0.454125
23,30,-1.0472,-0.698132,-0.174533,-0.174533,-1.04071,-0.69032,-0.167242,-0.18967,-1.29673,-0.437402,-0.218724,0.454125
23,30,-1.0472,-0.698132,-0.174533,-0.174533,-1.04071,-0.69032,-0.167242,-0.18967,-1.29673,-0.437402,-0.218724,0.454125
23,30,-1.0472,-0.698132,-0.174533,-0.174533,-1.04071,-0.69032,-0.167242,-0.18967,-1.29673,-0.437402,-0.218724,0.454125
23,30,-1.0472,-0.698132,-0.174533,-0.174533,-1.04071,-0.69032,-0.167242,-0.18967,-1.29673,-0.437402,-0.218724,0.454125
23,30,-1.0472,-0.698132,-0.174533,-0.174533,-1.04071,-0.69032,-0.167242,-0.18967,-1.29673,-0.437402,-0.218724,0.454125
23,30,-1.0472,-0.698132,-0.174533,-0.174533,-1.04071,-0.69032,-0.167242,-0.18967,-1.29673,-0.437402,-0.218724,0.454125
23,30,-1.0472,-0.698132,-0.174533,-0.174533,-1.04071,-0.69032,-0.167242,-0.18967,-1.29673,-0.437402,-0.218724,0.454125
23,30,-1.0472,-0.698132,-0.174533,-0.174533,-1.04071,-0.69032,-0.167242,-0.18967,-1.29673,-0.437402,-0.218724,0.454125
23,30,-1.0472,-0.698132,-0.174533,-0.174533,-1.04071,-0.69032,-0.167242,-0.18967,-1.29673,-0.437402,-0.218724,0.454125
23,30,-1.0472,-0.698132,-0.174533,-0.174533,-1.04071,-0.69032,-0.167242,-0.18967,-1.29673,-0.437402,-0.218724,0.454125
23,30,-1.0472,-0.698132,-0.174533,-0.174533,-1.04071,-0.69032,-0.167242,-0.18967,-1.29673,-0.437402,-0.218724,0.454125
23,30,-1.0472,-0.698132,-0.174533,-0.174533,-1.04071,-0.69032,-0.167242,-0.18967,-1.29673,-0.437402,-0.218724,0.454125
23,30,-1.0472,-0.698132,-0.174533,-0.174533,-1.04071,-0.69032,-0.167242,-0.18967,-1.29673,-0.437402,-0.218724,0.454125
23,30,-1.0472,-0.698132,-0.174533,-0.174533,-1.04071,-0.69032,-0.167242,-0.18967,-1.29673,-0.437402,-0.218724,0.454125
23,30,-1.0472,-0.698132,-0.174533,-0.174533,-1.04071,-0.69032,-0.167242,-0.18967,-1.29673,-0.437402,-0.218724,0.454125
23,30,-1.0472,-0.698132,-0.174533,-0.174533,-1.04071,-0.69032,-0.167242,-0.18967,-1.29673,-0.437402,-0.218724,0.454125
23,30,-1.0472,-0.698132,-0.174533,-0.174533,-1.04071,-0.69032,-0.167242,-0.18967,-1.29673,-0.437402,-0.218724,0.454117
23,30,-1.0472,-0.698132,-0.174533,-0.174533,-1.04071,-0.69032,-0.167242,-0.18967,-1.29673,-0.437481,-0.218724,0.454117
23,30,-1.0472,-0.698132,-0.174533,-0.174533,-1.04071,-0.69032,-0.167242,-0.18967,-1.29673,-0.437481,-0.218724,0.454117
23,30,-1.0472,-0.698132,-0.174533,-0.174533,-1.04071,-0.69032,-0.167242,-0.18967,-1.29673,-0.437481,-0.218724,0.454117
23,30,-1.0472,-0.698132,-0.174533,-0.174533,-1.04071,-0.69032,-0.167242,-0.18967,-1.29673,-0.437481,-0.218724,0.454117
23,30,-1.0472,-0.698132,-0.174533,-0.174533,-1.04071,-0.69032,-0.167242,-0.18967,-1.29673,-0.437481,-0.218724,0.454117
23,30,-1.0472,-0.698132,-0.174533,-0.174533,-1.04071,-0.69032,-0.167242,-0.18967,-1.29673,-0.437481,-0.218724,0.454117
23,30,-1.0472,-0.698132,-0.174533,-0.174533,-1.04071,-0.69032,-0.167242,-0.18967,-1.29673,-0.437481,-0.218724,0.454117
23,30,-1.0472,-0.698132,-0.174533,-0.174533,-1.04071,-0.69032,-0.167242,-0.18967,-1.29673,-0.437481,-0.218724,0.454117
23,30,-1.0472,-0.698132,-0.174533,-0.174533,-1.04071,-0.69032,-0.167242,-0.18967,-1.29673,-0.437481,-0.218724,0.454117
23,30,-1.0472,-0.698132,-0.174533,-0.174533,-1.04071,-0.69032,-0.167242,-0.18967,-1.29673,-0.437481,-0.218724,0.454117
23,30,-1.0472,-0.698132,-0.174533,-0.174533,-1.04071,-0.69032,-0.167242,-0.18967,-1.29673,-0.437481,-0.218724,0.454117
23,30,-1.0472,-0.698132,-0.174533,-0.174533,-1.04071,-0.69032,-0.167242,-0.18967,-1.29673,-0.437481,-0.218724,0.454117
23,30,-1.0472,-0.698132,-0.174533,-0.174533,-1.04071,-0.69032,-0.167242,-0.18967,-1.29673,-0.437481,-0.218724,0.454117
23,30,-1.0472,-0.698132,-0.174533,-0.174533,-1.04071,-0.69032,-0.167242,-0.18967,-1.29673,-0.437481,-0.218724,0.454117
23,30,-1.0472,-0.698132,-0.174533,-0.174533,-1.04071,-0.69032,-0.167242,-0.18967,-1.29673,-0.437481,-0.218724,0.454117
23,30,-1.0472,-0.698132,-0.174533,-0.174533,-1.04071,-0.69032,-0.167242,-0.18967,-1.29673,-0.437481,-0.218724,0.454117
23,30,-1.0472,-0.698132,-0.174533,-0.174533,-1.04071,-0.69032,-0.167242,-0.18967,-1.29673,-0.437481,-0.218724,0.454117
23,30,-1.0472,-0.698132,-0.174533,-0.174533,-1.04071,-0.69032,-0.167242,-0.18967,-1.29673,-0.437481,-0.218724,0.454117
23,30,-1.0472,-0.698132,-0.174533,-0.174533,-1.04071,-0.69032,-0.167242,-0.18967,-1.29673,-0.437481,-0.218724,0.454117
23,30,-1.0472,-0.698132,-0.174533,-0.174533,-1.04071,-0.69032,-0.167242,-0.18967,-1.29673,-0.437481,-0.218724,0.454117
23,30,-1.0472,-0.698132,-0.174533,-0.174533,-1.04071,-0.69032,-0.167242,-0.18967,-1.29673,-0.437481,-0.218724,0.454117
23,30,-1.0472,-0.698132,-0.174533,-0.174533,-1.04071,-0.69032,-0.167242,-0.18967,-1.29673,-0.437481,-0.218724,0.454117
23,30,-1.0472,-0.698132,-0.174533,-0.174533,-1.04071,-0.69032,-0.167242,-0.18967,-1.29673,-0.437481,-0.218724,0.454117
23,30,-1.0472,-0.698132,-0.174533,-0.174533,-1.04071,-0.69032,-0.167242,-0.18967,-1.29673,-0.437481,-0.218724,0.454117
23,30,-1.0472,-0.698132,-0.174533,-0.174533,-1.04071,-0.69032,-0.167242,-0.18967,-1.29673,-0.437481,-0.218724,0.454117
23,30,-1.0472,-0.698132,-0.174533,-0.174533,-1.04071,-0.69032,-0.167242,-0.18967,-1.29673,-0.437481,-0.218724,0.454117
23,30,-1.0472,-0.698132,-0.174533,-0.174533,-1.04071,-0.69032,-0.167242,-0.18967,-1.29673,-0.437481,-0.218724,0.454117
23,30,-1.0472,-0.698132,-0.174533,-0.174533,-1.04071,-0.69032,-0.167242,-0.18967,-1.29673,-0.437481,-0.218724,0.454117
23,30,-1.0472,-0.698132,-0.174533,-0.174533,-1.04071,-0.69032,-0.167242,-0.18967,-1.29673,-0.437481,-0.218724,0.454117
23,30,-1.0472,-0.698132,-0.174533,-0.174533,-1.04071,-0.69032,-0.167242,-0.18967,-1.29673,-0.437481,-0.218724,0.454117
23,30,-1.0472,-0.698132,-0.174533,-0.174533,-1.04071,-0.69032,-0.167242,-0.18967,-1.29673,-0.437481,-0.218724,0.454117
23,30,-1.0472,-0.698132,-0.174533,-0.174533,-1.04071,-0.69032,-0.167242,-0.18967,-1.29673,-0.437481,-0.218724,0.454117
23,30,-1.0472,-0.698132,-0.174533,-0.174533,-1.04071,-0.69032,-0.167242,-0.18967,-1.29673,-0.437481,-0.218724,0.454117
23,30,-1.0472,-0.698132,-0.174533,-0.174533,-1.04071,-0.69032,-0.167242,-0.18967,-1.29673,-0.437481,-0.218724,0.454117
23,30,-1.0472,-0.698132,-0.174533,-0.174533,-1.04071,-0.69032,-0.167242,-0.18967,-1.29673,-0.437481,-0.218724,0.454117
23,30,-1.0472,-0.698132,-0.174533,-0.174533,-1.04071,-0.69032,-0.167242,-0.18967,-1.29673,-0.437481,-0.218724,0.454117
23,30,-1.0472,-0.698132,-0.174533,-0.174533,-1.04071,-0.69032,-0.167242,-0.18967,-1.29673,-0.437481,-0.218724,0.454117
23,30,-1.0472,-0.698132,-0.174533,-0.174533,-1.04071,-0.69032,-0.167242,-0.18967,-1.29673,-0.437481,-0.218724,0.454117
23,30,-1.0472,-0.698132,-0.174533,-0.174533,-1.04071,-0.69032,-0.167242,-0.18967,-1.29673,-0.437481,-0.218724,0.454117
23,30,-1.0472,-0.698132,-0.174533,-0.174533,-1.04071,-0.69032,-0.167242,-0.18967,-1.29673,-0.437481,-0.218724,0.454117
23,30,-1.0472,-0.698132,-0.174533,-0.174533,-1.04071,-0.69032,-0.167242,-0.18967,-1.29673,-0.437481,-0.218724,0.454117
23,30,-1.0472,-0.698132,-0.174533,-0.174533,-1.04071,-0.69032,-0.167242,-0.18967,-1.29673,-0.437481,-0.218724,0.454117
23,30,-1.0472,-0.698132,-0.174533,-0.174533,-1.04071,-0.69032,-0.167242,-0.18967,-1.29673,-0.437481,-0.218724,0.454117
23,30,-1.0472,-0.698132,-0.174533,-0.174533,-1.04071,-0.69032,-0.167242,-0.18967,-1.29673,-0.437481,-0.218724,0.454117
23,30,-1.0472,-0.698132,-0.174533,-0.174533,-1.04071,-0.69032,-0.167242,-0.18967,-1.29673,-0.437481,-0.218724,0.454117
23,30,-1.0472,-0.698132,-0.174533,-0.174533,-1.04071,-0.69032,-0.167242,-0.18967,-1.29673,-0.437481,-0.218724,0.454117
23,30,-1.0472,-0.698132,-0.174533,-0.174533,-1.04071,-0.69032,-0.167242,-0.18967,-1.29673,-0.437481,-0.218724,0.454117
23,30,-1.0472,-0.698132,-0.174533,-0.174533,-1.04071,-0.69032,-0.167242,-0.18967,-1.29673,-0.437481,-0.218727,0.454115
23,30,-1.0472,-0.698132,-0.174533,-0.174533,-1.04071,-0.69032,-0.167242,-0.18967,-1.29673,-0.437481,-0.218727,0.454115
23,30,-1.0472,-0.698132,-0.174533,-0.174533,-1.04071,-0.69032,-0.167242,-0.18967,-1.29673,-0.437481,-0.218727,0.454115
23,30,-1.0472,-0.698132,-0.174533,-0.174533,-1.04071,-0.69032,-0.167242,-0.18967,-1.29673,-0.437481,-0.218727,0.454115
23,30,-1.0472,-0.698132,-0.174533,-0.174533,-1.04071,-0.69032,-0.167242,-0.18967,-1.29673,-0.437481,-0.218727,0.454115
23,30,-1.0472,-0.698132,-0.174533,-0.174533,-1.04071,-0.69032,-0.167242,-0.18967,-1.29673,-0.437481,-0.218727,0.454115
23,30,-1.0472,-0.698132,-0.174533,-0.174533,-1.04071,-0.69032,-0.167242,-0.18967,-1.29673,-0.437481,-0.218727,0.454115
23,30,-1.0472,-0.698132,-0.174533,-0.174533,-1.04071,-0.69032,-0.167242,-0.18967,-1.29673,-0.437481,-0.218727,0.454115
23,30,-1.0472,-0.698132,-0.174533,-0.174533,-1.04071,-0.69032,-0.167242,-0.18967,-1.29673,-0.437481,-0.218727,0.454115
23,30,-1.0472,-0.698132,-0.174533,-0.174533,-1.04071,-0.69032,-0.167242,-0.18967,-1.29673,-0.437481,-0.218727,0.454115
23,30,-1.0472,-0.698132,-0.174533,-0.174533,-1.04071,-0.69032,-0.167242,-0.18967,-1.29673,-0.437481,-0.218727,0.454115
23,30,-1.0472,-0.698132,-0.174533,-0.174533,-1.04071,-0.69032,-0.167242,-0.18967,-1.29673,-0.437481,-0.218727,0.454115
23,30,-1.0472,-0.698132,-0.174533,-0.174533,-1.04071,-0.69032,-0.167242,-0.18967,-1.29673,-0.437481,-0.218727,0.454115
23,30,-1.0472,-0.698132,-0.174533,-0.174533,-1.04071,-0.69032,-0.167242,-0.18967,-1.29673,-0.437481,-0.218727,0.454115
23,30,-1.0472,-0.698132,-0.174533,-0.174533,-1.04071,-0.69032,-0.167242,-0.18967,-1.29673,-0.437481,-0.218727,0.454115
23,30,-1.0472,-0.698132,-0.174533,-0.174533,-1.04071,-0.69032,-0.167242,-0.18967,-1.29673,-0.437481,-0.218727,0.454115
23,30,-1.0472,-0.698132,-0.174533,-0.174533,-1.04071,-0.69032,-0.167242,-0.18967,-1.29673,-0.437481,-0.218727,0.454115
23,30,-1.0472,-0.698132,-0.174533,-0.174533,-1.04071,-0.69032,-0.167242,-0.18967,-1.29673,-0.437481,-0.218727,0.454115
23,30,-1.0472,-0.698132,-0.174533,-0.174533,-1.04071,-0.69032,-0.167242,-0.18967,-1.29673,-0.437481,-0.218727,0.454115
23,30,-1.0472,-0.698132,-0.174533,-0.174533,-1.04071,-0.69032,-0.167242,-0.18967,-1.29673,-0.437481,-0.218727,0.454115
23,30,-1.0472,-0.698132,-0.174533,-0.174533,-1.04071,-0.69032,-0.167242,-0.18967,-1.29673,-0.437481,-0.218727,0.454115
23,30,-1.0472,-0.698132,-0.174533,-0.174533,-1.04071,-0.69032,-0.167242,-0.18967,-1.29673,-0.437481,-0.218727,0.454115
23,30,-1.0472,-0.698132,-0.174533,-0.174533,-1.04071,-0.69032,-0.167242,-0.18967,-1.29673,-0.437481,-0.218727,0.454115
23,30,-1.0472,-0.698132,-0.174533,-0.174533,-1.04071,-0.69032,-0.167242,-0.18967,-1.29673,-0.437481,-0.218727,0.454115
23,30,-1.0472,-0.698132,-0.174533,-0.174533,-1.04071,-0.69032,-0.167242,-0.18967,-1.29673,-0.437481,-0.218727,0.454115
23,30,-1.0472,-0.698132,-0.174533,-0.174533,-1.04071,-0.69032,-0.167242,-0.18967,-1.29673,-0.437481,-0.218727,0.454115
23,30,-1.0472,-0.698132,-0.174533,-0.174533,-1.04071,-0.69032,-0.167242,-0.18967,-1.29673,-0.437481,-0.218727,0.454115
23,30,-1.0472,-0.698132,-0.174533,-0.174533,-1.04071,-0.69032,-0.167242,-0.18967,-1.29673,-0.437481,-0.218727,0.454115
23,30,-1.0472,-0.698132,-0.174533,-0.174533,-1.04071,-0.69032,-0.167242,-0.18967,-1.29673,-0.437481,-0.218727,0.454115
23,30,-1.0472,-0.698132,-0.174533,-0.174533,-1.04071,-0.69032,-0.167242,-0.18967,-1.29673,-0.437481,-0.218727,0.454115
23,30,-1.0472,-0.698132,-0.174533,-0.174533,-1.04071,-0.69032,-0.167242,-0.18967,-1.29673,-0.437481,-0.218727,0.454115
23,30,-1.0472,-0.698132,-0.174533,-0.174533,-1.04071,-0.69032,-0.167242,-0.18967,-1.29673,-0.437481,-0.218727,0.454115
23,30,-1.0472,-0.698132,-0.174533,-0.174533,-1.04071,-0.69032,-0.167242,-0.18967,-1.29673,-0.437481,-0.218727,0.454115
23,30,-1.0472,-0.698132,-0.174533,-0.174533,-1.04071,-0.69032,-0.167242,-0.18967,-1.29673,-0.437481,-0.218727,0.454115
23,30,-1.0472,-0.698132,-0.174533,-0.174533,-1.04071,-0.69032,-0.167242,-0.18967,-1.29673,-0.437481,-0.218727,0.454115
23,30,-1.0472,-0.698132,-0.174533,-0.174533,-1.04071,-0.69032,-0.167242,-0.18967,-1.29673,-0.437481,-0.218727,0.454115
23,30,-1.0472,-0.698132,-0.174533,-0.174533,-1.04071,-0.69032,-0.167242,-0.18967,-1.29673,-0.437481,-0.218727,0.454115
23,30,-1.0472,-0.698132,-0.174533,-0.174533,-1.04071,-0.69032,-0.167242,-0.18967,-1.29673,-0.437481,-0.218727,0.454115
23,30,-1.0472,-0.698132,-0.174533,-0.174533,-1.04071,-0.69032,-0.167242,-0.18967,-1.29673,-0.437481,-0.218727,0.454115
23,30,-1.0472,-0.698132,-0.174533,-0.174533,-1.04071,-0.69032,-0.167242,-0.18967,-1.29673,-0.437481,-0.218727,0.454115
23,30,-1.0472,-0.698132,-0.174533,-0.174533,-1.04071,-0.69032,-0.167242,-0.18967,-1.29673,-0.437481,-0.218727,0.454115
23,30,-1.0472,-0.698132,-0.174533,-0.174533,-1.04071,-0.69032,-0.167242,-0.18967,-1.29673,-0.437481,-0.218727,0.454115
23,30,-1.0472,-0.698132,-0.174533,-0.174533,-1.04071,-0.69032,-0.167242,-0.18967,-1.29673,-0.437481,-0.218727,0.454115
23,30,-1.0472,-0.698132,-0.174533,-0.174533,-1.04071,-0.69032,-0.167242,-0.18967,-1.29673,-0.437481,-0.218727,0.454115
23,30,-1.0472,-0.698132,-0.174533,-0.174533,-1.04071,-0.69032,-0.167245,-0.18973,-1.29673,-0.437481,-0.218636,0.455909
23,30,-1.0472,-0.698132,-0.174533,-0.174533,-1.04071,-0.69032,-0.167245,-0.18973,-1.29673,-0.437481,-0.218636,0.455909
23,30,-1.0472,-0.698132,-0.174533,-0.174533,-1.04071,-0.69032,-0.167245,-0.18973,-1.29673,-0.437481,-0.218636,0.455909
23,30,-1.0472,-0.698132,-0.174533,-0.174533,-1.04071,-0.69032,-0.167245,-0.18973,-1.29673,-0.437481,-0.218636,0.455909
23,30,-1.0472,-0.698132,-0.174533,-0.174533,-1.04071,-0.69032,-0.167245,-0.18973,-1.29673,-0.437481,-0.218636,0.455909
23,30,-1.0472,-0.698132,-0.174533,-0.174533,-1.04071,-0.69032,-0.167245,-0.18973,-1.29673,-0.437481,-0.218636,0.455909
23,30,-1.0472,-0.698132,-0.174533,-0.174533,-1.04071,-0.69032,-0.167245,-0.18973,-1.29673,-0.437481,-0.218636,0.455909
23,30,-1.0472,-0.698132,-0.174533,-0.174533,-1.04071,-0.69032,-0.167245,-0.18973,-1.29673,-0.437481,-0.218636,0.455909
23,30,-1.0472,-0.698132,-0.174533,-0.174533,-1.04071,-0.69032,-0.167245,-0.18973,-1.29673,-0.437481,-0.218636,0.455909
23,30,-1.0472,-0.698132,-0.174533,-0.174533,-1.04071,-0.69032,-0.167245,-0.18973,-1.29673,-0.437481,-0.218636,0.455909
23,30,-1.0472,-0.698132,-0.174533,-0.174533,-1.04071,-0.69032,-0.167245,-0.18973,-1.29673,-0.437481,-0.218636,0.455909
23,30,-1.0472,-0.698132,-0.174533,-0.174533,-1.04071,-0.69032,-0.167245,-0.18973,-1.29673,-0.437481,-0.218636,0.455909
23,30,-1.0472,-0.698132,-0.174533,-0.174533,-1.04071,-0.69032,-0.167245,-0.18973,-1.29673,-0.437481,-0.218636,0.455909
23,30,-1.0472,-0.698132,-0.174533,-0.174533,-1.04071,-0.69032,-0.167245,-0.18973,-1.29673,-0.437481,-0.218636,0.455909
23,30,-1.0472,-0.698132,-0.174533,-0.174533,-1.04071,-0.69032,-0.167245,-0.18973,-1.29673,-0.437481,-0.218636,0.455909
23,30,-1.0472,-0.698132,-0.174533,-0.174533,-1.04071,-0.69032,-0.167245,-0.18973,-1.29673,-0.437481,-0.218636,0.455909
23,30,-1.0472,-0.698132,-0.174533,-0.174533,-1.04071,-0.69032,-0.167245,-0.18973,-1.29673,-0.437481,-0.218636,0.455909
23,30,-1.0472,-0.698132,-0.174533,-0.174533,-1.04071,-0.69032,-0.167245,-0.18973,-1.29673,-0.437481,-0.218636,0.455909
23,30,-1.0472,-0.698132,-0.174533,-0.174533,-1.04071,-0.69032,-0.167245,-0.18973,-1.29673,-0.437481,-0.218636,0.455909
23,30,-1.0472,-0.698132,-0.174533,-0.174533,-1.04071,-0.69032,-0.167245,-0.18973,-1.29673,-0.437481,-0.218636,0.455909
23,30,-1.0472,-0.698132,-0.174533,-0.174533,-1.04071,-0.69032,-0.167245,-0.18973,-1.29673,-0.437481,-0.218636,0.455909
23,30,-1.0472,-0.698132,-0.174533,-0.174533,-1.04071,-0.69032,-0.167245,-0.18973,-1.29673,-0.437481,-0.218636,0.455909
23,30,-1.0472,-0.698132,-0.174533,-0.174533,-1.04071,-0.69032,-0.167245,-0.18973,-1.29673,-0.437481,-0.218636,0.455909
23,30,-1.0472,-0.698132,-0.174533,-0.174533,-1.04071,-0.69032,-0.167245,-0.18973,-1.29673,-0.437481,-0.218636,0.455909
23,30,-1.0472,-0.698132,-0.174533,-0.174533,-1.04071,-0.69032,-0.167245,-0.18973,-1.29673,-0.437481,-0.218636,0.455909
23,30,-1.0472,-0.698132,-0.174533,-0.174533,-1.04071,-0.69032,-0.167245,-0.18973,-1.29673,-0.437481,-0.218636,0.455909
23,30,-1.0472,-0.698132,-0.174533,-0.174533,-1.04071,-0.69032,-0.167245,-0.18973,-1.29673,-0.437481,-0.218636,0.455909
23,30,-1.0472,-0.698132,-0.174533,-0.174533,-1.04071,-0.69032,-0.167245,-0.18973,-1.29673,-0.437481,-0.218636,0.455909
23,30,-1.0472,-0.698132,-0.174533,-0.174533,-1.04071,-0.69032,-0.167245,-0.18973,-1.29673,-0.437481,-0.218636,0.455909
23,30,-1.0472,-0.698132,-0.174533,-0.174533,-1.04071,-0.69032,-0.167245,-0.18973,-1.29673,-0.437481,-0.218636,0.455909
23,30,-1.0472,-0.698132,-0.174533,-0.174533,-1.04071,-0.69032,-0.167245,-0.18973,-1.29673,-0.437481,-0.218636,0.455909
23,30,-1.0472,-0.698132,-0.174533,-0.174533,-1.04071,-0.69032,-0.167245,-0.18973,-1.29673,-0.437481,-0.218636,0.455909
23,30,-1.0472,-0.698132,-0.174533,-0.174533,-1.04071,-0.69032,-0.167245,-0.18973,-1.29673,-0.437481,-0.218636,0.455909
23,30,-1.0472,-0.698132,-0.174533,-0.174533,-1.04071,-0.69032,-0.167245,-0.18973,-1.29673,-0.437481,-0.218636,0.455909
23,30,-1.0472,-0.698132,-0.174533,-0.174533,-1.04071,-0.69032,-0.167245,-0.18973,-1.29673,-0.437481,-0.218636,0.455909
23,30,-1.0472,-0.698132,-0.174533,-0.174533,-1.04071,-0.69032,-0.167245,-0.18973,-1.29673,-0.437481,-0.218636,0.455909
23,30,-1.0472,-0.698132,-0.174533,-0.174533,-1.04071,-0.69032,-0.167245,-0.18973,-1.29673,-0.437481,-0.218636,0.455909
23,30,-1.0472,-0.698132,-0.174533,-0.174533,-1.04071,-0.69032,-0.167245,-0.18973,-1.29673,-0.437481,-0.218636,0.455909
23,30,-1.0472,-0.698132,-0.174533,-0.174533,-1.04071,-0.69032,-0.167245,-0.18973,-1.29673,-0.437481,-0.218636,0.455909
23,30,-1.0472,-0.698132,-0.174533,-0.174533,-1.04071,-0.69032,-0.167245,-0.18973,-1.29673,-0.437481,-0.218636,0.455909
23,30,-1.0472,-0.698132,-0.174533,-0.174533,-1.04071,-0.69032,-0.167245,-0.18973,-1.29673,-0.437481,-0.218636,0.455909
23,30,-1.0472,-0.698132,-0.174533,-0.174533,-1.04071,-0.69032,-0.167245,-0.18973,-1.29673,-0.437481,-0.218636,0.455909
23,30,-1.0472,-0.698132,-0.174533,-0.174533,-1.04071,-0.69032,-0.167245,-0.18973,-1.29673,-0.437481,-0.218636,0.455909
23,30,-1.0472,-0.698132,-0.174533,-0.174533,-1.04071,-0.69032,-0.167245,-0.18973,-1.29673,-0.437481,-0.218636,0.455909
23,30,-1.0472,-0.698132,-0.174533,-0.174533,-1.04071,-0.69032,-0.167245,-0.18973,-1.29673,-0.437481,-0.218636,0.455909
23,30,-1.0472,-0.698132,-0.174533,-0.174533,-1.04071,-0.69032,-0.167245,-0.18973,-1.29673,-0.437481,-0.218636,0.455909
23,30,-1.0472,-0.698132,-0.174533,-0.174533,-1.04071,-0.69032,-0.167245,-0.18973,-1.29673,-0.437481,-0.218636,0.455909
23,30,-1.0472,-0.698132,-0.174533,-0.174533,-1.04071,-0.69032,-0.167245,-0.18973,-1.29673,-0.437481,-0.218636,0.455909
23,30,-1.0472,-0.698132,-0.174533,-0.174533,-1.04071,-0.69032,-0.167245,-0.18973,-1.29673,-0.437481,-0.218636,0.455909
23,30,-1.0472,-0.698132,-0.174533,-0.174533,-1.04071,-0.69032,-0.167245,-0.18973,-1.29673,-0.437481,-0.218636,0.455909
23,30,-1.0472,-0.698132,-0.174533,-0.174533,-1.04071,-0.69032,-0.167245,-0.18973,-1.29673,-0.437481,-0.218636,0.455909
23,30,-1.0472,-0.698132,-0.174533,-0.174533,-1.04071,-0.69032,-0.167245,-0.18973,-1.29673,-0.437481,-0.218636,0.455909
23,30,-1.0472,-0.698132,-0.174533,-0.174533,-1.04071,-0.69032,-0.167245,-0.18973,-1.29673,-0.437481,-0.218636,0.455909
23,30,-1.0472,-0.698132,-0.174533,-0.174533,-1.04071,-0.69032,-0.167245,-0.18973,-1.29673,-0.437481,-0.218636,0.455909
23,30,-1.0472,-0.698132,-0.174533,-0.174533,-1.04071,-0.69032,-0.167245,-0.18973,-1.29673,-0.437481,-0.218636,0.455909
23,30,-1.0472,-0.698132,-0.174533,-0.174533,-1.04071,-0.69032,-0.167245,-0.18973,-1.29673,-0.437481,-0.218636,0.455909
23,30,-1.0472,-0.698132,-0.174533,-0.174533,-1.04071,-0.69032,-0.167245,-0.18973,-1.29673,-0.437481,-0.218636,0.455909
23,30,-1.0472,-0.698132,-0.174533,-0.174533,-1.04071,-0.69032,-0.167245,-0.18973,-1.29673,-0.437481,-0.218636,0.455909
23,30,-1.0472,-0.698132,-0.174533,-0.174533,-1.04071,-0.69032,-0.167245,-0.18973,-1.29673,-0.437481,-0.218636,0.455909
23,30,-1.0472,-0.698132,-0.174533,-0.174533,-1.04071,-0.69032,-0.167245,-0.18973,-1.29673,-0.437481,-0.218636,0.455909
23,30,-1.0472,-0.698132,-0.174533,-0.174533,-1.04071,-0.69032,-0.167245,-0.18973,-1.29673,-0.437481,-0.218636,0.455909
23,30,-1.0472,-0.698132,-0.174533,-0.174533,-1.04071,-0.69032,-0.167245,-0.18973,-1.29673,-0.437481,-0.218636,0.455909
23,30,-1.0472,-0.698132,-0.174533,-0.174533,-1.04071,-0.69032,-0.167245,-0.18973,-1.29673,-0.437481,-0.218636,0.455909
23,30,-1.0472,-0.698132,-0.174533,-0.174533,-1.04071,-0.69032,-0.167245,-0.18973,-1.29673,-0.437481,-0.218636,0.455909
23,30,-1.0472,-0.698132,-0.174533,-0.174533,-1.04071,-0.69032,-0.167245,-0.18973,-1.29673,-0.437481,-0.218636,0.455909
23,30,-1.0472,-0.698132,-0.174533,-0.174533,-1.04071,-0.69032,-0.167245,-0.18973,-1.29673,-0.437481,-0.218636,0.455909
23,30,-1.0472,-0.698132,-0.174533,-0.174533,-1.04071,-0.69032,-0.167245,-0.18973,-1.29673,-0.437481,-0.218636,0.455909
23,30,-1.0472,-0.698132,-0.174533,-0.174533,-1.04071,-0.69032,-0.167245,-0.18973,-1.29673,-0.437481,-0.218636,0.455909
23,30,-1.0472,-0.698132,-0.174533,-0.174533,-1.04071,-0.69032,-0.167245,-0.18973,-1.29673,-0.437481,-0.218636,0.455909
23,30,-1.0472,-0.698132,-0.174533,-0.174533,-1.04071,-0.69032,-0.167245,-0.18973,-1.29673,-0.437481,-0.218636,0.455909
23,30,-1.0472,-0.698132,-0.174533,-0.174533,-1.04071,-0.69032,-0.167245,-0.18973,-1.29673,-0.437481,-0.218636,0.455909
23,30,-1.0472,-0.698132,-0.174533,-0.174533,-1.04071,-0.69032,-0.167245,-0.18973,-1.29673,-0.437481,-0.218636,0.455909
23,30,-1.0472,-0.698132,-0.174533,-0.174533,-1.04071,-0.69032,-0.167245,-0.18973,-1.29673,-0.437481,-0.218636,0.455909
23,30,-1.0472,-0.698132,-0.174533,-0.174533,-1.04071,-0.69032,-0.167245,-0.18973,-1.29673,-0.437481,-0.218636,0.455909
23,30,-1.0472,-0.698132,-0.174533,-0.174533,-1.04071,-0.69032,-0.167245,-0.18973,-1.29673,-0.437481,-0.218636,0.455909
23,30,-1.0472,-0.698132,-0.174533,-0.174533,-1.04071,-0.69032,-0.167245,-0.18973,-1.29673,-0.437481,-0.218636,0.455909
23,30,-1.0472,-0.698132,-0.174533,-0.174533,-1.04071,-0.69032,-0.167245,-0.18973,-1.29673,-0.437481,-0.218636,0.455909
23,30,-1.0472,-0.698132,-0.174533,-0.174533,-1.04071,-0.69032,-0.167245,-0.18973,-1.29673,-0.437481,-0.218636,0.455909
23,30,-1.0472,-0.698132,-0.174533,-0.174533,-1.04071,-0.69032,-0.167245,-0.18973,-1.29673,-0.437481,-0.218636,0.455909
23,30,-1.0472,-0.698132,-0.174533,-0.174533,-1.04071,-0.69032,-0.167245,-0.18973,-1.29673,-0.437481,-0.218636,0.455909
23,30,-1.0472,-0.698132,-0.174533,-0.174533,-1.04071,-0.69032,-0.167245,-0.18973,-1.29673,-0.437481,-0.218636,0.455909
23,30,-1.0472,-0.698132,-0.174533,-0.174533,-1.04071,-0.69032,-0.167245,-0.18973,-1.29673,-0.437481,-0.218636,0.455909
23,30,-1.0472,-0.698132,-0.174533,-0.174533,-1.04071,-0.69032,-0.167245,-0.18973,-1.29673,-0.437481,-0.218636,0.455909
23,30,-1.0472,-0.698132,-0.174533,-0.174533,-1.04071,-0.69032,-0.167245,-0.18973,-1.29673,-0.437481,-0.218636,0.455909
23,30,-1.0472,-0.698132,-0.174533,-0.174533,-1.04071,-0.69032,-0.167245,-0.18973,-1.29673,-0.437481,-0.218636,0.455909
23,30,-1.0472,-0.698132,-0.174533,-0.174533,-1.04071,-0.69032,-0.167245,-0.18973,-1.29673,-0.437481,-0.218636,0.455909
23,30,-1.0472,-0.698132,-0.174533,-0.174533,-1.04071,-0.69032,-0.167245,-0.18973,-1.29673,-0.437481,-0.218636,0.455909
23,30,-1.0472,-0.698132,-0.174533,-0.174533,-1.04071,-0.69032,-0.167245,-0.18973,-1.29673,-0.437481,-0.218636,0.455909
23,30,-1.0472,-0.698132,-0.174533,-0.174533,-1.04071,-0.69032,-0.167245,-0.18973,-1.29673,-0.437481,-0.218636,0.455909
23,30,-1.0472,-0.698132,-0.174533,-0.174533,-1.04071,-0.69032,-0.167245,-0.18973,-1.29673,-0.437481,-0.218636,0.455909
23,30,-1.0472,-0.698132,-0.174533,-0.174533,-1.04071,-0.69032,-0.167245,-0.18973,-1.29673,-0.437481,-0.218636,0.455909
23,30,-1.0472,-0.698132,-0.174533,-0.174533,-1.04071,-0.69032,-0.167245,-0.18973,-1.29673,-0.437481,-0.218636,0.455909
23,30,-1.0472,-0.698132,-0.174533,-0.174533,-1.04071,-0.69032,-0.167245,-0.18973,-1.29673,-0.437481,-0.218636,0.455909
23,30,-1.0472,-0.698132,-0.174533,-0.174533,-1.04071,-0.69032,-0.167245,-0.18973,-1.29673,-0.437481,-0.218636,0.455909
23,30,-1.0472,-0.698132,-0.174533,-0.174533,-1.04071,-0.69032,-0.167245,-0.18973,-1.29673,-0.437481,-0.218636,0.455909
23,30,-1.0472,-0.698132,-0.174533,-0.174533,-1.04071,-0.69032,-0.167245,-0.18973,-1.29673,-0.437481,-0.218636,0.455909
23,30,-1.0472,-0.698132,-0.174533,-0.174533,-1.04071,-0.69032,-0.167245,-0.18973,-1.29673,-0.437481,-0.218636,0.455909
23,30,-1.0472,-0.698132,-0.174533,-0.174533,-1.04071,-0.69032,-0.167245,-0.18973,-1.29673,-0.437481,-0.218636,0.455909
23,30,-1.0472,-0.698132,-0.174533,-0.174533,-1.04071,-0.69032,-0.167245,-0.18973,-1.29673,-0.437481,-0.218636,0.455909
23,30,-1.0472,-0.698132,-0.174533,-0.174533,-1.04071,-0.69032,-0.167245,-0.18973,-1.29673,-0.437481,-0.218636,0.455909
23,30,-1.0472,-0.698132,-0.174533,-0.174533,-1.04071,-0.69032,-0.167245,-0.18973,-1.29673,-0.437481,-0.218636,0.455909
23,30,-1.0472,-0.698132,-0.174533,-0.174533,-1.04071,-0.69032,-0.167245,-0.18973,-1.29673,-0.437481,-0.218636,0.455909
23,30,-1.0472,-0.698132,-0.174533,-0.174533,-1.04071,-0.69032,-0.167245,-0.18973,-1.29673,-0.437481,-0.218636,0.455909
23,30,-1.0472,-0.698132,-0.174533,-0.174533,-1.04071,-0.69032,-0.167245,-0.18973,-1.29673,-0.437481,-0.218636,0.455909
23,30,-1.0472,-0.698132,-0.174533,-0.174533,-1.04071,-0.69032,-0.167245,-0.18973,-1.29673,-0.437481,-0.218636,0.455909
23,30,-1.0472,-0.698132,-0.174533,-0.174533,-1.04071,-0.69032,-0.167245,-0.18973,-1.29673,-0.437481,-0.218636,0.455909
23,30,-1.0472,-0.698132,-0.174533,-0.174533,-1.04071,-0.69032,-0.167245,-0.18973,-1.29673,-0.437481,-0.218636,0.455909
23,30,-1.0472,-0.698132,-0.174533,-0.174533,-1.04071,-0.69032,-0.167245,-0.18973,-1.29673,-0.437481,-0.218636,0.455909
23,30,-1.0472,-0.698132,-0.174533,-0.174533,-1.04071,-0.69032,-0.167245,-0.18973,-1.29673,-0.437481,-0.218636,0.455909
23,30,-1.0472,-0.698132,-0.174533,-0.174533,-1.04071,-0.69032,-0.167245,-0.18973,-1.29673,-0.437481,-0.218636,0.455909
23,30,-1.0472,-0.698132,-0.174533,-0.174533,-1.04071,-0.69032,-0.167245,-0.18973,-1.29673,-0.437481,-0.218636,0.455909
23,30,-1.0472,-0.698132,-0.174533,-0.174533,-1.04071,-0.69032,-0.167245,-0.18973,-1.29673,-0.437481,-0.218636,0.455909
23,30,-1.0472,-0.698132,-0.174533,-0.174533,-1.04071,-0.69032,-0.167245,-0.18973,-1.29673,-0.437481,-0.218636,0.455909
23,30,-1.0472,-0.698132,-0.174533,-0.174533,-1.04071,-0.69032,-0.167245,-0.18973,-1.29673,-0.437481,-0.218636,0.455909
23,30,-1.0472,-0.698132,-0.174533,-0.174533,-1.04071,-0.69032,-0.167245,-0.18973,-1.29673,-0.437481,-0.218636,0.455909
23,30,-1.0472,-0.698132,-0.174533,-0.174533,-1.04071,-0.69032,-0.167245,-0.18973,-1.29673,-0.437481,-0.218636,0.455909
23,30,-1.0472,-0.698132,-0.174533,-0.174533,-1.04071,-0.69032,-0.167245,-0.18973,-1.29673,-0.437481,-0.218636,0.455909
23,30,-1.0472,-0.698132,-0.174533,-0.174533,-1.04071,-0.69032,-0.167245,-0.18973,-1.29673,-0.437481,-0.218636,0.455909
23,30,-1.0472,-0.698132,-0.174533,-0.174533,-1.04071,-0.69032,-0.167245,-0.18973,-1.29673,-0.437481,-0.218636,0.455909
23,30,-1.0472,-0.698132,-0.174533,-0.174533,-1.04071,-0.69032,-0.167245,-0.18973,-1.29673,-0.437481,-0.218636,0.455909
23,30,-1.0472,-0.698132,-0.174533,-0.174533,-1.04071,-0.69032,-0.167245,-0.18973,-1.29673,-0.437481,-0.218636,0.455909
23,30,-1.0472,-0.698132,-0.174533,-0.174533,-1.04071,-0.69032,-0.167245,-0.18973,-1.29673,-0.437481,-0.218636,0.455909
23,30,-1.0472,-0.698132,-0.174533,-0.174533,-1.04071,-0.69032,-0.167245,-0.18973,-1.29673,-0.437481,-0.218636,0.455909
23,30,-1.0472,-0.698132,-0.174533,-0.174533,-1.04071,-0.69032,-0.167245,-0.18973,-1.29673,-0.437481,-0.218636,0.455909
23,30,-1.0472,-0.698132,-0.174533,-0.174533,-1.04071,-0.69032,-0.167245,-0.18973,-1.29673,-0.437481,-0.218636,0.455909
23,30,-1.0472,-0.698132,-0.174533,-0.174533,-1.04071,-0.69032,-0.167245,-0.18973,-1.29673,-0.437481,-0.218636,0.455909
23,30,-1.0472,-0.698132,-0.174533,-0.174533,-1.04071,-0.69032,-0.167245,-0.18973,-1.29673,-0.437481,-0.218636,0.455909
23,30,-1.0472,-0.698132,-0.174533,-0.174533,-1.04071,-0.69032,-0.167245,-0.18973,-1.29673,-0.437481,-0.218636,0.455909
23,30,-1.0472,-0.698132,-0.174533,-0.174533,-1.04071,-0.69032,-0.167245,-0.18973,-1.29673,-0.437481,-0.218636,0.455909
23,30,-1.0472,-0.698132,-0.174533,-0.174533,-1.04071,-0.69032,-0.167245,-0.18973,-1.29673,-0.437481,-0.218636,0.455909
23,30,-1.0472,-0.698132,-0.174533,-0.174533,-1.04071,-0.69032,-0.167245,-0.18973,-1.29673,-0.437481,-0.218636,0.455909
23,30,-1.0472,-0.698132,-0.174533,-0.174533,-1.04071,-0.69032,-0.167245,-0.18973,-1.29673,-0.437481,-0.218636,0.455909
23,30,-1.0472,-0.698132,-0.174533,-0.174533,-1.04071,-0.69032,-0.167245,-0.18973,-1.29673,-0.437481,-0.218636,0.455909
23,30,-1.0472,-0.698132,-0.174533,-0.174533,-1.04071,-0.69032,-0.167245,-0.18973,-1.29673,-0.437481,-0.218636,0.455909
23,30,-1.0472,-0.698132,-0.174533,-0.174533,-1.04071,-0.69032,-0.167245,-0.18973,-1.29673,-0.437481,-0.218636,0.455909
23,30,-1.0472,-0.698132,-0.174533,-0.174533,-1.04071,-0.69032,-0.167245,-0.18973,-1.29673,-0.437481,-0.218636,0.455909
23,30,-1.0472,-0.698132,-0.174533,-0.174533,-1.04071,-0.69032,-0.167245,-0.18973,-1.29673,-0.437481,-0.218636,0.455909
23,30,-1.0472,-0.698132,-0.174533,-0.174533,-1.04071,-0.69032,-0.167245,-0.18973,-1.29673,-0.437481,-0.218636,0.455909
23,30,-1.0472,-0.698132,-0.174533,-0.174533,-1.04071,-0.69032,-0.167245,-0.18973,-1.29673,-0.437481,-0.218636,0.455909
23,30,-1.0472,-0.698132,-0.174533,-0.174533,-1.04071,-0.69032,-0.167245,-0.18973,-1.29673,-0.437481,-0.218636,0.455909
23,30,-1.0472,-0.698132,-0.174533,-0.174533,-1.04071,-0.69032,-0.167245,-0.18973,-1.29673,-0.437481,-0.218636,0.455909
23,30,-1.0472,-0.698132,-0.174533,-0.174533,-1.04071,-0.69032,-0.167245,-0.18973,-1.29673,-0.437481,-0.218636,0.455909
23,30,-1.0472,-0.698132,-0.174533,-0.174533,-1.04071,-0.69032,-0.167245,-0.18973,-1.29673,-0.437481,-0.218636,0.455909
23,30,-1.0472,-0.698132,-0.174533,-0.174533,-1.04071,-0.69032,-0.167245,-0.18973,-1.29673,-0.437481,-0.218636,0.455909
23,30,-1.0472,-0.698132,-0.174533,-0.174533,-1.04071,-0.69032,-0.167245,-0.18973,-1.29673,-0.437481,-0.218636,0.455909
23,30,-1.0472,-0.698132,-0.174533,-0.174533,-1.04071,-0.69032,-0.167245,-0.18973,-1.29673,-0.437481,-0.218636,0.455909
23,30,-1.0472,-0.698132,-0.174533,-0.174533,-1.04071,-0.69032,-0.167245,-0.18973,-1.29673,-0.437481,-0.218636,0.455909
23,30,-1.0472,-0.698132,-0.174533,-0.174533,-1.04071,-0.69032,-0.167245,-0.18973,-1.29673,-0.437481,-0.218636,0.455909
23,30,-1.0472,-0.698132,-0.174533,-0.174533,-1.04071,-0.69032,-0.167245,-0.18973,-1.29673,-0.437481,-0.218636,0.455909
23,30,-1.0472,-0.698132,-0.174533,-0.174533,-1.04071,-0.69032,-0.167245,-0.18973,-1.29673,-0.437481,-0.218636,0.455909
23,30,-1.0472,-0.698132,-0.174533,-0.174533,-1.04071,-0.69032,-0.167245,-0.18973,-1.29673,-0.437481,-0.218636,0.455909
23,30,-1.0472,-0.698132,-0.174533,-0.174533,-1.04071,-0.69032,-0.167245,-0.18973,-1.29673,-0.437481,-0.218636,0.455909
23,30,-1.0472,-0.698132,-0.174533,-0.174533,-1.04071,-0.69032,-0.167245,-0.18973,-1.29673,-0.437481,-0.218636,0.455909
23,30,-1.0472,-0.698132,-0.174533,-0.174533,-1.04071,-0.69032,-0.167245,-0.18973,-1.29673,-0.437481,-0.218636,0.455909
23,30,-1.0472,-0.698132,-0.174533,-0.174533,-1.04071,-0.69032,-0.167245,-0.18973,-1.29673,-0.437481,-0.218636,0.455909
23,30,-1.0472,-0.698132,-0.174533,-0.174533,-1.04071,-0.69032,-0.167245,-0.18973,-1.29673,-0.437481,-0.218636,0.455909
23,30,-1.0472,-0.698132,-0.174533,-0.174533,-1.04071,-0.69032,-0.167245,-0.18973,-1.29673,-0.437481,-0.218636,0.455909
23,30,-1.0472,-0.698132,-0.174533,-0.174533,-1.04071,-0.69032,-0.167245,-0.18973,-1.29673,-0.437481,-0.218636,0.455909
23,30,-1.0472,-0.698132,-0.174533,-0.174533,-1.04071,-0.69032,-0.167245,-0.18973,-1.29673,-0.437481,-0.218636,0.455909
23,30,-1.0472,-0.698132,-0.174533,-0.174533,-1.04071,-0.69032,-0.167245,-0.18973,-1.29673,-0.437481,-0.218636,0.455909
23,30,-1.0472,-0.698132,-0.174533,-0.174533,-1.04071,-0.69032,-0.167245,-0.18973,-1.29673,-0.437481,-0.218636,0.455909
23,30,-1.0472,-0.698132,-0.174533,-0.174533,-1.04071,-0.69032,-0.167245,-0.18973,-1.29673,-0.437481,-0.218636,0.455909
23,30,-1.0472,-0.698132,-0.174533,-0.174533,-1.04071,-0.69032,-0.167245,-0.18973,-1.29673,-0.437481,-0.218636,0.455909
23,30,-1.0472,-0.698132,-0.174533,-0.174533,-1.04071,-0.69032,-0.167245,-0.18973,-1.29673,-0.437481,-0.218636,0.455909
23,30,-1.0472,-0.698132,-0.174533,-0.174533,-1.04071,-0.69032,-0.167245,-0.18973,-1.29673,-0.437481,-0.218636,0.455909
23,30,-1.0472,-0.698132,-0.174533,-0.174533,-1.04071,-0.69032,-0.167245,-0.18973,-1.29673,-0.437481,-0.218636,0.455909
23,30,-1.0472,-0.698132,-0.174533,-0.174533,-1.04071,-0.69032,-0.167245,-0.18973,-1.29673,-0.437481,-0.218636,0.455909
23,30,-1.0472,-0.698132,-0.174533,-0.174533,-1.04071,-0.69032,-0.167245,-0.18973,-1.29673,-0.437481,-0.218636,0.455909
23,30,-1.0472,-0.698132,-0.174533,-0.174533,-1.04071,-0.69032,-0.167245,-0.18973,-1.29673,-0.437481,-0.218636,0.455909
23,30,-1.0472,-0.698132,-0.174533,-0.174533,-1.04071,-0.69032,-0.167245,-0.18973,-1.29673,-0.437481,-0.218636,0.455909
23,30,-1.0472,-0.698132,-0.174533,-0.174533,-1.04071,-0.69032,-0.167245,-0.18973,-1.29673,-0.437481,-0.218636,0.455909
23,30,-1.0472,-0.698132,-0.174533,-0.174533,-1.04071,-0.69032,-0.167245,-0.18973,-1.29673,-0.437481,-0.218636,0.455909
23,30,-1.0472,-0.698132,-0.174533,-0.174533,-1.04071,-0.69032,-0.167245,-0.18973,-1.29673,-0.437481,-0.218636,0.455909
23,30,-1.0472,-0.698132,-0.174533,-0.174533,-1.04071,-0.69032,-0.167245,-0.18973,-1.29673,-0.437481,-0.218636,0.455909
23,30,-1.0472,-0.698132,-0.174533,-0.174533,-1.04071,-0.69032,-0.167245,-0.18973,-1.29673,-0.437481,-0.218636,0.455909
23,30,-1.0472,-0.698132,-0.174533,-0.174533,-1.04071,-0.69032,-0.167245,-0.18973,-1.29673,-0.437481,-0.218636,0.455909
23,30,-1.0472,-0.698132,-0.174533,-0.174533,-1.04071,-0.69032,-0.167245,-0.18973,-1.29673,-0.437481,-0.218636,0.455909
23,30,-1.0472,-0.698132,-0.174533,-0.174533,-1.04071,-0.69032,-0.167245,-0.18973,-1.29673,-0.437481,-0.218636,0.455909
23,30,-1.0472,-0.698132,-0.174533,-0.174533,-1.04071,-0.69032,-0.167245,-0.18973,-1.29673,-0.437481,-0.218636,0.455909
23,30,-1.0472,-0.698132,-0.174533,-0.174533,-1.04071,-0.69032,-0.167245,-0.18973,-1.29673,-0.437481,-0.218636,0.455909
23,30,-1.0472,-0.698132,-0.174533,-0.174533,-1.04071,-0.69032,-0.167245,-0.18973,-1.29673,-0.437481,-0.218636,0.455909
23,30,-1.0472,-0.698132,-0.174533,-0.174533,-1.04071,-0.69032,-0.167245,-0.18973,-1.29673,-0.437481,-0.218636,0.455909
23,30,-1.0472,-0.698132,-0.174533,-0.174533,-1.04071,-0.69032,-0.167245,-0.18973,-1.29673,-0.437481,-0.218636,0.455909
23,30,-1.0472,-0.698132,-0.174533,-0.174533,-1.04071,-0.69032,-0.167245,-0.18973,-1.29673,-0.437481,-0.218636,0.455909
23,30,-1.0472,-0.698132,-0.174533,-0.174533,-1.04071,-0.69032,-0.167245,-0.18973,-1.29673,-0.437481,-0.218636,0.455909
23,30,-1.0472,-0.698132,-0.174533,-0.174533,-1.04071,-0.69032,-0.167245,-0.18973,-1.29673,-0.437481,-0.218636,0.455909
23,30,-1.0472,-0.698132,-0.174533,-0.174533,-1.04071,-0.69032,-0.167245,-0.18973,-1.29673,-0.437481,-0.218636,0.455909
23,30,-1.0472,-0.698132,-0.174533,-0.174533,-1.04071,-0.69032,-0.167245,-0.18973,-1.29673,-0.437481,-0.218636,0.455909
23,30,-1.0472,-0.698132,-0.174533,-0.174533,-1.04071,-0.69032,-0.167245,-0.18973,-1.29673,-0.437481,-0.218636,0.455909
23,30,-1.0472,-0.698132,-0.174533,-0.174533,-1.04071,-0.69032,-0.167245,-0.18973,-1.29673,-0.437481,-0.218636,0.455909
23,30,-1.0472,-0.698132,-0.174533,-0.174533,-1.04071,-0.69032,-0.167245,-0.18973,-1.29673,-0.437481,-0.218636,0.455909
23,30,-1.0472,-0.698132,-0.174533,-0.174533,-1.04071,-0.69032,-0.167245,-0.18973,-1.29673,-0.437481,-0.218636,0.455909
23,30,-1.0472,-0.698132,-0.174533,-0.174533,-1.04071,-0.69032,-0.167245,-0.18973,-1.29673,-0.437481,-0.218636,0.455909
23,30,-1.0472,-0.698132,-0.174533,-0.174533,-1.04071,-0.69032,-0.167245,-0.18973,-1.29673,-0.437481,-0.218636,0.455909
23,30,-1.0472,-0.698132,-0.174533,-0.174533,-1.04071,-0.69032,-0.167245,-0.18973,-1.29673,-0.437481,-0.218636,0.455909
23,30,-1.0472,-0.698132,-0.174533,-0.174533,-1.04071,-0.69032,-0.167245,-0.18973,-1.29673,-0.437481,-0.218636,0.455909
23,30,-1.0472,-0.698132,-0.174533,-0.174533,-1.04071,-0.69032,-0.167245,-0.18973,-1.29673,-0.437481,-0.218636,0.455909
23,30,-1.0472,-0.698132,-0.174533,-0.174533,-1.04071,-0.69032,-0.167245,-0.18973,-1.29673,-0.437481,-0.218636,0.455909
23,30,-1.0472,-0.698132,-0.174533,-0.174533,-1.04071,-0.69032,-0.167245,-0.18973,-1.29673,-0.437481,-0.218636,0.455909
23,30,-1.0472,-0.698132,-0.174533,-0.174533,-1.04071,-0.69032,-0.167245,-0.18973,-1.29673,-0.437481,-0.218636,0.455909
23,30,-1.0472,-0.698132,-0.174533,-0.174533,-1.04071,-0.69032,-0.167245,-0.18973,-1.29673,-0.437481,-0.218636,0.455909
23,30,-1.0472,-0.698132,-0.174533,-0.174533,-1.04071,-0.69032,-0.167245,-0.18973,-1.29673,-0.437481,-0.218636,0.455909
23,30,-1.0472,-0.698132,-0.174533,-0.174533,-1.04071,-0.69032,-0.167245,-0.18973,-1.29673,-0.437481,-0.218636,0.455909
23,30,-1.0472,-0.698132,-0.174533,-0.174533,-1.04071,-0.69032,-0.167245,-0.18973,-1.29673,-0.437481,-0.218636,0.455909
23,30,-1.0472,-0.698132,-0.174533,-0.174533,-1.04071,-0.69032,-0.167245,-0.18973,-1.29673,-0.437481,-0.218636,0.455909
23,30,-1.0472,-0.698132,-0.174533,-0.174533,-1.04071,-0.69032,-0.167245,-0.18973,-1.29673,-0.437481,-0.218636,0.455909
23,30,-1.0472,-0.698132,-0.174533,-0.174533,-1.04071,-0.69032,-0.167245,-0.18973,-1.29673,-0.437481,-0.218636,0.455909
23,30,-1.0472,-0.698132,-0.174533,-0.174533,-1.04071,-0.69032,-0.167245,-0.18973,-1.29673,-0.437481,-0.218636,0.455909
23,30,-1.0472,-0.698132,-0.174533,-0.174533,-1.04071,-0.69032,-0.167245,-0.18973,-1.29673,-0.437481,-0.218636,0.455909
23,30,-1.0472,-0.698132,-0.174533,-0.174533,-1.04071,-0.69032,-0.167245,-0.18973,-1.29673,-0.437481,-0.218636,0.455909
23,30,-1.0472,-0.698132,-0.174533,-0.174533,-1.04071,-0.69032,-0.167245,-0.18973,-1.29673,-0.437481,-0.218636,0.455904
23,30,-1.0472,-0.698132,-0.174533,-0.174533,-1.04071,-0.69032,-0.167245,-0.18973,-1.29673,-0.437481,-0.218636,0.455904
23,30,-1.0472,-0.698132,-0.174533,-0.174533,-1.04071,-0.69032,-0.167245,-0.18973,-1.29673,-0.437481,-0.218636,0.455904
23,30,-1.0472,-0.698132,-0.174533,-0.174533,-1.04071,-0.69032,-0.167245,-0.18973,-1.29673,-0.437481,-0.218636,0.455904
23,30,-1.0472,-0.698132,-0.174533,-0.174533,-1.04071,-0.69032,-0.167245,-0.18973,-1.29673,-0.437481,-0.218636,0.455904
23,30,-1.0472,-0.698132,-0.174533,-0.174533,-1.04071,-0.69032,-0.167245,-0.18973,-1.29673,-0.437481,-0.218636,0.455904
23,30,-1.0472,-0.698132,-0.174533,-0.174533,-1.04071,-0.69032,-0.167245,-0.18973,-1.29673,-0.437481,-0.218636,0.455904
23,30,-1.0472,-0.698132,-0.174533,-0.174533,-1.04071,-0.69032,-0.167245,-0.18973,-1.29673,-0.437481,-0.218636,0.455904
23,30,-1.0472,-0.698132,-0.174533,-0.174533,-1.04071,-0.69032,-0.167245,-0.18973,-1.29673,-0.437481,-0.218636,0.455904
23,30,-1.0472,-0.698132,-0.174533,-0.174533,-1.04071,-0.69032,-0.167245,-0.18973,-1.29673,-0.437481,-0.218636,0.455904
23,30,-1.0472,-0.698132,-0.174533,-0.174533,-1.04071,-0.69032,-0.167245,-0.18973,-1.29673,-0.437481,-0.218636,0.455904
23,30,-1.0472,-0.698132,-0.174533,-0.174533,-1.04071,-0.69032,-0.167245,-0.18973,-1.29673,-0.437481,-0.218636,0.455904
23,30,-1.0472,-0.698132,-0.174533,-0.174533,-1.04071,-0.69032,-0.167245,-0.18973,-1.29673,-0.437481,-0.218636,0.455904
23,30,-1.0472,-0.698132,-0.174533,-0.174533,-1.04071,-0.69032,-0.167245,-0.18973,-1.29673,-0.437481,-0.218636,0.455904
23,30,-1.0472,-0.698132,-0.174533,-0.174533,-1.04071,-0.69032,-0.167245,-0.18973,-1.29673,-0.437481,-0.218636,0.455904
23,30,-1.0472,-0.698132,-0.174533,-0.174533,-1.04071,-0.69032,-0.167245,-0.18973,-1.29673,-0.437481,-0.218636,0.455904
23,30,-1.0472,-0.698132,-0.174533,-0.174533,-1.04071,-0.69032,-0.167245,-0.18973,-1.29673,-0.437481,-0.218636,0.455904
23,30,-1.0472,-0.698132,-0.174533,-0.174533,-1.04071,-0.69032,-0.167245,-0.18973,-1.29673,-0.437481,-0.218636,0.455904
23,30,-1.0472,-0.698132,-0.174533,-0.174533,-1.04071,-0.69032,-0.167245,-0.18973,-1.29673,-0.437481,-0.218636,0.455904
23,30,-1.0472,-0.698132,-0.174533,-0.174533,-1.04071,-0.69032,-0.167245,-0.18973,-1.29673,-0.437481,-0.218636,0.455904
23,30,-1.0472,-0.698132,-0.174533,-0.174533,-1.04071,-0.69032,-0.167245,-0.18973,-1.29673,-0.437481,-0.218636,0.455904
23,30,-1.0472,-0.698132,-0.174533,-0.174533,-1.04071,-0.69032,-0.167245,-0.18973,-1.29673,-0.437481,-0.218636,0.455904
23,30,-1.0472,-0.698132,-0.174533,-0.174533,-1.04071,-0.69032,-0.167245,-0.18973,-1.29673,-0.437481,-0.218636,0.455904
23,30,-1.0472,-0.698132,-0.174533,-0.174533,-1.04071,-0.69032,-0.167245,-0.18973,-1.29673,-0.437481,-0.218636,0.455904
23,30,-1.0472,-0.698132,-0.174533,-0.174533,-1.04071,-0.69032,-0.167245,-0.18973,-1.29673,-0.437481,-0.218636,0.455904
23,30,-1.0472,-0.698132,-0.174533,-0.174533,-1.04071,-0.69032,-0.167245,-0.18973,-1.29673,-0.437481,-0.218636,0.455904
23,30,-1.0472,-0.698132,-0.174533,-0.174533,-1.04071,-0.69032,-0.167245,-0.18973,-1.29673,-0.437481,-0.218636,0.455904
23,30,-1.0472,-0.698132,-0.174533,-0.174533,-1.04071,-0.69032,-0.167245,-0.18973,-1.29673,-0.437481,-0.218636,0.455904
23,30,-1.0472,-0.698132,-0.174533,-0.174533,-1.04071,-0.69032,-0.167245,-0.18973,-1.29673,-0.437481,-0.218636,0.455904
23,30,-1.0472,-0.698132,-0.174533,-0.174533,-1.04071,-0.69032,-0.167245,-0.18973,-1.29673,-0.437481,-0.218636,0.455904
23,30,-1.0472,-0.698132,-0.174533,-0.174533,-1.04071,-0.69032,-0.167245,-0.18973,-1.29673,-0.437481,-0.218636,0.455904
23,30,-1.0472,-0.698132,-0.174533,-0.174533,-1.04071,-0.69032,-0.167245,-0.18973,-1.29673,-0.437481,-0.218636,0.455904
23,30,-1.0472,-0.698132,-0.174533,-0.174533,-1.04071,-0.69032,-0.167245,-0.18973,-1.29673,-0.437481,-0.218636,0.455904
23,30,-1.0472,-0.698132,-0.174533,-0.174533,-1.04071,-0.69032,-0.167245,-0.18973,-1.29673,-0.437481,-0.218636,0.455904
23,30,-1.0472,-0.698132,-0.174533,-0.174533,-1.04071,-0.69032,-0.167245,-0.18973,-1.29673,-0.437481,-0.218636,0.455904
23,30,-1.0472,-0.698132,-0.174533,-0.174533,-1.04071,-0.69032,-0.167245,-0.18973,-1.29673,-0.437481,-0.218636,0.455904
23,30,-1.0472,-0.698132,-0.174533,-0.174533,-1.04071,-0.69032,-0.167245,-0.18973,-1.29673,-0.437481,-0.218636,0.455904
23,30,-1.0472,-0.698132,-0.174533,-0.174533,-1.04071,-0.69032,-0.167245,-0.18973,-1.29673,-0.437481,-0.218636,0.455904
23,30,-1.0472,-0.698132,-0.174533,-0.174533,-1.04071,-0.69032,-0.167245,-0.18973,-1.29673,-0.437481,-0.218636,0.455904
23,30,-1.0472,-0.698132,-0.174533,-0.174533,-1.04071,-0.69032,-0.167245,-0.18973,-1.29673,-0.437481,-0.218636,0.455904
23,30,-1.0472,-0.698132,-0.174533,-0.174533,-1.04071,-0.69032,-0.167245,-0.18973,-1.29673,-0.437481,-0.218636,0.455904
23,30,-1.0472,-0.698132,-0.174533,-0.174533,-1.04071,-0.69032,-0.167245,-0.18973,-1.29673,-0.437481,-0.218636,0.455904
23,30,-1.0472,-0.698132,-0.174533,-0.174533,-1.04071,-0.69032,-0.167245,-0.18973,-1.29673,-0.437481,-0.218636,0.455904
23,30,-1.0472,-0.698132,-0.174533,-0.174533,-1.04071,-0.69032,-0.167245,-0.18973,-1.29673,-0.437481,-0.218636,0.455904
23,30,-1.0472,-0.698132,-0.174533,-0.174533,-1.04071,-0.69032,-0.167245,-0.18973,-1.29673,-0.437481,-0.218636,0.455904
23,30,-1.0472,-0.698132,-0.174533,-0.174533,-1.04071,-0.69032,-0.167245,-0.18973,-1.29673,-0.437481,-0.218636,0.455904
23,30,-1.0472,-0.698132,-0.174533,-0.174533,-1.04071,-0.69032,-0.167245,-0.18973,-1.29673,-0.437481,-0.218636,0.455904
23,30,-1.0472,-0.698132,-0.174533,-0.174533,-1.04071,-0.69032,-0.167245,-0.18973,-1.29673,-0.437481,-0.218636,0.455904
23,30,-1.0472,-0.698132,-0.174533,-0.174533,-1.04071,-0.69032,-0.167245,-0.18973,-1.29673,-0.437481,-0.218636,0.455904
23,30,-1.0472,-0.698132,-0.174533,-0.174533,-1.04071,-0.69032,-0.167245,-0.18973,-1.29673,-0.437481,-0.218636,0.455904
23,30,-1.0472,-0.698132,-0.174533,-0.174533,-1.04071,-0.69032,-0.167245,-0.18973,-1.29673,-0.437481,-0.218636,0.455904
23,30,-1.0472,-0.698132,-0.174533,-0.174533,-1.04071,-0.69032,-0.167245,-0.18973,-1.29673,-0.437481,-0.218636,0.455904
23,30,-1.0472,-0.698132,-0.174533,-0.174533,-1.04071,-0.69032,-0.167245,-0.18973,-1.29673,-0.437481,-0.218636,0.455904
23,30,-1.0472,-0.698132,-0.174533,-0.174533,-1.04071,-0.69032,-0.167245,-0.18973,-1.29673,-0.437481,-0.218636,0.455904
23,30,-1.0472,-0.698132,-0.174533,-0.174533,-1.04071,-0.69032,-0.167245,-0.18973,-1.29673,-0.437481,-0.218636,0.455904
23,30,-1.0472,-0.698132,-0.174533,-0.174533,-1.04071,-0.69032,-0.167245,-0.18973,-1.29673,-0.437481,-0.218636,0.455904
23,30,-1.0472,-0.698132,-0.174533,-0.174533,-1.04071,-0.69032,-0.167245,-0.18973,-1.29673,-0.437481,-0.218636,0.455904
23,30,-1.0472,-0.698132,-0.174533,-0.174533,-1.04071,-0.69032,-0.167245,-0.18973,-1.29673,-0.437481,-0.218636,0.455904
23,30,-1.0472,-0.698132,-0.174533,-0.174533,-1.04071,-0.69032,-0.167245,-0.18973,-1.29673,-0.437481,-0.218636,0.455904
23,30,-1.0472,-0.698132,-0.174533,-0.174533,-1.04071,-0.69032,-0.167245,-0.18973,-1.29673,-0.437481,-0.218636,0.455904
23,30,-1.0472,-0.698132,-0.174533,-0.174533,-1.04071,-0.69032,-0.167245,-0.18973,-1.29673,-0.437481,-0.218636,0.455904
23,30,-1.0472,-0.698132,-0.174533,-0.174533,-1.04071,-0.69032,-0.167245,-0.18973,-1.29673,-0.437481,-0.218636,0.455904
23,30,-1.0472,-0.698132,-0.174533,-0.174533,-1.04071,-0.69032,-0.167245,-0.18973,-1.29673,-0.437481,-0.218636,0.455904
23,30,-1.0472,-0.698132,-0.174533,-0.174533,-1.04071,-0.69032,-0.167245,-0.18973,-1.29673,-0.437481,-0.218636,0.455904
23,30,-1.0472,-0.698132,-0.174533,-0.174533,-1.04071,-0.69032,-0.167245,-0.18973,-1.29673,-0.437481,-0.218636,0.455904
23,30,-1.0472,-0.698132,-0.174533,-0.174533,-1.04071,-0.69032,-0.167245,-0.18973,-1.29673,-0.437481,-0.218636,0.455904
23,30,-1.0472,-0.698132,-0.174533,-0.174533,-1.04071,-0.69032,-0.167245,-0.18973,-1.29673,-0.437481,-0.218636,0.455904
23,30,-1.0472,-0.698132,-0.174533,-0.174533,-1.04071,-0.69032,-0.167245,-0.18973,-1.29673,-0.437481,-0.218636,0.455904
23,30,-1.0472,-0.698132,-0.174533,-0.174533,-1.04071,-0.69032,-0.167245,-0.18973,-1.29673,-0.437481,-0.218636,0.455904
23,30,-1.0472,-0.698132,-0.174533,-0.174533,-1.04071,-0.69032,-0.167245,-0.18973,-1.29673,-0.437481,-0.218636,0.455904
23,30,-1.0472,-0.698132,-0.174533,-0.174533,-1.04071,-0.69032,-0.167245,-0.18973,-1.29673,-0.437481,-0.218636,0.455904
23,30,-1.0472,-0.698132,-0.174533,-0.174533,-1.04071,-0.69032,-0.167245,-0.18973,-1.29673,-0.437481,-0.218636,0.455904
23,30,-1.0472,-0.698132,-0.174533,-0.174533,-1.04071,-0.69032,-0.167245,-0.18973,-1.29673,-0.437481,-0.218636,0.455904
23,30,-1.0472,-0.698132,-0.174533,-0.174533,-1.04071,-0.69032,-0.167245,-0.18973,-1.29673,-0.437481,-0.218636,0.455904
23,30,-1.0472,-0.698132,-0.174533,-0.174533,-1.04071,-0.69032,-0.167245,-0.18973,-1.29673,-0.437481,-0.218636,0.455904
23,30,-1.0472,-0.698132,-0.174533,-0.174533,-1.04071,-0.69032,-0.167245,-0.18973,-1.29673,-0.437481,-0.218636,0.455904
23,30,-1.0472,-0.698132,-0.174533,-0.174533,-1.04071,-0.69032,-0.167245,-0.18973,-1.29673,-0.437481,-0.218636,0.455904
23,30,-1.0472,-0.698132,-0.174533,-0.174533,-1.04071,-0.69032,-0.167245,-0.18973,-1.29673,-0.437481,-0.218636,0.455904
23,30,-1.0472,-0.698132,-0.174533,-0.174533,-1.04071,-0.69032,-0.167245,-0.18973,-1.29673,-0.437481,-0.218636,0.455904
23,30,-1.0472,-0.698132,-0.174533,-0.174533,-1.04071,-0.69032,-0.167245,-0.18973,-1.29673,-0.437481,-0.218636,0.455904
23,30,-1.0472,-0.698132,-0.174533,-0.174533,-1.04071,-0.69032,-0.167245,-0.18973,-1.29673,-0.437481,-0.218636,0.455904
23,30,-1.0472,-0.698132,-0.174533,-0.174533,-1.04071,-0.69032,-0.167245,-0.18973,-1.29673,-0.437481,-0.218636,0.455904
23,30,-1.0472,-0.698132,-0.174533,-0.174533,-1.04071,-0.69032,-0.167245,-0.18973,-1.29673,-0.437481,-0.218636,0.455904
23,30,-1.0472,-0.698132,-0.174533,-0.174533,-1.04071,-0.69032,-0.167245,-0.18973,-1.29673,-0.437481,-0.218636,0.455904
23,30,-1.0472,-0.698132,-0.174533,-0.174533,-1.04071,-0.69032,-0.167245,-0.18973,-1.29673,-0.437481,-0.218636,0.455904
23,30,-1.0472,-0.698132,-0.174533,-0.174533,-1.04071,-0.69032,-0.167245,-0.18973,-1.29673,-0.437481,-0.218636,0.455904
23,30,-1.0472,-0.698132,-0.174533,-0.174533,-1.04071,-0.69032,-0.167245,-0.18973,-1.29673,-0.437481,-0.218636,0.455904
23,30,-1.0472,-0.698132,-0.174533,-0.174533,-1.04071,-0.69032,-0.167245,-0.18973,-1.29673,-0.437481,-0.218636,0.455904
23,30,-1.0472,-0.698132,-0.174533,-0.174533,-1.04071,-0.69032,-0.167245,-0.18973,-1.29673,-0.437481,-0.218636,0.455904
23,30,-1.0472,-0.698132,-0.174533,-0.174533,-1.04071,-0.69032,-0.167245,-0.18973,-1.29673,-0.437481,-0.218636,0.455904
23,30,-1.0472,-0.698132,-0.174533,-0.174533,-1.04071,-0.69032,-0.167245,-0.18973,-1.29673,-0.437481,-0.218636,0.455904
23,30,-1.0472,-0.698132,-0.174533,-0.174533,-1.04071,-0.69032,-0.167245,-0.18973,-1.29673,-0.437481,-0.218636,0.455904
23,30,-1.0472,-0.698132,-0.174533,-0.174533,-1.04071,-0.69032,-0.167245,-0.18973,-1.29673,-0.437481,-0.218636,0.455904
23,30,-1.0472,-0.698132,-0.174533,-0.174533,-1.04071,-0.69032,-0.167245,-0.18973,-1.29673,-0.437481,-0.218636,0.455904
23,30,-1.0472,-0.698132,-0.174533,-0.174533,-1.04071,-0.69032,-0.167245,-0.18973,-1.29673,-0.437481,-0.218636,0.455904
23,30,-1.0472,-0.698132,-0.174533,-0.174533,-1.04071,-0.69032,-0.167245,-0.18973,-1.29673,-0.437481,-0.218636,0.455904
23,30,-1.0472,-0.698132,-0.174533,-0.174533,-1.04071,-0.69032,-0.167245,-0.18973,-1.29673,-0.437481,-0.218636,0.455904
23,30,-1.0472,-0.698132,-0.174533,-0.174533,-1.04071,-0.69032,-0.167245,-0.18973,-1.29673,-0.437481,-0.218636,0.455904
23,30,-1.0472,-0.698132,-0.174533,-0.174533,-1.04071,-0.69032,-0.167245,-0.18973,-1.29673,-0.437481,-0.218636,0.455904
23,30,-1.0472,-0.698132,-0.174533,-0.174533,-1.04071,-0.69032,-0.167245,-0.18973,-1.29673,-0.437481,-0.218636,0.455904
23,30,-1.0472,-0.698132,-0.174533,-0.174533,-1.04071,-0.69032,-0.167245,-0.18973,-1.29673,-0.437481,-0.218636,0.455904
23,30,-1.0472,-0.698132,-0.174533,-0.174533,-1.04071,-0.69032,-0.167245,-0.18973,-1.29673,-0.437481,-0.218636,0.455904
23,30,-1.0472,-0.698132,-0.174533,-0.174533,-1.04071,-0.69032,-0.167245,-0.18973,-1.29673,-0.437481,-0.218636,0.455904
23,30,-1.0472,-0.698132,-0.174533,-0.174533,-1.04071,-0.69032,-0.167245,-0.18973,-1.29673,-0.437481,-0.218636,0.455904
23,30,-1.0472,-0.698132,-0.174533,-0.174533,-1.04071,-0.69032,-0.167245,-0.18973,-1.29673,-0.437481,-0.218636,0.455904
23,30,-1.0472,-0.698132,-0.174533,-0.174533,-1.04071,-0.69032,-0.167245,-0.18973,-1.29673,-0.437481,-0.218636,0.455904
23,30,-1.0472,-0.698132,-0.174533,-0.174533,-1.04071,-0.69032,-0.167245,-0.18973,-1.29673,-0.437481,-0.218636,0.455904
23,30,-1.0472,-0.698132,-0.174533,-0.174533,-1.04071,-0.69032,-0.167245,-0.18973,-1.29673,-0.437481,-0.218636,0.455904
23,30,-1.0472,-0.698132,-0.174533,-0.174533,-1.04071,-0.69032,-0.167245,-0.18973,-1.29673,-0.437481,-0.218636,0.455904
23,30,-1.0472,-0.698132,-0.174533,-0.174533,-1.04071,-0.69032,-0.167245,-0.18973,-1.29673,-0.437481,-0.218636,0.455904
23,30,-1.0472,-0.698132,-0.174533,-0.174533,-1.04071,-0.69032,-0.167245,-0.18973,-1.29673,-0.437481,-0.218636,0.455904
23,30,-1.0472,-0.698132,-0.174533,-0.174533,-1.04071,-0.69032,-0.167245,-0.18973,-1.29673,-0.437481,-0.218636,0.455904
23,30,-1.0472,-0.698132,-0.174533,-0.174533,-1.04071,-0.69032,-0.167245,-0.18973,-1.29673,-0.437481,-0.218636,0.455904
23,30,-1.0472,-0.698132,-0.174533,-0.174533,-1.04071,-0.69032,-0.167245,-0.18973,-1.29673,-0.437481,-0.218636,0.455904
23,30,-1.0472,-0.698132,-0.174533,-0.174533,-1.04071,-0.69032,-0.167245,-0.18973,-1.29673,-0.437481,-0.218636,0.455904
23,30,-1.0472,-0.698132,-0.174533,-0.174533,-1.04071,-0.69032,-0.167245,-0.18973,-1.29673,-0.437481,-0.218636,0.455904
23,30,-1.0472,-0.698132,-0.174533,-0.174533,-1.04071,-0.69032,-0.167245,-0.18973,-1.29673,-0.437481,-0.218636,0.455904
23,30,-1.0472,-0.698132,-0.174533,-0.174533,-1.04071,-0.69032,-0.167245,-0.18973,-1.29673,-0.437481,-0.218636,0.455904
23,30,-1.0472,-0.698132,-0.174533,-0.174533,-1.04071,-0.69032,-0.167245,-0.18973,-1.29673,-0.437481,-0.218636,0.455904
23,30,-1.0472,-0.698132,-0.174533,-0.174533,-1.04071,-0.69032,-0.167245,-0.18973,-1.29673,-0.437481,-0.218636,0.455904
23,30,-1.0472,-0.698132,-0.174533,-0.174533,-1.04071,-0.69032,-0.167245,-0.18973,-1.29673,-0.437481,-0.218636,0.455904
23,30,-1.0472,-0.698132,-0.174533,-0.174533,-1.04071,-0.69032,-0.167245,-0.18973,-1.29673,-0.437481,-0.218636,0.455904
23,30,-1.0472,-0.698132,-0.174533,-0.174533,-1.04071,-0.69032,-0.167245,-0.18973,-1.29673,-0.437481,-0.218636,0.455904
23,30,-1.0472,-0.698132,-0.174533,-0.174533,-1.04071,-0.69032,-0.167245,-0.18973,-1.29673,-0.437481,-0.218636,0.455904
23,30,-1.0472,-0.698132,-0.174533,-0.174533,-1.04071,-0.69032,-0.167245,-0.18973,-1.29673,-0.437481,-0.218636,0.455904
23,30,-1.0472,-0.698132,-0.174533,-0.174533,-1.04071,-0.69032,-0.167245,-0.18973,-1.29673,-0.437481,-0.218636,0.455904
23,30,-1.0472,-0.698132,-0.174533,-0.174533,-1.04071,-0.69032,-0.167245,-0.18973,-1.29673,-0.437481,-0.218636,0.455904
23,30,-1.0472,-0.698132,-0.174533,-0.174533,-1.04071,-0.69032,-0.167245,-0.18973,-1.29673,-0.437481,-0.218636,0.455904
23,30,-1.0472,-0.698132,-0.174533,-0.174533,-1.04071,-0.69032,-0.167245,-0.18973,-1.29673,-0.437481,-0.218636,0.455904
23,30,-1.0472,-0.698132,-0.174533,-0.174533,-1.04071,-0.69032,-0.167245,-0.18973,-1.29673,-0.437481,-0.218636,0.455904
23,30,-1.0472,-0.698132,-0.174533,-0.174533,-1.04071,-0.69032,-0.167245,-0.18973,-1.29673,-0.437481,-0.218636,0.455904
23,30,-1.0472,-0.698132,-0.174533,-0.174533,-1.04071,-0.69032,-0.167245,-0.18973,-1.29673,-0.437481,-0.218636,0.455904
23,30,-1.0472,-0.698132,-0.174533,-0.174533,-1.04071,-0.69032,-0.167245,-0.18973,-1.29673,-0.437481,-0.218636,0.455904
23,30,-1.0472,-0.698132,-0.174533,-0.174533,-1.04071,-0.69032,-0.167245,-0.18973,-1.29673,-0.437481,-0.218636,0.455904
23,30,-1.0472,-0.698132,-0.174533,-0.174533,-1.04071,-0.69032,-0.167245,-0.18973,-1.29673,-0.437481,-0.218636,0.455904
23,30,-1.0472,-0.698132,-0.174533,-0.174533,-1.04071,-0.69032,-0.167245,-0.18973,-1.29673,-0.437481,-0.218636,0.455904
23,30,-1.0472,-0.698132,-0.174533,-0.174533,-1.04071,-0.69032,-0.167245,-0.18973,-1.29673,-0.437481,-0.218636,0.455904
23,30,-1.0472,-0.698132,-0.174533,-0.174533,-1.04071,-0.69032,-0.167245,-0.18973,-1.29673,-0.437481,-0.218636,0.455904
23,30,-1.0472,-0.698132,-0.174533,-0.174533,-1.04071,-0.69032,-0.167311,-0.189772,-1.29673,-0.437481,-0.216637,0.457183
23,30,-1.0472,-0.698132,-0.174533,-0.174533,-1.04071,-0.69032,-0.167311,-0.189772,-1.29673,-0.437481,-0.216637,0.457183
23,30,-1.0472,-0.698132,-0.174533,-0.174533,-1.04071,-0.69032,-0.167311,-0.189772,-1.29673,-0.437481,-0.216637,0.457183
23,30,-1.0472,-0.698132,-0.174533,-0.174533,-1.04071,-0.69032,-0.167311,-0.189772,-1.29673,-0.437481,-0.216637,0.457183
23,30,-1.0472,-0.698132,-0.174533,-0.174533,-1.04071,-0.69032,-0.167311,-0.189772,-1.29673,-0.437481,-0.216637,0.457183
23,30,-1.0472,-0.698132,-0.174533,-0.174533,-1.04071,-0.69032,-0.167311,-0.189772,-1.29673,-0.437481,-0.216637,0.457183
23,30,-1.0472,-0.698132,-0.174533,-0.174533,-1.04071,-0.69032,-0.167311,-0.189772,-1.29673,-0.437481,-0.216637,0.457183
23,30,-1.0472,-0.698132,-0.174533,-0.174533,-1.04071,-0.69032,-0.167311,-0.189772,-1.29673,-0.437481,-0.216637,0.457183
23,30,-1.0472,-0.698132,-0.174533,-0.174533,-1.04071,-0.69032,-0.167311,-0.189772,-1.29673,-0.437481,-0.216637,0.457183
23,30,-1.0472,-0.698132,-0.174533,-0.174533,-1.04071,-0.69032,-0.167311,-0.189772,-1.29673,-0.437481,-0.216637,0.457183
23,30,-1.0472,-0.698132,-0.174533,-0.174533,-1.04071,-0.69032,-0.167311,-0.189772,-1.29673,-0.437481,-0.216637,0.457183
23,30,-1.0472,-0.698132,-0.174533,-0.174533,-1.04071,-0.69032,-0.167311,-0.189772,-1.29673,-0.437481,-0.216637,0.457183
23,30,-1.0472,-0.698132,-0.174533,-0.174533,-1.04071,-0.69032,-0.167311,-0.189772,-1.29673,-0.437481,-0.216637,0.457183
23,30,-1.0472,-0.698132,-0.174533,-0.174533,-1.04071,-0.69032,-0.167311,-0.189772,-1.29673,-0.437481,-0.216637,0.457183
23,30,-1.0472,-0.698132,-0.174533,-0.174533,-1.04071,-0.69032,-0.167311,-0.189772,-1.29673,-0.437481,-0.216637,0.457183
23,30,-1.0472,-0.698132,-0.174533,-0.174533,-1.04071,-0.69032,-0.167311,-0.189772,-1.29673,-0.437481,-0.216637,0.457183
23,30,-1.0472,-0.698132,-0.174533,-0.174533,-1.04071,-0.69032,-0.167311,-0.189772,-1.29673,-0.437481,-0.216637,0.457183
23,30,-1.0472,-0.698132,-0.174533,-0.174533,-1.04071,-0.69032,-0.167311,-0.189772,-1.29673,-0.437481,-0.216637,0.457183
23,30,-1.0472,-0.698132,-0.174533,-0.174533,-1.04071,-0.69032,-0.167311,-0.189772,-1.29673,-0.437481,-0.216637,0.457183
23,30,-1.0472,-0.698132,-0.174533,-0.174533,-1.04071,-0.69032,-0.167311,-0.189772,-1.29673,-0.437481,-0.216637,0.457183
23,30,-1.0472,-0.698132,-0.174533,-0.174533,-1.04071,-0.69032,-0.167311,-0.189772,-1.29673,-0.437481,-0.216637,0.457183
23,30,-1.0472,-0.698132,-0.174533,-0.174533,-1.04071,-0.69032,-0.167311,-0.189772,-1.29673,-0.437481,-0.216637,0.457183
23,30,-1.0472,-0.698132,-0.174533,-0.174533,-1.04071,-0.69032,-0.167311,-0.189772,-1.29673,-0.437481,-0.216637,0.457183
23,30,-1.0472,-0.698132,-0.174533,-0.174533,-1.04071,-0.69032,-0.167311,-0.189772,-1.29673,-0.437481,-0.216637,0.457183
23,30,-1.0472,-0.698132,-0.174533,-0.174533,-1.04071,-0.69032,-0.167311,-0.189772,-1.29673,-0.437481,-0.216637,0.457183
23,30,-1.0472,-0.698132,-0.174533,-0.174533,-1.04071,-0.69032,-0.167311,-0.189772,-1.29673,-0.437481,-0.216637,0.457183
23,30,-1.0472,-0.698132,-0.174533,-0.174533,-1.04071,-0.69032,-0.167311,-0.189772,-1.29673,-0.437481,-0.216637,0.457183
23,30,-1.0472,-0.698132,-0.174533,-0.174533,-1.04071,-0.69032,-0.167311,-0.189772,-1.29673,-0.437481,-0.216637,0.457183
23,30,-1.0472,-0.698132,-0.174533,-0.174533,-1.04071,-0.69032,-0.167311,-0.189772,-1.29673,-0.437481,-0.216637,0.457183
23,30,-1.0472,-0.698132,-0.174533,-0.174533,-1.04071,-0.69032,-0.167311,-0.189772,-1.29673,-0.437481,-0.216637,0.457183
23,30,-1.0472,-0.698132,-0.174533,-0.174533,-1.04071,-0.69032,-0.167311,-0.189772,-1.29673,-0.437481,-0.216637,0.457183
23,30,-1.0472,-0.698132,-0.174533,-0.174533,-1.04071,-0.69032,-0.167311,-0.189772,-1.29673,-0.437481,-0.216637,0.457183
23,30,-1.0472,-0.698132,-0.174533,-0.174533,-1.04071,-0.69032,-0.167311,-0.189772,-1.29673,-0.437481,-0.216637,0.457183
23,30,-1.0472,-0.698132,-0.174533,-0.174533,-1.04071,-0.69032,-0.167311,-0.189772,-1.29673,-0.437481,-0.216637,0.457183
23,30,-1.0472,-0.698132,-0.174533,-0.174533,-1.04071,-0.69032,-0.167311,-0.189772,-1.29673,-0.437481,-0.216637,0.457183
23,30,-1.0472,-0.698132,-0.174533,-0.174533,-1.04071,-0.69032,-0.167311,-0.189772,-1.29673,-0.437481,-0.216637,0.457183
23,30,-1.0472,-0.698132,-0.174533,-0.174533,-1.04071,-0.69032,-0.167311,-0.189772,-1.29673,-0.437481,-0.216637,0.457183
23,30,-1.0472,-0.698132,-0.174533,-0.174533,-1.04071,-0.69032,-0.167311,-0.189772,-1.29673,-0.437481,-0.216637,0.457183
23,30,-1.0472,-0.698132,-0.174533,-0.174533,-1.04071,-0.69032,-0.167311,-0.189772,-1.29673,-0.437481,-0.216637,0.457183
23,30,-1.0472,-0.698132,-0.174533,-0.174533,-1.04071,-0.69032,-0.167311,-0.189772,-1.29673,-0.437481,-0.216637,0.457183
23,30,-1.0472,-0.698132,-0.174533,-0.174533,-1.04071,-0.69032,-0.167311,-0.189772,-1.29673,-0.437481,-0.216637,0.457183
23,30,-1.0472,-0.698132,-0.174533,-0.174533,-1.04071,-0.69032,-0.167311,-0.189772,-1.29673,-0.437481,-0.216637,0.457183
23,30,-1.0472,-0.698132,-0.174533,-0.174533,-1.04071,-0.69032,-0.167311,-0.189772,-1.29673,-0.437481,-0.216637,0.457183
23,30,-1.0472,-0.698132,-0.174533,-0.174533,-1.04071,-0.69032,-0.167311,-0.189772,-1.29673,-0.437481,-0.216637,0.457183
23,30,-1.0472,-0.698132,-0.174533,-0.174533,-1.04071,-0.69032,-0.167311,-0.189772,-1.29673,-0.437481,-0.216637,0.457183
23,30,-1.0472,-0.698132,-0.174533,-0.174533,-1.04071,-0.69032,-0.167311,-0.189772,-1.29673,-0.437481,-0.216637,0.457183
23,30,-1.0472,-0.698132,-0.174533,-0.174533,-1.04071,-0.69032,-0.167311,-0.189772,-1.29673,-0.437481,-0.216637,0.457183
23,30,-1.0472,-0.698132,-0.174533,-0.174533,-1.04071,-0.69032,-0.167311,-0.189772,-1.29673,-0.437481,-0.216637,0.457183
23,30,-1.0472,-0.698132,-0.174533,-0.174533,-1.04071,-0.69032,-0.167311,-0.189772,-1.29673,-0.437481,-0.216637,0.457183
23,30,-1.0472,-0.698132,-0.174533,-0.174533,-1.04071,-0.69032,-0.167311,-0.189772,-1.29673,-0.437481,-0.216637,0.457183
23,30,-1.0472,-0.698132,-0.174533,-0.174533,-1.04071,-0.69032,-0.167311,-0.189772,-1.29673,-0.437481,-0.216637,0.457183
23,30,-1.0472,-0.698132,-0.174533,-0.174533,-1.04071,-0.69032,-0.167311,-0.189772,-1.29673,-0.437481,-0.216637,0.457183
23,30,-1.0472,-0.698132,-0.174533,-0.174533,-1.04071,-0.69032,-0.167311,-0.189772,-1.29673,-0.437481,-0.216637,0.457183
23,30,-1.0472,-0.698132,-0.174533,-0.174533,-1.04071,-0.69032,-0.167311,-0.189772,-1.29673,-0.437481,-0.216637,0.457183
23,30,-1.0472,-0.698132,-0.174533,-0.174533,-1.04071,-0.69032,-0.167311,-0.189772,-1.29673,-0.437481,-0.216637,0.457183
23,30,-1.0472,-0.698132,-0.174533,-0.174533,-1.04071,-0.69032,-0.167311,-0.189772,-1.29673,-0.437481,-0.216637,0.457183
23,30,-1.0472,-0.698132,-0.174533,-0.174533,-1.04071,-0.69032,-0.167311,-0.189772,-1.29673,-0.437481,-0.216637,0.457183
23,30,-1.0472,-0.698132,-0.174533,-0.174533,-1.04071,-0.69032,-0.167311,-0.189772,-1.29673,-0.437481,-0.216637,0.457183
23,30,-1.0472,-0.698132,-0.174533,-0.174533,-1.04071,-0.69032,-0.167311,-0.189772,-1.29673,-0.437481,-0.216637,0.457183
23,30,-1.0472,-0.698132,-0.174533,-0.174533,-1.04071,-0.69032,-0.167311,-0.189772,-1.29673,-0.437481,-0.216637,0.457183
23,30,-1.0472,-0.698132,-0.174533,-0.174533,-1.04071,-0.69032,-0.167311,-0.189772,-1.29673,-0.437481,-0.216637,0.457183
23,30,-1.0472,-0.698132,-0.174533,-0.174533,-1.04071,-0.69032,-0.167311,-0.189772,-1.29673,-0.437481,-0.216637,0.457183
23,30,-1.0472,-0.698132,-0.174533,-0.174533,-1.04071,-0.69032,-0.167311,-0.189772,-1.29673,-0.437481,-0.216637,0.457183
23,30,-1.0472,-0.698132,-0.174533,-0.174533,-1.04071,-0.69032,-0.167311,-0.189772,-1.29673,-0.437481,-0.216637,0.457183
23,30,-1.0472,-0.698132,-0.174533,-0.174533,-1.04071,-0.69032,-0.167311,-0.189772,-1.29673,-0.437481,-0.216637,0.457183
23,30,-1.0472,-0.698132,-0.174533,-0.174533,-1.04071,-0.69032,-0.167311,-0.189772,-1.29673,-0.437481,-0.216637,0.457183
23,30,-1.0472,-0.698132,-0.174533,-0.174533,-1.04071,-0.69032,-0.167311,-0.189772,-1.29673,-0.437481,-0.216637,0.457183
23,30,-1.0472,-0.698132,-0.174533,-0.174533,-1.04071,-0.69032,-0.167311,-0.189772,-1.29673,-0.437481,-0.216637,0.457183
23,30,-1.0472,-0.698132,-0.174533,-0.174533,-1.04071,-0.69032,-0.167311,-0.189772,-1.29673,-0.437481,-0.216637,0.457183
23,30,-1.0472,-0.698132,-0.174533,-0.174533,-1.04071,-0.69032,-0.167311,-0.189772,-1.29673,-0.437481,-0.216637,0.457183
23,30,-1.0472,-0.698132,-0.174533,-0.174533,-1.04071,-0.69032,-0.167311,-0.189772,-1.29673,-0.437481,-0.216637,0.457183
23,30,-1.0472,-0.698132,-0.174533,-0.174533,-1.04071,-0.69032,-0.167311,-0.189772,-1.29673,-0.437481,-0.216637,0.457183
23,30,-1.0472,-0.698132,-0.174533,-0.174533,-1.04071,-0.69032,-0.167311,-0.189772,-1.29673,-0.437481,-0.216637,0.457183
23,30,-1.0472,-0.698132,-0.174533,-0.174533,-1.04071,-0.69032,-0.167311,-0.189772,-1.29673,-0.437481,-0.216637,0.457183
23,30,-1.0472,-0.698132,-0.174533,-0.174533,-1.04071,-0.69032,-0.167311,-0.189772,-1.29673,-0.437481,-0.216637,0.457183
23,30,-1.0472,-0.698132,-0.174533,-0.174533,-1.04071,-0.69032,-0.167311,-0.189772,-1.29673,-0.437481,-0.216637,0.457183
23,30,-1.0472,-0.698132,-0.174533,-0.174533,-1.04071,-0.69032,-0.167311,-0.189772,-1.29673,-0.437481,-0.216637,0.457183
23,30,-1.0472,-0.698132,-0.174533,-0.174533,-1.04071,-0.69032,-0.167311,-0.189772,-1.29673,-0.437481,-0.216637,0.457183
23,30,-1.0472,-0.698132,-0.174533,-0.174533,-1.04071,-0.69032,-0.167311,-0.189772,-1.29673,-0.437481,-0.216637,0.457183
23,30,-1.0472,-0.698132,-0.174533,-0.174533,-1.04071,-0.69032,-0.167311,-0.189772,-1.29673,-0.437481,-0.216637,0.457183
23,30,-1.0472,-0.698132,-0.174533,-0.174533,-1.04071,-0.69032,-0.167311,-0.189772,-1.29673,-0.437481,-0.216637,0.457183
23,30,-1.0472,-0.698132,-0.174533,-0.174533,-1.04071,-0.69032,-0.167311,-0.189772,-1.29673,-0.437481,-0.216637,0.457183
23,30,-1.0472,-0.698132,-0.174533,-0.174533,-1.04071,-0.69032,-0.167311,-0.189772,-1.29673,-0.437481,-0.216637,0.457183
23,30,-1.0472,-0.698132,-0.174533,-0.174533,-1.04071,-0.69032,-0.167311,-0.189772,-1.29673,-0.437481,-0.216637,0.457183
