stim_pw [us],stim_amp [mA],com_elbow_fe [rad],com_forearm_ps [rad],com_wrist_fe [rad],com_wrist_ru [rad],act_elbow_fe [rad],act_forearm_ps [rad],act_wrist_fe [rad],act_wrist_ru [rad],elbow_fe_trq [Nm],forearm_ps_trq [Nm],wrist_fe_trq [Nm],wrist_ru_trq [Nm]
28,40,-1.0472,-0.698132,-0.174533,-0.174533,-1.03871,-0.689862,-0.155605,-0.180007,-1.69761,-0.463105,-0.567831,0.164208
28,40,-1.0472,-0.698132,-0.174533,-0.174533,-1.03871,-0.689862,-0.155605,-0.180007,-1.69761,-0.463105,-0.567831,0.164208
28,40,-1.0472,-0.698132,-0.174533,-0.174533,-1.03871,-0.689862,-0.155605,-0.180007,-1.69761,-0.463105,-0.567831,0.164208
28,40,-1.0472,-0.698132,-0.174533,-0.174533,-1.03871,-0.689862,-0.155603,-0.179947,-1.69761,-0.463105,-0.567898,0.162424
28,40,-1.0472,-0.698132,-0.174533,-0.174533,-1.03871,-0.689862,-0.155603,-0.179947,-1.69761,-0.463105,-0.567898,0.162424
28,40,-1.0472,-0.698132,-0.174533,-0.174533,-1.03871,-0.689862,-0.155603,-0.179947,-1.69761,-0.463105,-0.567898,0.162424
28,40,-1.0472,-0.698132,-0.174533,-0.174533,-1.03871,-0.689862,-0.155603,-0.179947,-1.69761,-0.463105,-0.567898,0.162424
28,40,-1.0472,-0.698132,-0.174533,-0.174533,-1.03871,-0.689862,-0.155603,-0.179947,-1.69761,-0.463105,-0.567898,0.162424
28,40,-1.0472,-0.698132,-0.174533,-0.174533,-1.03871,-0.689862,-0.155603,-0.179947,-1.69761,-0.463105,-0.567898,0.162424
28,40,-1.0472,-0.698132,-0.174533,-0.174533,-1.03871,-0.689862,-0.155603,-0.179947,-1.69761,-0.463105,-0.567898,0.162424
28,40,-1.0472,-0.698132,-0.174533,-0.174533,-1.03871,-0.689862,-0.155603,-0.179947,-1.69761,-0.463105,-0.567898,0.162424
28,40,-1.0472,-0.698132,-0.174533,-0.174533,-1.03871,-0.689862,-0.155603,-0.179947,-1.69761,-0.463105,-0.567898,0.162424
28,40,-1.0472,-0.698132,-0.174533,-0.174533,-1.03871,-0.689862,-0.155603,-0.179947,-1.69761,-0.463105,-0.567898,0.162424
28,40,-1.0472,-0.698132,-0.174533,-0.174533,-1.03871,-0.689862,-0.155603,-0.179947,-1.69761,-0.463105,-0.567898,0.162424
28,40,-1.0472,-0.698132,-0.174533,-0.174533,-1.03871,-0.689862,-0.155603,-0.179947,-1.69761,-0.463105,-0.567898,0.162424
28,40,-1.0472,-0.698132,-0.174533,-0.174533,-1.03871,-0.689862,-0.155603,-0.179947,-1.69761,-0.463105,-0.567898,0.162424
28,40,-1.0472,-0.698132,-0.174533,-0.174533,-1.03871,-0.689862,-0.155603,-0.179947,-1.69761,-0.463105,-0.567898,0.162424
28,40,-1.0472,-0.698132,-0.174533,-0.174533,-1.03871,-0.689862,-0.155603,-0.179947,-1.69761,-0.463105,-0.567898,0.162424
28,40,-1.0472,-0.698132,-0.174533,-0.174533,-1.03871,-0.689862,-0.155603,-0.179947,-1.69761,-0.463105,-0.567898,0.162424
28,40,-1.0472,-0.698132,-0.174533,-0.174533,-1.03871,-0.689862,-0.155603,-0.179947,-1.69761,-0.463105,-0.567898,0.162424
28,40,-1.0472,-0.698132,-0.174533,-0.174533,-1.03871,-0.689862,-0.155603,-0.179947,-1.69761,-0.463105,-0.567898,0.162424
28,40,-1.0472,-0.698132,-0.174533,-0.174533,-1.03871,-0.689862,-0.155603,-0.179947,-1.69761,-0.463105,-0.567898,0.162424
28,40,-1.0472,-0.698132,-0.174533,-0.174533,-1.03871,-0.689862,-0.155603,-0.179947,-1.69761,-0.463105,-0.567898,0.162424
28,40,-1.0472,-0.698132,-0.174533,-0.174533,-1.03871,-0.689862,-0.155603,-0.179947,-1.69761,-0.463105,-0.567898,0.162424
28,40,-1.0472,-0.698132,-0.174533,-0.174533,-1.03871,-0.689862,-0.155603,-0.179947,-1.69761,-0.463105,-0.567898,0.162424
28,40,-1.0472,-0.698132,-0.174533,-0.174533,-1.03871,-0.689862,-0.155603,-0.179947,-1.69761,-0.463105,-0.567898,0.162424
28,40,-1.0472,-0.698132,-0.174533,-0.174533,-1.03871,-0.689862,-0.155603,-0.179947,-1.69761,-0.463105,-0.567898,0.162424
28,40,-1.0472,-0.698132,-0.174533,-0.174533,-1.03871,-0.689862,-0.155603,-0.179947,-1.69761,-0.463105,-0.567898,0.162424
28,40,-1.0472,-0.698132,-0.174533,-0.174533,-1.03871,-0.689862,-0.155603,-0.179947,-1.69761,-0.463105,-0.567898,0.162424
28,40,-1.0472,-0.698132,-0.174533,-0.174533,-1.03871,-0.689862,-0.155603,-0.179947,-1.69761,-0.463105,-0.567898,0.162424
28,40,-1.0472,-0.698132,-0.174533,-0.174533,-1.03871,-0.689862,-0.155603,-0.179947,-1.69761,-0.463105,-0.567898,0.162424
28,40,-1.0472,-0.698132,-0.174533,-0.174533,-1.03871,-0.689862,-0.155603,-0.179947,-1.69761,-0.463105,-0.567898,0.162424
28,40,-1.0472,-0.698132,-0.174533,-0.174533,-1.03871,-0.689862,-0.155603,-0.179947,-1.69761,-0.463105,-0.567898,0.162424
28,40,-1.0472,-0.698132,-0.174533,-0.174533,-1.03871,-0.689862,-0.155603,-0.179947,-1.69761,-0.463105,-0.567898,0.162424
28,40,-1.0472,-0.698132,-0.174533,-0.174533,-1.03871,-0.689862,-0.155603,-0.179947,-1.69761,-0.463105,-0.567898,0.162424
28,40,-1.0472,-0.698132,-0.174533,-0.174533,-1.03871,-0.689862,-0.155603,-0.179947,-1.69761,-0.463105,-0.567898,0.162424
28,40,-1.0472,-0.698132,-0.174533,-0.174533,-1.03871,-0.689862,-0.155603,-0.179947,-1.69761,-0.463105,-0.567898,0.162424
28,40,-1.0472,-0.698132,-0.174533,-0.174533,-1.03871,-0.689862,-0.155603,-0.179947,-1.69761,-0.463105,-0.567898,0.162424
28,40,-1.0472,-0.698132,-0.174533,-0.174533,-1.03871,-0.689862,-0.155603,-0.179947,-1.69761,-0.463105,-0.567898,0.162424
28,40,-1.0472,-0.698132,-0.174533,-0.174533,-1.03871,-0.689862,-0.155603,-0.179947,-1.69761,-0.463105,-0.567898,0.162424
28,40,-1.0472,-0.698132,-0.174533,-0.174533,-1.03871,-0.689862,-0.155603,-0.179947,-1.69761,-0.463105,-0.567898,0.162424
28,40,-1.0472,-0.698132,-0.174533,-0.174533,-1.03871,-0.689862,-0.155603,-0.179947,-1.69761,-0.463105,-0.567898,0.162424
28,40,-1.0472,-0.698132,-0.174533,-0.174533,-1.03871,-0.689862,-0.155603,-0.179947,-1.69761,-0.463105,-0.567898,0.162424
28,40,-1.0472,-0.698132,-0.174533,-0.174533,-1.03871,-0.689862,-0.155603,-0.179947,-1.69761,-0.463105,-0.567898,0.162424
28,40,-1.0472,-0.698132,-0.174533,-0.174533,-1.03871,-0.689862,-0.155603,-0.179947,-1.69761,-0.463105,-0.567898,0.162424
28,40,-1.0472,-0.698132,-0.174533,-0.174533,-1.03871,-0.689862,-0.155603,-0.179947,-1.69761,-0.463105,-0.567898,0.162424
28,40,-1.0472,-0.698132,-0.174533,-0.174533,-1.03871,-0.689862,-0.155603,-0.179947,-1.69761,-0.463105,-0.567898,0.162424
28,40,-1.0472,-0.698132,-0.174533,-0.174533,-1.03871,-0.689862,-0.155603,-0.179947,-1.69761,-0.463105,-0.567898,0.162424
28,40,-1.0472,-0.698132,-0.174533,-0.174533,-1.03871,-0.689862,-0.155603,-0.179947,-1.69761,-0.463105,-0.567898,0.162424
28,40,-1.0472,-0.698132,-0.174533,-0.174533,-1.03871,-0.689862,-0.155603,-0.179947,-1.69761,-0.463105,-0.567898,0.162424
28,40,-1.0472,-0.698132,-0.174533,-0.174533,-1.03871,-0.689862,-0.155543,-0.179967,-1.69761,-0.463105,-0.569696,0.163014
28,40,-1.0472,-0.698132,-0.174533,-0.174533,-1.03871,-0.689862,-0.155543,-0.179967,-1.69761,-0.463105,-0.569696,0.163014
28,40,-1.0472,-0.698132,-0.174533,-0.174533,-1.03871,-0.689862,-0.155543,-0.179967,-1.69761,-0.463105,-0.569696,0.163014
28,40,-1.0472,-0.698132,-0.174533,-0.174533,-1.03871,-0.689862,-0.155543,-0.179967,-1.69761,-0.463105,-0.569696,0.163014
28,40,-1.0472,-0.698132,-0.174533,-0.174533,-1.03871,-0.689862,-0.155543,-0.179967,-1.69761,-0.463105,-0.569696,0.163014
28,40,-1.0472,-0.698132,-0.174533,-0.174533,-1.03871,-0.689862,-0.155543,-0.179967,-1.69761,-0.463105,-0.569696,0.163014
28,40,-1.0472,-0.698132,-0.174533,-0.174533,-1.03871,-0.689862,-0.155543,-0.179967,-1.69761,-0.463105,-0.569696,0.163014
28,40,-1.0472,-0.698132,-0.174533,-0.174533,-1.03871,-0.689862,-0.155543,-0.179967,-1.69761,-0.463105,-0.569696,0.163014
28,40,-1.0472,-0.698132,-0.174533,-0.174533,-1.03871,-0.689862,-0.155543,-0.179967,-1.69761,-0.463105,-0.569696,0.163014
28,40,-1.0472,-0.698132,-0.174533,-0.174533,-1.03871,-0.689862,-0.155543,-0.179967,-1.69761,-0.463105,-0.569696,0.163014
28,40,-1.0472,-0.698132,-0.174533,-0.174533,-1.03871,-0.689862,-0.155543,-0.179967,-1.69761,-0.463105,-0.569696,0.163014
28,40,-1.0472,-0.698132,-0.174533,-0.174533,-1.03871,-0.689862,-0.155543,-0.179967,-1.69761,-0.463105,-0.569696,0.163014
28,40,-1.0472,-0.698132,-0.174533,-0.174533,-1.03871,-0.689862,-0.155543,-0.179967,-1.69761,-0.463105,-0.569696,0.163014
28,40,-1.0472,-0.698132,-0.174533,-0.174533,-1.03871,-0.689862,-0.155543,-0.179967,-1.69761,-0.463105,-0.569696,0.163014
28,40,-1.0472,-0.698132,-0.174533,-0.174533,-1.03871,-0.689862,-0.155543,-0.179967,-1.69761,-0.463105,-0.569696,0.163014
28,40,-1.0472,-0.698132,-0.174533,-0.174533,-1.03871,-0.689862,-0.155543,-0.179967,-1.69761,-0.463105,-0.569696,0.163014
28,40,-1.0472,-0.698132,-0.174533,-0.174533,-1.03871,-0.689862,-0.155543,-0.179967,-1.69761,-0.463105,-0.569696,0.163014
28,40,-1.0472,-0.698132,-0.174533,-0.174533,-1.03871,-0.689862,-0.155543,-0.179967,-1.69761,-0.463105,-0.569696,0.163014
28,40,-1.0472,-0.698132,-0.174533,-0.174533,-1.03871,-0.689862,-0.155543,-0.179967,-1.69761,-0.463105,-0.569696,0.163014
28,40,-1.0472,-0.698132,-0.174533,-0.174533,-1.03871,-0.689862,-0.155543,-0.179967,-1.69761,-0.463105,-0.569696,0.163014
28,40,-1.0472,-0.698132,-0.174533,-0.174533,-1.03871,-0.689862,-0.155543,-0.179967,-1.69761,-0.463105,-0.569696,0.163014
28,40,-1.0472,-0.698132,-0.174533,-0.174533,-1.03871,-0.689862,-0.155543,-0.179967,-1.69761,-0.463105,-0.569696,0.163014
28,40,-1.0472,-0.698132,-0.174533,-0.174533,-1.03871,-0.689862,-0.155543,-0.179967,-1.69761,-0.463105,-0.569696,0.163014
28,40,-1.0472,-0.698132,-0.174533,-0.174533,-1.03871,-0.689862,-0.155543,-0.179967,-1.69761,-0.463105,-0.569696,0.163014
28,40,-1.0472,-0.698132,-0.174533,-0.174533,-1.03871,-0.689862,-0.155543,-0.179967,-1.69761,-0.463105,-0.569696,0.163014
28,40,-1.0472,-0.698132,-0.174533,-0.174533,-1.03871,-0.689862,-0.155543,-0.179967,-1.69761,-0.463105,-0.569696,0.163014
28,40,-1.0472,-0.698132,-0.174533,-0.174533,-1.03871,-0.689862,-0.155543,-0.179967,-1.69761,-0.463105,-0.569696,0.163014
28,40,-1.0472,-0.698132,-0.174533,-0.174533,-1.03871,-0.689862,-0.155543,-0.179967,-1.69761,-0.463105,-0.569696,0.163014
28,40,-1.0472,-0.698132,-0.174533,-0.174533,-1.03871,-0.689862,-0.155543,-0.179967,-1.69761,-0.463105,-0.569696,0.163014
28,40,-1.0472,-0.698132,-0.174533,-0.174533,-1.03871,-0.689862,-0.155543,-0.179967,-1.69761,-0.463105,-0.569696,0.163014
28,40,-1.0472,-0.698132,-0.174533,-0.174533,-1.03871,-0.689862,-0.155543,-0.179967,-1.69761,-0.463105,-0.569696,0.163014
28,40,-1.0472,-0.698132,-0.174533,-0.174533,-1.03871,-0.689862,-0.155543,-0.179967,-1.69761,-0.463105,-0.569696,0.163014
28,40,-1.0472,-0.698132,-0.174533,-0.174533,-1.03871,-0.689862,-0.155543,-0.179967,-1.69761,-0.463105,-0.569696,0.163014
28,40,-1.0472,-0.698132,-0.174533,-0.174533,-1.03871,-0.689862,-0.155543,-0.179967,-1.69761,-0.463105,-0.569696,0.163014
28,40,-1.0472,-0.698132,-0.174533,-0.174533,-1.03871,-0.689862,-0.155543,-0.179967,-1.69761,-0.463105,-0.569696,0.163014
28,40,-1.0472,-0.698132,-0.174533,-0.174533,-1.03871,-0.689862,-0.155543,-0.179967,-1.69761,-0.463105,-0.569696,0.163014
28,40,-1.0472,-0.698132,-0.174533,-0.174533,-1.03871,-0.689862,-0.155543,-0.179967,-1.69761,-0.463105,-0.569696,0.163014
28,40,-1.0472,-0.698132,-0.174533,-0.174533,-1.03871,-0.689862,-0.155543,-0.179967,-1.69761,-0.463105,-0.569696,0.163014
28,40,-1.0472,-0.698132,-0.174533,-0.174533,-1.03871,-0.689862,-0.155608,-0.180008,-1.69761,-0.463105,-0.567758,0.164262
28,40,-1.0472,-0.698132,-0.174533,-0.174533,-1.03871,-0.689862,-0.155608,-0.180008,-1.69761,-0.463105,-0.567758,0.164262
28,40,-1.0472,-0.698132,-0.174533,-0.174533,-1.03871,-0.689862,-0.155608,-0.180008,-1.69761,-0.463105,-0.567758,0.164262
28,40,-1.0472,-0.698132,-0.174533,-0.174533,-1.03871,-0.689862,-0.155608,-0.180008,-1.69761,-0.463105,-0.567758,0.164262
28,40,-1.0472,-0.698132,-0.174533,-0.174533,-1.03871,-0.689862,-0.155608,-0.180008,-1.69761,-0.463105,-0.567758,0.164262
28,40,-1.0472,-0.698132,-0.174533,-0.174533,-1.03871,-0.689862,-0.155608,-0.180008,-1.69761,-0.463105,-0.567758,0.164262
28,40,-1.0472,-0.698132,-0.174533,-0.174533,-1.03871,-0.689862,-0.155608,-0.180008,-1.69761,-0.463105,-0.567758,0.164262
28,40,-1.0472,-0.698132,-0.174533,-0.174533,-1.03871,-0.689862,-0.155605,-0.179949,-1.69761,-0.463105,-0.567824,0.162478
28,40,-1.0472,-0.698132,-0.174533,-0.174533,-1.03871,-0.689862,-0.155605,-0.179949,-1.69761,-0.463105,-0.567824,0.162478
28,40,-1.0472,-0.698132,-0.174533,-0.174533,-1.03871,-0.689862,-0.155605,-0.179949,-1.69761,-0.463105,-0.567824,0.162478
28,40,-1.0472,-0.698132,-0.174533,-0.174533,-1.03871,-0.689862,-0.155605,-0.179949,-1.69761,-0.463105,-0.567824,0.162478
28,40,-1.0472,-0.698132,-0.174533,-0.174533,-1.03871,-0.689862,-0.155605,-0.179949,-1.69761,-0.463105,-0.567824,0.162478
28,40,-1.0472,-0.698132,-0.174533,-0.174533,-1.03871,-0.689862,-0.155605,-0.179949,-1.69761,-0.463105,-0.567824,0.162478
28,40,-1.0472,-0.698132,-0.174533,-0.174533,-1.03871,-0.689862,-0.155605,-0.179949,-1.69761,-0.463105,-0.567824,0.162478
28,40,-1.0472,-0.698132,-0.174533,-0.174533,-1.03871,-0.689862,-0.155605,-0.179949,-1.69761,-0.463105,-0.567824,0.162478
28,40,-1.0472,-0.698132,-0.174533,-0.174533,-1.03871,-0.689862,-0.155605,-0.179949,-1.69761,-0.463105,-0.567824,0.162478
28,40,-1.0472,-0.698132,-0.174533,-0.174533,-1.03871,-0.689862,-0.155605,-0.179949,-1.69761,-0.463105,-0.567824,0.162478
28,40,-1.0472,-0.698132,-0.174533,-0.174533,-1.03871,-0.689862,-0.155605,-0.179949,-1.69761,-0.463105,-0.567824,0.162478
28,40,-1.0472,-0.698132,-0.174533,-0.174533,-1.03871,-0.689862,-0.155605,-0.179949,-1.69761,-0.463105,-0.567824,0.162478
28,40,-1.0472,-0.698132,-0.174533,-0.174533,-1.03871,-0.689862,-0.155605,-0.179949,-1.69761,-0.463105,-0.567824,0.162478
28,40,-1.0472,-0.698132,-0.174533,-0.174533,-1.03871,-0.689862,-0.155605,-0.179949,-1.69761,-0.463105,-0.567824,0.162478
28,40,-1.0472,-0.698132,-0.174533,-0.174533,-1.03871,-0.689862,-0.155605,-0.179949,-1.69761,-0.463105,-0.567824,0.162478
28,40,-1.0472,-0.698132,-0.174533,-0.174533,-1.03871,-0.689862,-0.155605,-0.179949,-1.69761,-0.463105,-0.567824,0.162478
28,40,-1.0472,-0.698132,-0.174533,-0.174533,-1.03871,-0.689862,-0.155605,-0.179949,-1.69761,-0.463105,-0.567824,0.162478
28,40,-1.0472,-0.698132,-0.174533,-0.174533,-1.03871,-0.689862,-0.155605,-0.179949,-1.69761,-0.463105,-0.567824,0.162478
28,40,-1.0472,-0.698132,-0.174533,-0.174533,-1.03871,-0.689862,-0.155605,-0.179949,-1.69761,-0.463105,-0.567824,0.162478
28,40,-1.0472,-0.698132,-0.174533,-0.174533,-1.03871,-0.689862,-0.155605,-0.179949,-1.69761,-0.463105,-0.567824,0.162478
28,40,-1.0472,-0.698132,-0.174533,-0.174533,-1.03871,-0.689862,-0.155605,-0.179949,-1.69761,-0.463105,-0.567824,0.162478
28,40,-1.0472,-0.698132,-0.174533,-0.174533,-1.03871,-0.689862,-0.155605,-0.179949,-1.69761,-0.463105,-0.567824,0.162478
28,40,-1.0472,-0.698132,-0.174533,-0.174533,-1.03871,-0.689862,-0.155605,-0.179949,-1.69761,-0.463105,-0.567824,0.162478
28,40,-1.0472,-0.698132,-0.174533,-0.174533,-1.03871,-0.689862,-0.155605,-0.179949,-1.69761,-0.463105,-0.567824,0.162478
28,40,-1.0472,-0.698132,-0.174533,-0.174533,-1.03871,-0.689862,-0.155605,-0.179949,-1.69761,-0.463105,-0.567824,0.162478
28,40,-1.0472,-0.698132,-0.174533,-0.174533,-1.03871,-0.689862,-0.155605,-0.179949,-1.69761,-0.463105,-0.567824,0.162478
28,40,-1.0472,-0.698132,-0.174533,-0.174533,-1.03871,-0.689862,-0.155605,-0.179949,-1.69761,-0.463105,-0.567824,0.162478
28,40,-1.0472,-0.698132,-0.174533,-0.174533,-1.03871,-0.689862,-0.155605,-0.179949,-1.69761,-0.463105,-0.567824,0.162478
28,40,-1.0472,-0.698132,-0.174533,-0.174533,-1.03871,-0.689862,-0.155605,-0.179949,-1.69761,-0.463105,-0.567824,0.162478
28,40,-1.0472,-0.698132,-0.174533,-0.174533,-1.03871,-0.689862,-0.155605,-0.179949,-1.69761,-0.463105,-0.567824,0.162478
28,40,-1.0472,-0.698132,-0.174533,-0.174533,-1.03871,-0.689862,-0.155605,-0.179949,-1.69761,-0.463105,-0.567824,0.162478
28,40,-1.0472,-0.698132,-0.174533,-0.174533,-1.03871,-0.689862,-0.155605,-0.179949,-1.69761,-0.463105,-0.567824,0.162478
28,40,-1.0472,-0.698132,-0.174533,-0.174533,-1.03871,-0.689862,-0.155605,-0.179949,-1.69761,-0.463105,-0.567824,0.162478
28,40,-1.0472,-0.698132,-0.174533,-0.174533,-1.03871,-0.689862,-0.155605,-0.179949,-1.69761,-0.463105,-0.567824,0.162478
28,40,-1.0472,-0.698132,-0.174533,-0.174533,-1.03871,-0.689862,-0.155605,-0.179949,-1.69761,-0.463105,-0.567824,0.162478
28,40,-1.0472,-0.698132,-0.174533,-0.174533,-1.03871,-0.689862,-0.155605,-0.179949,-1.69761,-0.463105,-0.567824,0.162478
28,40,-1.0472,-0.698132,-0.174533,-0.174533,-1.03871,-0.689862,-0.155605,-0.179949,-1.69761,-0.463105,-0.567824,0.162478
28,40,-1.0472,-0.698132,-0.174533,-0.174533,-1.03871,-0.689862,-0.155605,-0.179949,-1.69761,-0.463105,-0.567824,0.162478
28,40,-1.0472,-0.698132,-0.174533,-0.174533,-1.03871,-0.689862,-0.155605,-0.179949,-1.69761,-0.463105,-0.567824,0.162478
28,40,-1.0472,-0.698132,-0.174533,-0.174533,-1.03871,-0.689862,-0.155605,-0.179949,-1.69761,-0.463105,-0.567824,0.162478
28,40,-1.0472,-0.698132,-0.174533,-0.174533,-1.03871,-0.689862,-0.155605,-0.179949,-1.69761,-0.463105,-0.567824,0.162478
28,40,-1.0472,-0.698132,-0.174533,-0.174533,-1.03871,-0.689862,-0.15567,-0.17999,-1.69761,-0.463105,-0.565886,0.163727
28,40,-1.0472,-0.698132,-0.174533,-0.174533,-1.03871,-0.689862,-0.15567,-0.17999,-1.69761,-0.463105,-0.565886,0.163727
28,40,-1.0472,-0.698132,-0.174533,-0.174533,-1.03871,-0.689862,-0.15567,-0.17999,-1.69761,-0.463105,-0.565886,0.163727
28,40,-1.0472,-0.698132,-0.174533,-0.174533,-1.03871,-0.689862,-0.15567,-0.17999,-1.69761,-0.463105,-0.565886,0.163727
28,40,-1.0472,-0.698132,-0.174533,-0.174533,-1.03871,-0.689862,-0.15567,-0.17999,-1.69761,-0.463105,-0.565886,0.163727
28,40,-1.0472,-0.698132,-0.174533,-0.174533,-1.03871,-0.689862,-0.15567,-0.17999,-1.69761,-0.463105,-0.565886,0.163727
28,40,-1.0472,-0.698132,-0.174533,-0.174533,-1.03871,-0.689862,-0.15567,-0.17999,-1.69761,-0.463105,-0.565886,0.163727
28,40,-1.0472,-0.698132,-0.174533,-0.174533,-1.03871,-0.689862,-0.15567,-0.17999,-1.69761,-0.463105,-0.565886,0.163727
28,40,-1.0472,-0.698132,-0.174533,-0.174533,-1.03871,-0.689862,-0.15567,-0.17999,-1.69761,-0.463105,-0.565886,0.163727
28,40,-1.0472,-0.698132,-0.174533,-0.174533,-1.03871,-0.689862,-0.15567,-0.17999,-1.69761,-0.463105,-0.565886,0.163727
28,40,-1.0472,-0.698132,-0.174533,-0.174533,-1.03871,-0.689862,-0.15567,-0.17999,-1.69761,-0.463105,-0.565886,0.163727
28,40,-1.0472,-0.698132,-0.174533,-0.174533,-1.03871,-0.689862,-0.15567,-0.17999,-1.69761,-0.463105,-0.565886,0.163727
28,40,-1.0472,-0.698132,-0.174533,-0.174533,-1.03871,-0.689862,-0.15567,-0.17999,-1.69761,-0.463105,-0.565886,0.163727
28,40,-1.0472,-0.698132,-0.174533,-0.174533,-1.03871,-0.689862,-0.15567,-0.17999,-1.69761,-0.463105,-0.565886,0.163727
28,40,-1.0472,-0.698132,-0.174533,-0.174533,-1.03871,-0.689862,-0.15567,-0.17999,-1.69761,-0.463105,-0.565886,0.163727
28,40,-1.0472,-0.698132,-0.174533,-0.174533,-1.03871,-0.689862,-0.15567,-0.17999,-1.69761,-0.463105,-0.565886,0.163727
28,40,-1.0472,-0.698132,-0.174533,-0.174533,-1.03871,-0.689862,-0.15567,-0.17999,-1.69761,-0.463105,-0.565886,0.163727
28,40,-1.0472,-0.698132,-0.174533,-0.174533,-1.03871,-0.689862,-0.15567,-0.17999,-1.69761,-0.463105,-0.565886,0.163727
28,40,-1.0472,-0.698132,-0.174533,-0.174533,-1.03871,-0.689862,-0.15567,-0.17999,-1.69761,-0.463105,-0.565886,0.163727
28,40,-1.0472,-0.698132,-0.174533,-0.174533,-1.03871,-0.689862,-0.15567,-0.17999,-1.69761,-0.463105,-0.565886,0.163727
28,40,-1.0472,-0.698132,-0.174533,-0.174533,-1.03871,-0.689862,-0.15567,-0.17999,-1.69761,-0.463105,-0.565886,0.163727
28,40,-1.0472,-0.698132,-0.174533,-0.174533,-1.03871,-0.689862,-0.15567,-0.17999,-1.69761,-0.463105,-0.565886,0.163727
28,40,-1.0472,-0.698132,-0.174533,-0.174533,-1.03871,-0.689862,-0.15567,-0.17999,-1.69761,-0.463105,-0.565886,0.163727
28,40,-1.0472,-0.698132,-0.174533,-0.174533,-1.03871,-0.689862,-0.15567,-0.17999,-1.69761,-0.463105,-0.565886,0.163727
28,40,-1.0472,-0.698132,-0.174533,-0.174533,-1.03871,-0.689862,-0.15567,-0.17999,-1.69761,-0.463105,-0.565886,0.163727
28,40,-1.0472,-0.698132,-0.174533,-0.174533,-1.03871,-0.689862,-0.15567,-0.17999,-1.69761,-0.463105,-0.565886,0.163727
28,40,-1.0472,-0.698132,-0.174533,-0.174533,-1.03871,-0.689862,-0.15567,-0.17999,-1.69761,-0.463105,-0.565886,0.163727
28,40,-1.0472,-0.698132,-0.174533,-0.174533,-1.03871,-0.689862,-0.15567,-0.17999,-1.69761,-0.463105,-0.565886,0.163727
28,40,-1.0472,-0.698132,-0.174533,-0.174533,-1.03871,-0.689862,-0.15567,-0.17999,-1.69761,-0.463105,-0.565886,0.163727
28,40,-1.0472,-0.698132,-0.174533,-0.174533,-1.03871,-0.689862,-0.15567,-0.17999,-1.69761,-0.463105,-0.565886,0.163727
28,40,-1.0472,-0.698132,-0.174533,-0.174533,-1.03871,-0.689862,-0.15567,-0.17999,-1.69761,-0.463105,-0.565886,0.163727
28,40,-1.0472,-0.698132,-0.174533,-0.174533,-1.03871,-0.689862,-0.15567,-0.17999,-1.69761,-0.463105,-0.565886,0.163727
28,40,-1.0472,-0.698132,-0.174533,-0.174533,-1.03871,-0.689862,-0.15567,-0.17999,-1.69761,-0.463105,-0.565886,0.163727
28,40,-1.0472,-0.698132,-0.174533,-0.174533,-1.03871,-0.689862,-0.15567,-0.17999,-1.69761,-0.463105,-0.565886,0.163727
28,40,-1.0472,-0.698132,-0.174533,-0.174533,-1.03871,-0.689862,-0.15567,-0.17999,-1.69761,-0.463105,-0.565886,0.163727
28,40,-1.0472,-0.698132,-0.174533,-0.174533,-1.03871,-0.689862,-0.15567,-0.17999,-1.69761,-0.463105,-0.565886,0.163727
28,40,-1.0472,-0.698132,-0.174533,-0.174533,-1.03871,-0.689862,-0.15567,-0.17999,-1.69761,-0.463105,-0.565886,0.163727
28,40,-1.0472,-0.698132,-0.174533,-0.174533,-1.03871,-0.689862,-0.15567,-0.17999,-1.69761,-0.463105,-0.565886,0.163727
28,40,-1.0472,-0.698132,-0.174533,-0.174533,-1.03871,-0.689862,-0.15567,-0.17999,-1.69761,-0.463105,-0.565886,0.163727
28,40,-1.0472,-0.698132,-0.174533,-0.174533,-1.03871,-0.689862,-0.15567,-0.17999,-1.69761,-0.463105,-0.565886,0.163727
28,40,-1.0472,-0.698132,-0.174533,-0.174533,-1.03871,-0.689862,-0.15567,-0.17999,-1.69761,-0.463105,-0.565886,0.163727
28,40,-1.0472,-0.698132,-0.174533,-0.174533,-1.03871,-0.689862,-0.15567,-0.17999,-1.69761,-0.463105,-0.565886,0.163727
28,40,-1.0472,-0.698132,-0.174533,-0.174533,-1.03871,-0.689862,-0.15567,-0.17999,-1.69761,-0.463105,-0.565886,0.163727
28,40,-1.0472,-0.698132,-0.174533,-0.174533,-1.03871,-0.689862,-0.15567,-0.17999,-1.69761,-0.463105,-0.565886,0.163727
28,40,-1.0472,-0.698132,-0.174533,-0.174533,-1.03871,-0.689862,-0.15567,-0.17999,-1.69761,-0.463105,-0.565886,0.163727
28,40,-1.0472,-0.698132,-0.174533,-0.174533,-1.03871,-0.689862,-0.15567,-0.17999,-1.69761,-0.463105,-0.565886,0.163727
28,40,-1.0472,-0.698132,-0.174533,-0.174533,-1.03871,-0.689862,-0.15567,-0.17999,-1.69761,-0.463105,-0.565886,0.163727
28,40,-1.0472,-0.698132,-0.174533,-0.174533,-1.03871,-0.689862,-0.15567,-0.17999,-1.69761,-0.463105,-0.565886,0.163727
28,40,-1.0472,-0.698132,-0.174533,-0.174533,-1.03871,-0.689862,-0.15567,-0.17999,-1.69761,-0.463105,-0.565886,0.163727
28,40,-1.0472,-0.698132,-0.174533,-0.174533,-1.03871,-0.689862,-0.15567,-0.17999,-1.69761,-0.463105,-0.565886,0.163727
28,40,-1.0472,-0.698132,-0.174533,-0.174533,-1.03871,-0.689862,-0.15567,-0.17999,-1.69761,-0.463105,-0.565886,0.163727
28,40,-1.0472,-0.698132,-0.174533,-0.174533,-1.03871,-0.689862,-0.15567,-0.17999,-1.69761,-0.463105,-0.565886,0.163727
28,40,-1.0472,-0.698132,-0.174533,-0.174533,-1.03871,-0.689862,-0.15567,-0.17999,-1.69761,-0.463105,-0.565886,0.163727
28,40,-1.0472,-0.698132,-0.174533,-0.174533,-1.03871,-0.689862,-0.15567,-0.17999,-1.69761,-0.463105,-0.565886,0.163727
28,40,-1.0472,-0.698132,-0.174533,-0.174533,-1.03871,-0.689862,-0.15567,-0.17999,-1.69761,-0.463105,-0.565886,0.163727
28,40,-1.0472,-0.698132,-0.174533,-0.174533,-1.03871,-0.689862,-0.15567,-0.17999,-1.69761,-0.463105,-0.565886,0.163727
28,40,-1.0472,-0.698132,-0.174533,-0.174533,-1.03871,-0.689862,-0.15567,-0.17999,-1.69761,-0.463105,-0.565886,0.163727
28,40,-1.0472,-0.698132,-0.174533,-0.174533,-1.03871,-0.689862,-0.15567,-0.17999,-1.69761,-0.463105,-0.565886,0.163727
28,40,-1.0472,-0.698132,-0.174533,-0.174533,-1.03871,-0.689862,-0.15567,-0.17999,-1.69761,-0.463105,-0.565886,0.163727
28,40,-1.0472,-0.698132,-0.174533,-0.174533,-1.03871,-0.689862,-0.15567,-0.17999,-1.69761,-0.463105,-0.565886,0.163727
28,40,-1.0472,-0.698132,-0.174533,-0.174533,-1.03871,-0.689862,-0.15567,-0.17999,-1.69761,-0.463105,-0.565886,0.163727
28,40,-1.0472,-0.698132,-0.174533,-0.174533,-1.03871,-0.689862,-0.15567,-0.17999,-1.69761,-0.463105,-0.565886,0.163727
28,40,-1.0472,-0.698132,-0.174533,-0.174533,-1.03871,-0.689862,-0.15567,-0.17999,-1.69761,-0.463105,-0.565886,0.163727
28,40,-1.0472,-0.698132,-0.174533,-0.174533,-1.03871,-0.689862,-0.15567,-0.17999,-1.69761,-0.463105,-0.565886,0.163727
28,40,-1.0472,-0.698132,-0.174533,-0.174533,-1.03871,-0.689862,-0.15567,-0.17999,-1.69761,-0.463105,-0.565886,0.163727
28,40,-1.0472,-0.698132,-0.174533,-0.174533,-1.03871,-0.689862,-0.15567,-0.17999,-1.69761,-0.463105,-0.565886,0.163727
28,40,-1.0472,-0.698132,-0.174533,-0.174533,-1.03871,-0.689862,-0.15567,-0.17999,-1.69761,-0.463105,-0.565886,0.163727
28,40,-1.0472,-0.698132,-0.174533,-0.174533,-1.03871,-0.689862,-0.15567,-0.17999,-1.69761,-0.463105,-0.565886,0.163727
28,40,-1.0472,-0.698132,-0.174533,-0.174533,-1.03871,-0.689862,-0.15567,-0.17999,-1.69761,-0.463105,-0.565886,0.163727
28,40,-1.0472,-0.698132,-0.174533,-0.174533,-1.03871,-0.689862,-0.15567,-0.17999,-1.69761,-0.463105,-0.565886,0.163727
28,40,-1.0472,-0.698132,-0.174533,-0.174533,-1.03871,-0.689862,-0.15567,-0.17999,-1.69761,-0.463105,-0.565886,0.163727
28,40,-1.0472,-0.698132,-0.174533,-0.174533,-1.03871,-0.689862,-0.15567,-0.17999,-1.69761,-0.463105,-0.565886,0.163727
28,40,-1.0472,-0.698132,-0.174533,-0.174533,-1.03871,-0.689862,-0.155735,-0.180032,-1.69761,-0.463105,-0.563947,0.164976
28,40,-1.0472,-0.698132,-0.174533,-0.174533,-1.03871,-0.689862,-0.155735,-0.180032,-1.69761,-0.463105,-0.563947,0.164976
28,40,-1.0472,-0.698132,-0.174533,-0.174533,-1.03871,-0.689862,-0.155735,-0.180032,-1.69761,-0.463105,-0.563947,0.164976
28,40,-1.0472,-0.698132,-0.174533,-0.174533,-1.03871,-0.689862,-0.155735,-0.180032,-1.69761,-0.463105,-0.563947,0.164976
28,40,-1.0472,-0.698132,-0.174533,-0.174533,-1.03871,-0.689862,-0.155735,-0.180032,-1.69761,-0.463105,-0.563947,0.164976
28,40,-1.0472,-0.698132,-0.174533,-0.174533,-1.03871,-0.689862,-0.155735,-0.180032,-1.69761,-0.463105,-0.563947,0.164976
28,40,-1.0472,-0.698132,-0.174533,-0.174533,-1.03871,-0.689862,-0.155735,-0.180032,-1.69761,-0.463105,-0.563947,0.164976
28,40,-1.0472,-0.698132,-0.174533,-0.174533,-1.03871,-0.689862,-0.155735,-0.180032,-1.69761,-0.463105,-0.563947,0.164976
28,40,-1.0472,-0.698132,-0.174533,-0.174533,-1.03871,-0.689862,-0.155735,-0.180032,-1.69761,-0.463105,-0.563947,0.164976
28,40,-1.0472,-0.698132,-0.174533,-0.174533,-1.03871,-0.689862,-0.155735,-0.180032,-1.69761,-0.463105,-0.563947,0.164976
28,40,-1.0472,-0.698132,-0.174533,-0.174533,-1.03871,-0.689862,-0.155735,-0.180032,-1.69761,-0.463105,-0.563947,0.164976
28,40,-1.0472,-0.698132,-0.174533,-0.174533,-1.03871,-0.689862,-0.155735,-0.180032,-1.69761,-0.463105,-0.563947,0.164976
28,40,-1.0472,-0.698132,-0.174533,-0.174533,-1.03871,-0.689862,-0.155735,-0.180032,-1.69761,-0.463105,-0.563947,0.164976
28,40,-1.0472,-0.698132,-0.174533,-0.174533,-1.03871,-0.689862,-0.155735,-0.180032,-1.69761,-0.463105,-0.563947,0.164976
28,40,-1.0472,-0.698132,-0.174533,-0.174533,-1.03871,-0.689862,-0.155735,-0.180032,-1.69761,-0.463105,-0.563947,0.164976
28,40,-1.0472,-0.698132,-0.174533,-0.174533,-1.03871,-0.689862,-0.155735,-0.180032,-1.69761,-0.463105,-0.563947,0.164976
28,40,-1.0472,-0.698132,-0.174533,-0.174533,-1.03871,-0.689862,-0.155735,-0.180032,-1.69761,-0.463105,-0.563947,0.164976
28,40,-1.0472,-0.698132,-0.174533,-0.174533,-1.03871,-0.689862,-0.155735,-0.180032,-1.69761,-0.463105,-0.563947,0.164976
28,40,-1.0472,-0.698132,-0.174533,-0.174533,-1.03871,-0.689862,-0.155735,-0.180032,-1.69761,-0.463105,-0.563947,0.164976
28,40,-1.0472,-0.698132,-0.174533,-0.174533,-1.03871,-0.689862,-0.155735,-0.180032,-1.69761,-0.463105,-0.563947,0.164976
28,40,-1.0472,-0.698132,-0.174533,-0.174533,-1.03871,-0.689862,-0.155735,-0.180032,-1.69761,-0.463105,-0.563947,0.164976
28,40,-1.0472,-0.698132,-0.174533,-0.174533,-1.03871,-0.689862,-0.155735,-0.180032,-1.69761,-0.463105,-0.563947,0.164976
28,40,-1.0472,-0.698132,-0.174533,-0.174533,-1.03871,-0.689862,-0.155735,-0.180032,-1.69761,-0.463105,-0.563947,0.164976
28,40,-1.0472,-0.698132,-0.174533,-0.174533,-1.03871,-0.689862,-0.155735,-0.180032,-1.69761,-0.463105,-0.563947,0.164976
28,40,-1.0472,-0.698132,-0.174533,-0.174533,-1.03871,-0.689862,-0.155735,-0.180032,-1.69761,-0.463105,-0.563947,0.164976
28,40,-1.0472,-0.698132,-0.174533,-0.174533,-1.03871,-0.689862,-0.155735,-0.180032,-1.69761,-0.463105,-0.563947,0.164976
28,40,-1.0472,-0.698132,-0.174533,-0.174533,-1.03871,-0.689862,-0.155735,-0.180032,-1.69761,-0.463105,-0.563947,0.164976
28,40,-1.0472,-0.698132,-0.174533,-0.174533,-1.03871,-0.689862,-0.155735,-0.180032,-1.69761,-0.463105,-0.563947,0.164976
28,40,-1.0472,-0.698132,-0.174533,-0.174533,-1.03871,-0.689862,-0.155735,-0.180032,-1.69761,-0.463105,-0.563947,0.164976
28,40,-1.0472,-0.698132,-0.174533,-0.174533,-1.03871,-0.689862,-0.155735,-0.180032,-1.69761,-0.463105,-0.563947,0.164976
28,40,-1.0472,-0.698132,-0.174533,-0.174533,-1.03871,-0.689862,-0.155735,-0.180032,-1.69761,-0.463105,-0.563947,0.164976
28,40,-1.0472,-0.698132,-0.174533,-0.174533,-1.03871,-0.689862,-0.155735,-0.180032,-1.69761,-0.463105,-0.563947,0.164976
28,40,-1.0472,-0.698132,-0.174533,-0.174533,-1.03871,-0.689862,-0.155735,-0.180032,-1.69761,-0.463105,-0.563947,0.164976
28,40,-1.0472,-0.698132,-0.174533,-0.174533,-1.03871,-0.689862,-0.155735,-0.180032,-1.69761,-0.463105,-0.563947,0.164976
28,40,-1.0472,-0.698132,-0.174533,-0.174533,-1.03871,-0.689862,-0.155735,-0.180032,-1.69761,-0.463105,-0.563947,0.164976
28,40,-1.0472,-0.698132,-0.174533,-0.174533,-1.03871,-0.689862,-0.155735,-0.180032,-1.69761,-0.463105,-0.563947,0.164976
28,40,-1.0472,-0.698132,-0.174533,-0.174533,-1.03871,-0.689862,-0.155735,-0.180032,-1.69761,-0.463105,-0.563947,0.164976
28,40,-1.0472,-0.698132,-0.174533,-0.174533,-1.03871,-0.689862,-0.155735,-0.180032,-1.69761,-0.463105,-0.563947,0.164976
28,40,-1.0472,-0.698132,-0.174533,-0.174533,-1.03871,-0.689862,-0.155735,-0.180032,-1.69761,-0.463105,-0.563947,0.164976
28,40,-1.0472,-0.698132,-0.174533,-0.174533,-1.03871,-0.689862,-0.155735,-0.180032,-1.69761,-0.463105,-0.563947,0.164976
28,40,-1.0472,-0.698132,-0.174533,-0.174533,-1.03871,-0.689862,-0.155735,-0.180032,-1.69761,-0.463105,-0.563947,0.164976
28,40,-1.0472,-0.698132,-0.174533,-0.174533,-1.03871,-0.689862,-0.155735,-0.180032,-1.69761,-0.463105,-0.563947,0.164976
28,40,-1.0472,-0.698132,-0.174533,-0.174533,-1.03871,-0.689862,-0.155735,-0.180032,-1.69761,-0.463105,-0.563947,0.164976
28,40,-1.0472,-0.698132,-0.174533,-0.174533,-1.03871,-0.689862,-0.155735,-0.180032,-1.69761,-0.463105,-0.563947,0.164976
28,40,-1.0472,-0.698132,-0.174533,-0.174533,-1.03871,-0.689862,-0.155735,-0.180032,-1.69761,-0.463105,-0.563947,0.164976
28,40,-1.0472,-0.698132,-0.174533,-0.174533,-1.03871,-0.689862,-0.155735,-0.180032,-1.69761,-0.463105,-0.563947,0.164976
28,40,-1.0472,-0.698132,-0.174533,-0.174533,-1.03871,-0.689862,-0.155735,-0.180032,-1.69761,-0.463105,-0.563947,0.164976
28,40,-1.0472,-0.698132,-0.174533,-0.174533,-1.03871,-0.689862,-0.155735,-0.180032,-1.69761,-0.463105,-0.563947,0.164976
28,40,-1.0472,-0.698132,-0.174533,-0.174533,-1.03871,-0.689862,-0.155735,-0.180032,-1.69761,-0.463105,-0.563947,0.164976
28,40,-1.0472,-0.698132,-0.174533,-0.174533,-1.03871,-0.689862,-0.155735,-0.180032,-1.69761,-0.463105,-0.563947,0.164976
28,40,-1.0472,-0.698132,-0.174533,-0.174533,-1.03871,-0.689862,-0.155735,-0.180032,-1.69761,-0.463105,-0.563947,0.164976
28,40,-1.0472,-0.698132,-0.174533,-0.174533,-1.03871,-0.689862,-0.155735,-0.180032,-1.69761,-0.463105,-0.563947,0.164976
28,40,-1.0472,-0.698132,-0.174533,-0.174533,-1.03871,-0.689862,-0.155735,-0.180032,-1.69761,-0.463105,-0.563947,0.164976
28,40,-1.0472,-0.698132,-0.174533,-0.174533,-1.03871,-0.689862,-0.155735,-0.180032,-1.69761,-0.463105,-0.563947,0.164976
28,40,-1.0472,-0.698132,-0.174533,-0.174533,-1.03871,-0.689862,-0.155735,-0.180032,-1.69761,-0.463105,-0.563947,0.164976
28,40,-1.0472,-0.698132,-0.174533,-0.174533,-1.03871,-0.689862,-0.155735,-0.180032,-1.69761,-0.463105,-0.563947,0.164976
28,40,-1.0472,-0.698132,-0.174533,-0.174533,-1.03871,-0.689862,-0.155735,-0.180032,-1.69761,-0.463105,-0.563947,0.164976
28,40,-1.0472,-0.698132,-0.174533,-0.174533,-1.03871,-0.689862,-0.155735,-0.180032,-1.69761,-0.463105,-0.563947,0.164976
28,40,-1.0472,-0.698132,-0.174533,-0.174533,-1.03871,-0.689862,-0.155735,-0.180032,-1.69761,-0.463105,-0.563947,0.164976
28,40,-1.0472,-0.698132,-0.174533,-0.174533,-1.03871,-0.689862,-0.155735,-0.180032,-1.69761,-0.463105,-0.563947,0.164976
28,40,-1.0472,-0.698132,-0.174533,-0.174533,-1.03871,-0.689862,-0.155735,-0.180032,-1.69761,-0.463105,-0.563947,0.164976
28,40,-1.0472,-0.698132,-0.174533,-0.174533,-1.03871,-0.689862,-0.155735,-0.180032,-1.69761,-0.463105,-0.563947,0.164976
28,40,-1.0472,-0.698132,-0.174533,-0.174533,-1.03871,-0.689862,-0.155735,-0.180032,-1.69761,-0.463105,-0.563947,0.164976
28,40,-1.0472,-0.698132,-0.174533,-0.174533,-1.03871,-0.689862,-0.155735,-0.180032,-1.69761,-0.463105,-0.563947,0.164976
28,40,-1.0472,-0.698132,-0.174533,-0.174533,-1.03871,-0.689862,-0.155735,-0.180032,-1.69761,-0.463105,-0.563947,0.164976
28,40,-1.0472,-0.698132,-0.174533,-0.174533,-1.03871,-0.689862,-0.155735,-0.180032,-1.69761,-0.463105,-0.563947,0.164976
28,40,-1.0472,-0.698132,-0.174533,-0.174533,-1.03871,-0.689862,-0.155735,-0.180032,-1.69761,-0.463105,-0.563947,0.164976
28,40,-1.0472,-0.698132,-0.174533,-0.174533,-1.03871,-0.689862,-0.155735,-0.180032,-1.69761,-0.463105,-0.563947,0.164976
28,40,-1.0472,-0.698132,-0.174533,-0.174533,-1.03871,-0.689862,-0.155735,-0.180032,-1.69761,-0.463105,-0.563947,0.164976
28,40,-1.0472,-0.698132,-0.174533,-0.174533,-1.03871,-0.689862,-0.155735,-0.180032,-1.69761,-0.463105,-0.563947,0.164976
28,40,-1.0472,-0.698132,-0.174533,-0.174533,-1.03871,-0.689862,-0.155735,-0.180032,-1.69761,-0.463105,-0.563947,0.164976
28,40,-1.0472,-0.698132,-0.174533,-0.174533,-1.03871,-0.689862,-0.155735,-0.180032,-1.69761,-0.463105,-0.563947,0.164976
28,40,-1.0472,-0.698132,-0.174533,-0.174533,-1.03871,-0.689862,-0.155735,-0.180032,-1.69761,-0.463105,-0.563947,0.164976
28,40,-1.0472,-0.698132,-0.174533,-0.174533,-1.03871,-0.689862,-0.155735,-0.180032,-1.69761,-0.463105,-0.563947,0.164976
28,40,-1.0472,-0.698132,-0.174533,-0.174533,-1.03871,-0.689862,-0.155735,-0.180032,-1.69761,-0.463105,-0.563947,0.164976
28,40,-1.0472,-0.698132,-0.174533,-0.174533,-1.03871,-0.689862,-0.155735,-0.180032,-1.69761,-0.463105,-0.563947,0.164976
28,40,-1.0472,-0.698132,-0.174533,-0.174533,-1.03871,-0.689862,-0.155735,-0.180032,-1.69761,-0.463105,-0.563947,0.164976
28,40,-1.0472,-0.698132,-0.174533,-0.174533,-1.03871,-0.689862,-0.155735,-0.180032,-1.69761,-0.463105,-0.563947,0.164976
28,40,-1.0472,-0.698132,-0.174533,-0.174533,-1.03871,-0.689862,-0.155735,-0.180032,-1.69761,-0.463105,-0.563947,0.164976
28,40,-1.0472,-0.698132,-0.174533,-0.174533,-1.03871,-0.689862,-0.155735,-0.180032,-1.69761,-0.463105,-0.563947,0.164976
28,40,-1.0472,-0.698132,-0.174533,-0.174533,-1.03871,-0.689862,-0.155735,-0.180032,-1.69761,-0.463105,-0.563947,0.164976
28,40,-1.0472,-0.698132,-0.174533,-0.174533,-1.03871,-0.689862,-0.155735,-0.180032,-1.69761,-0.463105,-0.563947,0.164976
28,40,-1.0472,-0.698132,-0.174533,-0.174533,-1.03871,-0.689862,-0.155735,-0.180032,-1.69761,-0.463105,-0.563947,0.164976
28,40,-1.0472,-0.698132,-0.174533,-0.174533,-1.03871,-0.689862,-0.155735,-0.180032,-1.69761,-0.463105,-0.563947,0.164976
28,40,-1.0472,-0.698132,-0.174533,-0.174533,-1.03871,-0.689862,-0.155735,-0.180032,-1.69761,-0.463105,-0.563947,0.164976
28,40,-1.0472,-0.698132,-0.174533,-0.174533,-1.03871,-0.689862,-0.155735,-0.180032,-1.69761,-0.463105,-0.563947,0.164976
28,40,-1.0472,-0.698132,-0.174533,-0.174533,-1.03871,-0.689862,-0.155735,-0.180032,-1.69761,-0.463105,-0.563947,0.164976
28,40,-1.0472,-0.698132,-0.174533,-0.174533,-1.03871,-0.689862,-0.155735,-0.180032,-1.69761,-0.463105,-0.563947,0.164976
28,40,-1.0472,-0.698132,-0.174533,-0.174533,-1.03871,-0.689862,-0.155735,-0.180032,-1.69761,-0.463105,-0.563947,0.164976
28,40,-1.0472,-0.698132,-0.174533,-0.174533,-1.03871,-0.689862,-0.155735,-0.180032,-1.69761,-0.463105,-0.563947,0.164976
28,40,-1.0472,-0.698132,-0.174533,-0.174533,-1.03871,-0.689862,-0.155732,-0.179973,-1.69761,-0.463105,-0.564013,0.163192
28,40,-1.0472,-0.698132,-0.174533,-0.174533,-1.03871,-0.689862,-0.155732,-0.179973,-1.69761,-0.463105,-0.564013,0.163192
28,40,-1.0472,-0.698132,-0.174533,-0.174533,-1.03871,-0.689862,-0.155732,-0.179973,-1.69761,-0.463105,-0.564013,0.163192
28,40,-1.0472,-0.698132,-0.174533,-0.174533,-1.03871,-0.689862,-0.155732,-0.179973,-1.69761,-0.463105,-0.564013,0.163192
28,40,-1.0472,-0.698132,-0.174533,-0.174533,-1.03871,-0.689862,-0.155732,-0.179973,-1.69761,-0.463105,-0.564013,0.163192
28,40,-1.0472,-0.698132,-0.174533,-0.174533,-1.03871,-0.689862,-0.155732,-0.179973,-1.69761,-0.463105,-0.564013,0.163192
28,40,-1.0472,-0.698132,-0.174533,-0.174533,-1.03871,-0.689862,-0.155732,-0.179973,-1.69761,-0.463105,-0.564013,0.163192
28,40,-1.0472,-0.698132,-0.174533,-0.174533,-1.03871,-0.689862,-0.155732,-0.179973,-1.69761,-0.463105,-0.564013,0.163192
28,40,-1.0472,-0.698132,-0.174533,-0.174533,-1.03871,-0.689862,-0.155732,-0.179973,-1.69761,-0.463105,-0.564013,0.163192
28,40,-1.0472,-0.698132,-0.174533,-0.174533,-1.03871,-0.689862,-0.155732,-0.179973,-1.69761,-0.463105,-0.564013,0.163192
28,40,-1.0472,-0.698132,-0.174533,-0.174533,-1.03871,-0.689862,-0.155732,-0.179973,-1.69761,-0.463105,-0.564013,0.163192
28,40,-1.0472,-0.698132,-0.174533,-0.174533,-1.03871,-0.689862,-0.155732,-0.179973,-1.69761,-0.463105,-0.564013,0.163192
28,40,-1.0472,-0.698132,-0.174533,-0.174533,-1.03871,-0.689862,-0.155732,-0.179973,-1.69761,-0.463105,-0.564013,0.163192
28,40,-1.0472,-0.698132,-0.174533,-0.174533,-1.03871,-0.689862,-0.155732,-0.179973,-1.69761,-0.463105,-0.564013,0.163192
28,40,-1.0472,-0.698132,-0.174533,-0.174533,-1.03871,-0.689862,-0.155732,-0.179973,-1.69761,-0.463105,-0.564013,0.163192
28,40,-1.0472,-0.698132,-0.174533,-0.174533,-1.03871,-0.689862,-0.155732,-0.179973,-1.69761,-0.463105,-0.564013,0.163192
28,40,-1.0472,-0.698132,-0.174533,-0.174533,-1.03871,-0.689862,-0.155732,-0.179973,-1.69761,-0.463105,-0.564013,0.163192
28,40,-1.0472,-0.698132,-0.174533,-0.174533,-1.03871,-0.689862,-0.155732,-0.179973,-1.69761,-0.463105,-0.564013,0.163192
28,40,-1.0472,-0.698132,-0.174533,-0.174533,-1.03871,-0.689862,-0.155732,-0.179973,-1.69761,-0.463105,-0.564013,0.163192
28,40,-1.0472,-0.698132,-0.174533,-0.174533,-1.03871,-0.689862,-0.155732,-0.179973,-1.69761,-0.463105,-0.564013,0.163192
28,40,-1.0472,-0.698132,-0.174533,-0.174533,-1.03871,-0.689862,-0.155732,-0.179973,-1.69761,-0.463105,-0.564013,0.163192
28,40,-1.0472,-0.698132,-0.174533,-0.174533,-1.03871,-0.689862,-0.155732,-0.179973,-1.69761,-0.463105,-0.564013,0.163192
28,40,-1.0472,-0.698132,-0.174533,-0.174533,-1.03871,-0.689862,-0.155732,-0.179973,-1.69761,-0.463105,-0.564013,0.163192
28,40,-1.0472,-0.698132,-0.174533,-0.174533,-1.03871,-0.689862,-0.155732,-0.179973,-1.69761,-0.463105,-0.564013,0.163192
28,40,-1.0472,-0.698132,-0.174533,-0.174533,-1.03871,-0.689862,-0.155732,-0.179973,-1.69761,-0.463105,-0.564013,0.163192
28,40,-1.0472,-0.698132,-0.174533,-0.174533,-1.03871,-0.689862,-0.155732,-0.179973,-1.69761,-0.463105,-0.564013,0.163192
28,40,-1.0472,-0.698132,-0.174533,-0.174533,-1.03871,-0.689862,-0.155732,-0.179973,-1.69761,-0.463105,-0.564013,0.163192
28,40,-1.0472,-0.698132,-0.174533,-0.174533,-1.03871,-0.689862,-0.155732,-0.179973,-1.69761,-0.463105,-0.564013,0.163192
28,40,-1.0472,-0.698132,-0.174533,-0.174533,-1.03871,-0.689862,-0.155732,-0.179973,-1.69761,-0.463105,-0.564013,0.163192
28,40,-1.0472,-0.698132,-0.174533,-0.174533,-1.03871,-0.689862,-0.155732,-0.179973,-1.69761,-0.463105,-0.564013,0.163192
28,40,-1.0472,-0.698132,-0.174533,-0.174533,-1.03871,-0.689862,-0.155732,-0.179973,-1.69761,-0.463105,-0.564013,0.163192
28,40,-1.0472,-0.698132,-0.174533,-0.174533,-1.03871,-0.689862,-0.155732,-0.179973,-1.69761,-0.463105,-0.564013,0.163192
28,40,-1.0472,-0.698132,-0.174533,-0.174533,-1.03871,-0.689862,-0.155732,-0.179973,-1.69761,-0.463105,-0.564013,0.163192
28,40,-1.0472,-0.698132,-0.174533,-0.174533,-1.03871,-0.689862,-0.155732,-0.179973,-1.69761,-0.463105,-0.564013,0.163192
28,40,-1.0472,-0.698132,-0.174533,-0.174533,-1.03871,-0.689862,-0.155732,-0.179973,-1.69761,-0.463105,-0.564013,0.163192
28,40,-1.0472,-0.698132,-0.174533,-0.174533,-1.03871,-0.689862,-0.155732,-0.179973,-1.69761,-0.463105,-0.564013,0.163192
28,40,-1.0472,-0.698132,-0.174533,-0.174533,-1.03871,-0.689862,-0.155732,-0.179973,-1.69761,-0.463105,-0.564013,0.163192
28,40,-1.0472,-0.698132,-0.174533,-0.174533,-1.03871,-0.689862,-0.155732,-0.179973,-1.69761,-0.463105,-0.564013,0.163192
28,40,-1.0472,-0.698132,-0.174533,-0.174533,-1.03871,-0.689862,-0.155732,-0.179973,-1.69761,-0.463105,-0.564013,0.163192
28,40,-1.0472,-0.698132,-0.174533,-0.174533,-1.03871,-0.689862,-0.155732,-0.179973,-1.69761,-0.463105,-0.564013,0.163192
28,40,-1.0472,-0.698132,-0.174533,-0.174533,-1.03871,-0.689862,-0.155732,-0.179973,-1.69761,-0.463105,-0.564013,0.163192
28,40,-1.0472,-0.698132,-0.174533,-0.174533,-1.03871,-0.689862,-0.155732,-0.179973,-1.69761,-0.463105,-0.564013,0.163192
28,40,-1.0472,-0.698132,-0.174533,-0.174533,-1.03871,-0.689862,-0.155732,-0.179973,-1.69761,-0.463105,-0.564013,0.163192
28,40,-1.0472,-0.698132,-0.174533,-0.174533,-1.03871,-0.689862,-0.155732,-0.179973,-1.69761,-0.463105,-0.564013,0.163192
28,40,-1.0472,-0.698132,-0.174533,-0.174533,-1.03871,-0.689862,-0.155732,-0.179973,-1.69761,-0.463105,-0.564013,0.163192
28,40,-1.0472,-0.698132,-0.174533,-0.174533,-1.03871,-0.689862,-0.155732,-0.179973,-1.69761,-0.463105,-0.564013,0.163192
28,40,-1.0472,-0.698132,-0.174533,-0.174533,-1.03871,-0.689862,-0.155732,-0.179973,-1.69761,-0.463105,-0.564013,0.163192
28,40,-1.0472,-0.698132,-0.174533,-0.174533,-1.03871,-0.689862,-0.155732,-0.179973,-1.69761,-0.463105,-0.564013,0.163192
28,40,-1.0472,-0.698132,-0.174533,-0.174533,-1.03871,-0.689862,-0.155732,-0.179973,-1.69761,-0.463105,-0.564013,0.163192
28,40,-1.0472,-0.698132,-0.174533,-0.174533,-1.03871,-0.689862,-0.155732,-0.179973,-1.69761,-0.463105,-0.564013,0.163192
28,40,-1.0472,-0.698132,-0.174533,-0.174533,-1.03871,-0.689862,-0.155732,-0.179973,-1.69761,-0.463105,-0.564013,0.163192
28,40,-1.0472,-0.698132,-0.174533,-0.174533,-1.03871,-0.689862,-0.155732,-0.179973,-1.69761,-0.463105,-0.564013,0.163192
28,40,-1.0472,-0.698132,-0.174533,-0.174533,-1.03871,-0.689862,-0.155732,-0.179973,-1.69761,-0.463105,-0.564013,0.163192
28,40,-1.0472,-0.698132,-0.174533,-0.174533,-1.03871,-0.689862,-0.155732,-0.179973,-1.69761,-0.463105,-0.564013,0.163192
28,40,-1.0472,-0.698132,-0.174533,-0.174533,-1.03871,-0.689862,-0.155732,-0.179973,-1.69761,-0.463105,-0.564013,0.163192
28,40,-1.0472,-0.698132,-0.174533,-0.174533,-1.03871,-0.689862,-0.155732,-0.179973,-1.69761,-0.463105,-0.564013,0.163192
28,40,-1.0472,-0.698132,-0.174533,-0.174533,-1.03871,-0.689862,-0.155732,-0.179973,-1.69761,-0.463105,-0.564013,0.163192
28,40,-1.0472,-0.698132,-0.174533,-0.174533,-1.03871,-0.689862,-0.155732,-0.179973,-1.69761,-0.463105,-0.564013,0.163192
28,40,-1.0472,-0.698132,-0.174533,-0.174533,-1.03871,-0.689862,-0.155732,-0.179973,-1.69761,-0.463105,-0.564013,0.163192
28,40,-1.0472,-0.698132,-0.174533,-0.174533,-1.03871,-0.689862,-0.155732,-0.179973,-1.69761,-0.463105,-0.564013,0.163192
28,40,-1.0472,-0.698132,-0.174533,-0.174533,-1.03871,-0.689862,-0.155732,-0.179973,-1.69761,-0.463105,-0.564013,0.163192
28,40,-1.0472,-0.698132,-0.174533,-0.174533,-1.03871,-0.689862,-0.155732,-0.179973,-1.69761,-0.463105,-0.564013,0.163192
28,40,-1.0472,-0.698132,-0.174533,-0.174533,-1.03871,-0.689862,-0.155732,-0.179973,-1.69761,-0.463105,-0.564013,0.163192
28,40,-1.0472,-0.698132,-0.174533,-0.174533,-1.03871,-0.689862,-0.155732,-0.179973,-1.69761,-0.463105,-0.564013,0.163192
28,40,-1.0472,-0.698132,-0.174533,-0.174533,-1.03871,-0.689862,-0.155732,-0.179973,-1.69761,-0.463105,-0.564013,0.163192
28,40,-1.0472,-0.698132,-0.174533,-0.174533,-1.03871,-0.689862,-0.155732,-0.179973,-1.69761,-0.463105,-0.564013,0.163192
28,40,-1.0472,-0.698132,-0.174533,-0.174533,-1.03871,-0.689862,-0.155732,-0.179973,-1.69761,-0.463105,-0.564013,0.163192
28,40,-1.0472,-0.698132,-0.174533,-0.174533,-1.03871,-0.689862,-0.155732,-0.179973,-1.69761,-0.463105,-0.564013,0.163192
28,40,-1.0472,-0.698132,-0.174533,-0.174533,-1.03871,-0.689862,-0.155732,-0.179973,-1.69761,-0.463105,-0.564013,0.163192
28,40,-1.0472,-0.698132,-0.174533,-0.174533,-1.03871,-0.689862,-0.155732,-0.179973,-1.69761,-0.463105,-0.564013,0.163192
28,40,-1.0472,-0.698132,-0.174533,-0.174533,-1.03871,-0.689862,-0.155732,-0.179973,-1.69761,-0.463105,-0.564013,0.163192
28,40,-1.0472,-0.698132,-0.174533,-0.174533,-1.03871,-0.689862,-0.155732,-0.179973,-1.69761,-0.463105,-0.564013,0.163192
28,40,-1.0472,-0.698132,-0.174533,-0.174533,-1.03871,-0.689862,-0.155732,-0.179973,-1.69761,-0.463105,-0.564013,0.163192
28,40,-1.0472,-0.698132,-0.174533,-0.174533,-1.03871,-0.689862,-0.155732,-0.179973,-1.69761,-0.463105,-0.564013,0.163192
28,40,-1.0472,-0.698132,-0.174533,-0.174533,-1.03871,-0.689862,-0.155732,-0.179973,-1.69761,-0.463105,-0.564013,0.163192
28,40,-1.0472,-0.698132,-0.174533,-0.174533,-1.03871,-0.689862,-0.155732,-0.179973,-1.69761,-0.463105,-0.564013,0.163192
28,40,-1.0472,-0.698132,-0.174533,-0.174533,-1.03871,-0.689862,-0.155732,-0.179973,-1.69761,-0.463105,-0.564013,0.163192
28,40,-1.0472,-0.698132,-0.174533,-0.174533,-1.03871,-0.689862,-0.155732,-0.179973,-1.69761,-0.463105,-0.564013,0.163192
28,40,-1.0472,-0.698132,-0.174533,-0.174533,-1.03871,-0.689862,-0.155732,-0.179973,-1.69761,-0.463105,-0.564013,0.163192
28,40,-1.0472,-0.698132,-0.174533,-0.174533,-1.03871,-0.689862,-0.155732,-0.179973,-1.69761,-0.463105,-0.564013,0.163192
28,40,-1.0472,-0.698132,-0.174533,-0.174533,-1.03871,-0.689862,-0.155732,-0.179973,-1.69761,-0.463105,-0.564013,0.163192
28,40,-1.0472,-0.698132,-0.174533,-0.174533,-1.03871,-0.689862,-0.155732,-0.179973,-1.69761,-0.463105,-0.564013,0.163192
28,40,-1.0472,-0.698132,-0.174533,-0.174533,-1.03871,-0.689862,-0.155732,-0.179973,-1.69761,-0.463105,-0.564013,0.163192
28,40,-1.0472,-0.698132,-0.174533,-0.174533,-1.03871,-0.689862,-0.155732,-0.179973,-1.69761,-0.463105,-0.564013,0.163192
28,40,-1.0472,-0.698132,-0.174533,-0.174533,-1.03871,-0.689862,-0.155732,-0.179973,-1.69761,-0.463105,-0.564013,0.163192
28,40,-1.0472,-0.698132,-0.174533,-0.174533,-1.03871,-0.689862,-0.155732,-0.179973,-1.69761,-0.463105,-0.564013,0.163192
28,40,-1.0472,-0.698132,-0.174533,-0.174533,-1.03871,-0.689862,-0.155732,-0.179973,-1.69761,-0.463105,-0.564013,0.163192
28,40,-1.0472,-0.698132,-0.174533,-0.174533,-1.03871,-0.689862,-0.155732,-0.179973,-1.69761,-0.463105,-0.564013,0.163192
28,40,-1.0472,-0.698132,-0.174533,-0.174533,-1.03871,-0.689862,-0.155732,-0.179973,-1.69761,-0.463105,-0.564013,0.163192
28,40,-1.0472,-0.698132,-0.174533,-0.174533,-1.03871,-0.689862,-0.155732,-0.179973,-1.69761,-0.463105,-0.564013,0.163192
28,40,-1.0472,-0.698132,-0.174533,-0.174533,-1.03871,-0.689862,-0.155732,-0.179973,-1.69761,-0.463105,-0.564013,0.163192
28,40,-1.0472,-0.698132,-0.174533,-0.174533,-1.03871,-0.689862,-0.155732,-0.179973,-1.69761,-0.463105,-0.564013,0.163192
28,40,-1.0472,-0.698132,-0.174533,-0.174533,-1.03871,-0.689862,-0.155732,-0.179973,-1.69761,-0.463105,-0.564013,0.163192
28,40,-1.0472,-0.698132,-0.174533,-0.174533,-1.03871,-0.689862,-0.155732,-0.179973,-1.69761,-0.463105,-0.564013,0.163192
28,40,-1.0472,-0.698132,-0.174533,-0.174533,-1.03871,-0.689862,-0.155732,-0.179973,-1.69761,-0.463105,-0.564013,0.163192
28,40,-1.0472,-0.698132,-0.174533,-0.174533,-1.03871,-0.689862,-0.155732,-0.179973,-1.69761,-0.463105,-0.564013,0.163192
28,40,-1.0472,-0.698132,-0.174533,-0.174533,-1.03871,-0.689862,-0.155732,-0.179973,-1.69761,-0.463105,-0.564013,0.163192
28,40,-1.0472,-0.698132,-0.174533,-0.174533,-1.03871,-0.689862,-0.155732,-0.179973,-1.69761,-0.463105,-0.564013,0.163192
28,40,-1.0472,-0.698132,-0.174533,-0.174533,-1.03871,-0.689862,-0.155732,-0.179973,-1.69761,-0.463105,-0.564013,0.163192
28,40,-1.0472,-0.698132,-0.174533,-0.174533,-1.03871,-0.689862,-0.155732,-0.179973,-1.69761,-0.463105,-0.564013,0.163192
28,40,-1.0472,-0.698132,-0.174533,-0.174533,-1.03871,-0.689862,-0.155732,-0.179973,-1.69761,-0.463105,-0.564013,0.163192
28,40,-1.0472,-0.698132,-0.174533,-0.174533,-1.03871,-0.689862,-0.155732,-0.179973,-1.69761,-0.463105,-0.564013,0.163192
28,40,-1.0472,-0.698132,-0.174533,-0.174533,-1.03871,-0.689862,-0.155732,-0.179973,-1.69761,-0.463105,-0.564013,0.163192
28,40,-1.0472,-0.698132,-0.174533,-0.174533,-1.03871,-0.689862,-0.155732,-0.179973,-1.69761,-0.463105,-0.564013,0.163192
28,40,-1.0472,-0.698132,-0.174533,-0.174533,-1.03871,-0.689862,-0.155732,-0.179973,-1.69761,-0.463105,-0.564013,0.163192
28,40,-1.0472,-0.698132,-0.174533,-0.174533,-1.03871,-0.689862,-0.155732,-0.179973,-1.69761,-0.463105,-0.564013,0.163192
28,40,-1.0472,-0.698132,-0.174533,-0.174533,-1.03871,-0.689862,-0.155732,-0.179973,-1.69761,-0.463105,-0.564013,0.163192
28,40,-1.0472,-0.698132,-0.174533,-0.174533,-1.03871,-0.689862,-0.155732,-0.179973,-1.69761,-0.463105,-0.564013,0.163192
28,40,-1.0472,-0.698132,-0.174533,-0.174533,-1.03871,-0.689862,-0.155732,-0.179973,-1.69761,-0.463105,-0.564013,0.163192
28,40,-1.0472,-0.698132,-0.174533,-0.174533,-1.03871,-0.689862,-0.155732,-0.179973,-1.69761,-0.463105,-0.564013,0.163192
28,40,-1.0472,-0.698132,-0.174533,-0.174533,-1.03871,-0.689862,-0.155732,-0.179973,-1.69761,-0.463105,-0.564013,0.163192
28,40,-1.0472,-0.698132,-0.174533,-0.174533,-1.03871,-0.689862,-0.155732,-0.179973,-1.69761,-0.463105,-0.564013,0.163192
28,40,-1.0472,-0.698132,-0.174533,-0.174533,-1.03871,-0.689862,-0.155732,-0.179973,-1.69761,-0.463105,-0.564013,0.163192
28,40,-1.0472,-0.698132,-0.174533,-0.174533,-1.03871,-0.689862,-0.155732,-0.179973,-1.69761,-0.463105,-0.564013,0.163192
28,40,-1.0472,-0.698132,-0.174533,-0.174533,-1.03871,-0.689862,-0.155732,-0.179973,-1.69761,-0.463105,-0.564013,0.163192
28,40,-1.0472,-0.698132,-0.174533,-0.174533,-1.03871,-0.689862,-0.155732,-0.179973,-1.69761,-0.463105,-0.564013,0.163192
28,40,-1.0472,-0.698132,-0.174533,-0.174533,-1.03871,-0.689862,-0.155732,-0.179973,-1.69761,-0.463105,-0.564013,0.163192
28,40,-1.0472,-0.698132,-0.174533,-0.174533,-1.03871,-0.689862,-0.155732,-0.179973,-1.69761,-0.463105,-0.564013,0.163192
28,40,-1.0472,-0.698132,-0.174533,-0.174533,-1.03871,-0.689862,-0.155732,-0.179973,-1.69761,-0.463105,-0.564013,0.163192
28,40,-1.0472,-0.698132,-0.174533,-0.174533,-1.03871,-0.689862,-0.155732,-0.179973,-1.69761,-0.463105,-0.564013,0.163192
28,40,-1.0472,-0.698132,-0.174533,-0.174533,-1.03871,-0.689862,-0.155732,-0.179973,-1.69761,-0.463105,-0.564013,0.163192
28,40,-1.0472,-0.698132,-0.174533,-0.174533,-1.03871,-0.689862,-0.155732,-0.179973,-1.69761,-0.463105,-0.564013,0.163192
28,40,-1.0472,-0.698132,-0.174533,-0.174533,-1.03871,-0.689862,-0.155732,-0.179973,-1.69761,-0.463105,-0.564013,0.163192
28,40,-1.0472,-0.698132,-0.174533,-0.174533,-1.03871,-0.689862,-0.155732,-0.179973,-1.69761,-0.463105,-0.564013,0.163192
28,40,-1.0472,-0.698132,-0.174533,-0.174533,-1.03871,-0.689862,-0.155673,-0.179992,-1.69761,-0.463105,-0.565812,0.163781
28,40,-1.0472,-0.698132,-0.174533,-0.174533,-1.03871,-0.689862,-0.155673,-0.179992,-1.69761,-0.463105,-0.565812,0.163781
28,40,-1.0472,-0.698132,-0.174533,-0.174533,-1.03871,-0.689862,-0.155673,-0.179992,-1.69761,-0.463105,-0.565812,0.163781
28,40,-1.0472,-0.698132,-0.174533,-0.174533,-1.03871,-0.689862,-0.155673,-0.179992,-1.69761,-0.463105,-0.565812,0.163781
28,40,-1.0472,-0.698132,-0.174533,-0.174533,-1.03871,-0.689862,-0.155673,-0.179992,-1.69761,-0.463105,-0.565812,0.163781
28,40,-1.0472,-0.698132,-0.174533,-0.174533,-1.03871,-0.689862,-0.155673,-0.179992,-1.69761,-0.463105,-0.565812,0.163781
28,40,-1.0472,-0.698132,-0.174533,-0.174533,-1.03871,-0.689862,-0.155673,-0.179992,-1.69761,-0.463105,-0.565812,0.163781
28,40,-1.0472,-0.698132,-0.174533,-0.174533,-1.03871,-0.689862,-0.155673,-0.179992,-1.69761,-0.463105,-0.565812,0.163781
28,40,-1.0472,-0.698132,-0.174533,-0.174533,-1.03871,-0.689862,-0.155673,-0.179992,-1.69761,-0.463105,-0.565812,0.163781
28,40,-1.0472,-0.698132,-0.174533,-0.174533,-1.03871,-0.689862,-0.155673,-0.179992,-1.69761,-0.463105,-0.565812,0.163781
28,40,-1.0472,-0.698132,-0.174533,-0.174533,-1.03871,-0.689862,-0.155673,-0.179992,-1.69761,-0.463105,-0.565812,0.163781
28,40,-1.0472,-0.698132,-0.174533,-0.174533,-1.03871,-0.689862,-0.155673,-0.179992,-1.69761,-0.463105,-0.565812,0.163781
28,40,-1.0472,-0.698132,-0.174533,-0.174533,-1.03871,-0.689862,-0.155673,-0.179992,-1.69761,-0.463105,-0.565812,0.163781
28,40,-1.0472,-0.698132,-0.174533,-0.174533,-1.03871,-0.689862,-0.155673,-0.179992,-1.69761,-0.463105,-0.565812,0.163781
28,40,-1.0472,-0.698132,-0.174533,-0.174533,-1.03871,-0.689862,-0.155673,-0.179992,-1.69761,-0.463105,-0.565812,0.163781
28,40,-1.0472,-0.698132,-0.174533,-0.174533,-1.03871,-0.689862,-0.155673,-0.179992,-1.69761,-0.463105,-0.565812,0.163781
28,40,-1.0472,-0.698132,-0.174533,-0.174533,-1.03871,-0.689862,-0.155673,-0.179992,-1.69761,-0.463105,-0.565812,0.163781
28,40,-1.0472,-0.698132,-0.174533,-0.174533,-1.03871,-0.689862,-0.155673,-0.179992,-1.69761,-0.463105,-0.565812,0.163781
28,40,-1.0472,-0.698132,-0.174533,-0.174533,-1.03871,-0.689862,-0.155673,-0.179992,-1.69761,-0.463105,-0.565812,0.163781
28,40,-1.0472,-0.698132,-0.174533,-0.174533,-1.03871,-0.689862,-0.15567,-0.179933,-1.69761,-0.463105,-0.565878,0.161997
28,40,-1.0472,-0.698132,-0.174533,-0.174533,-1.03871,-0.689862,-0.155735,-0.179974,-1.69761,-0.463105,-0.56394,0.163246
28,40,-1.0472,-0.698132,-0.174533,-0.174533,-1.03871,-0.689862,-0.155735,-0.179974,-1.69761,-0.463105,-0.56394,0.163246
28,40,-1.0472,-0.698132,-0.174533,-0.174533,-1.03871,-0.689862,-0.155735,-0.179974,-1.69761,-0.463105,-0.56394,0.163246
28,40,-1.0472,-0.698132,-0.174533,-0.174533,-1.03871,-0.689862,-0.155735,-0.179974,-1.69761,-0.463105,-0.56394,0.163246
28,40,-1.0472,-0.698132,-0.174533,-0.174533,-1.03871,-0.689862,-0.155735,-0.179974,-1.69761,-0.463105,-0.56394,0.163246
28,40,-1.0472,-0.698132,-0.174533,-0.174533,-1.03871,-0.689862,-0.155735,-0.179974,-1.69761,-0.463105,-0.56394,0.163246
28,40,-1.0472,-0.698132,-0.174533,-0.174533,-1.03871,-0.689862,-0.155735,-0.179974,-1.69761,-0.463105,-0.56394,0.163246
28,40,-1.0472,-0.698132,-0.174533,-0.174533,-1.03871,-0.689862,-0.155735,-0.179974,-1.69761,-0.463105,-0.56394,0.163246
28,40,-1.0472,-0.698132,-0.174533,-0.174533,-1.03871,-0.689862,-0.155735,-0.179974,-1.69761,-0.463105,-0.56394,0.163246
28,40,-1.0472,-0.698132,-0.174533,-0.174533,-1.03871,-0.689862,-0.155735,-0.179974,-1.69761,-0.463105,-0.56394,0.163246
28,40,-1.0472,-0.698132,-0.174533,-0.174533,-1.03871,-0.689862,-0.155735,-0.179974,-1.69761,-0.463105,-0.56394,0.163246
28,40,-1.0472,-0.698132,-0.174533,-0.174533,-1.03871,-0.689862,-0.155735,-0.179974,-1.69761,-0.463105,-0.56394,0.163246
28,40,-1.0472,-0.698132,-0.174533,-0.174533,-1.03871,-0.689862,-0.155735,-0.179974,-1.69761,-0.463105,-0.56394,0.163246
28,40,-1.0472,-0.698132,-0.174533,-0.174533,-1.03871,-0.689862,-0.155735,-0.179974,-1.69761,-0.463105,-0.56394,0.163246
28,40,-1.0472,-0.698132,-0.174533,-0.174533,-1.03871,-0.689862,-0.155735,-0.179974,-1.69761,-0.463105,-0.56394,0.163246
28,40,-1.0472,-0.698132,-0.174533,-0.174533,-1.03871,-0.689862,-0.155735,-0.179974,-1.69761,-0.463105,-0.56394,0.163246
28,40,-1.0472,-0.698132,-0.174533,-0.174533,-1.03871,-0.689862,-0.155735,-0.179974,-1.69761,-0.463105,-0.56394,0.163246
28,40,-1.0472,-0.698132,-0.174533,-0.174533,-1.03871,-0.689862,-0.155735,-0.179974,-1.69761,-0.463105,-0.56394,0.163246
28,40,-1.0472,-0.698132,-0.174533,-0.174533,-1.03871,-0.689862,-0.155735,-0.179974,-1.69761,-0.463105,-0.56394,0.163246
28,40,-1.0472,-0.698132,-0.174533,-0.174533,-1.03871,-0.689862,-0.155735,-0.179974,-1.69761,-0.463105,-0.56394,0.163246
28,40,-1.0472,-0.698132,-0.174533,-0.174533,-1.03871,-0.689862,-0.155735,-0.179974,-1.69761,-0.463105,-0.56394,0.163246
28,40,-1.0472,-0.698132,-0.174533,-0.174533,-1.03871,-0.689862,-0.155735,-0.179974,-1.69761,-0.463105,-0.56394,0.163246
28,40,-1.0472,-0.698132,-0.174533,-0.174533,-1.03871,-0.689862,-0.155735,-0.179974,-1.69761,-0.463105,-0.56394,0.163246
28,40,-1.0472,-0.698132,-0.174533,-0.174533,-1.03871,-0.689862,-0.155735,-0.179974,-1.69761,-0.463105,-0.56394,0.163246
28,40,-1.0472,-0.698132,-0.174533,-0.174533,-1.03871,-0.689862,-0.155735,-0.179974,-1.69761,-0.463105,-0.56394,0.163246
28,40,-1.0472,-0.698132,-0.174533,-0.174533,-1.03871,-0.689862,-0.155735,-0.179974,-1.69761,-0.463105,-0.56394,0.163246
28,40,-1.0472,-0.698132,-0.174533,-0.174533,-1.03871,-0.689862,-0.155735,-0.179974,-1.69761,-0.463105,-0.56394,0.163246
28,40,-1.0472,-0.698132,-0.174533,-0.174533,-1.03871,-0.689862,-0.155735,-0.179974,-1.69761,-0.463105,-0.56394,0.163246
28,40,-1.0472,-0.698132,-0.174533,-0.174533,-1.03871,-0.689862,-0.155735,-0.179974,-1.69761,-0.463105,-0.56394,0.163246
28,40,-1.0472,-0.698132,-0.174533,-0.174533,-1.03871,-0.689862,-0.155735,-0.179974,-1.69761,-0.463105,-0.56394,0.163246
28,40,-1.0472,-0.698132,-0.174533,-0.174533,-1.03871,-0.689862,-0.155735,-0.179974,-1.69761,-0.463105,-0.56394,0.163246
28,40,-1.0472,-0.698132,-0.174533,-0.174533,-1.03871,-0.689862,-0.155735,-0.179974,-1.69761,-0.463105,-0.56394,0.163246
28,40,-1.0472,-0.698132,-0.174533,-0.174533,-1.03871,-0.689862,-0.155735,-0.179974,-1.69761,-0.463105,-0.56394,0.163246
28,40,-1.0472,-0.698132,-0.174533,-0.174533,-1.03871,-0.689862,-0.155735,-0.179974,-1.69761,-0.463105,-0.56394,0.163246
28,40,-1.0472,-0.698132,-0.174533,-0.174533,-1.03871,-0.689862,-0.155735,-0.179974,-1.69761,-0.463105,-0.56394,0.163246
28,40,-1.0472,-0.698132,-0.174533,-0.174533,-1.03871,-0.689862,-0.155735,-0.179974,-1.69761,-0.463105,-0.56394,0.163246
28,40,-1.0472,-0.698132,-0.174533,-0.174533,-1.03871,-0.689862,-0.155735,-0.179974,-1.69761,-0.463105,-0.56394,0.163246
28,40,-1.0472,-0.698132,-0.174533,-0.174533,-1.03871,-0.689862,-0.155735,-0.179974,-1.69761,-0.463105,-0.56394,0.163246
28,40,-1.0472,-0.698132,-0.174533,-0.174533,-1.03871,-0.689862,-0.155735,-0.179974,-1.69761,-0.463105,-0.56394,0.163246
28,40,-1.0472,-0.698132,-0.174533,-0.174533,-1.03871,-0.689862,-0.155735,-0.179974,-1.69761,-0.463105,-0.56394,0.163246
28,40,-1.0472,-0.698132,-0.174533,-0.174533,-1.03871,-0.689862,-0.155735,-0.179974,-1.69761,-0.463105,-0.56394,0.163246
28,40,-1.0472,-0.698132,-0.174533,-0.174533,-1.03871,-0.689862,-0.155735,-0.179974,-1.69761,-0.463105,-0.56394,0.163246
28,40,-1.0472,-0.698132,-0.174533,-0.174533,-1.03871,-0.689862,-0.155735,-0.179974,-1.69761,-0.463105,-0.56394,0.163246
28,40,-1.0472,-0.698132,-0.174533,-0.174533,-1.03871,-0.689862,-0.155735,-0.179974,-1.69761,-0.463105,-0.56394,0.163246
28,40,-1.0472,-0.698132,-0.174533,-0.174533,-1.03871,-0.689862,-0.155735,-0.179974,-1.69761,-0.463105,-0.56394,0.163246
28,40,-1.0472,-0.698132,-0.174533,-0.174533,-1.03871,-0.689862,-0.155735,-0.179974,-1.69761,-0.463105,-0.56394,0.163246
28,40,-1.0472,-0.698132,-0.174533,-0.174533,-1.03871,-0.689862,-0.155735,-0.179974,-1.69761,-0.463105,-0.56394,0.163246
28,40,-1.0472,-0.698132,-0.174533,-0.174533,-1.03871,-0.689862,-0.155735,-0.179974,-1.69761,-0.463105,-0.56394,0.163246
28,40,-1.0472,-0.698132,-0.174533,-0.174533,-1.03871,-0.689862,-0.155735,-0.179974,-1.69761,-0.463105,-0.56394,0.163246
28,40,-1.0472,-0.698132,-0.174533,-0.174533,-1.03871,-0.689862,-0.155735,-0.179974,-1.69761,-0.463105,-0.56394,0.163246
28,40,-1.0472,-0.698132,-0.174533,-0.174533,-1.03871,-0.689862,-0.155735,-0.179974,-1.69761,-0.463105,-0.56394,0.163246
28,40,-1.0472,-0.698132,-0.174533,-0.174533,-1.03871,-0.689862,-0.155735,-0.179974,-1.69761,-0.463105,-0.56394,0.163246
28,40,-1.0472,-0.698132,-0.174533,-0.174533,-1.03871,-0.689862,-0.155735,-0.179974,-1.69761,-0.463105,-0.56394,0.163246
28,40,-1.0472,-0.698132,-0.174533,-0.174533,-1.03871,-0.689862,-0.155735,-0.179974,-1.69761,-0.463105,-0.56394,0.163246
28,40,-1.0472,-0.698132,-0.174533,-0.174533,-1.03871,-0.689862,-0.155735,-0.179974,-1.69761,-0.463105,-0.56394,0.163246
28,40,-1.0472,-0.698132,-0.174533,-0.174533,-1.03871,-0.689862,-0.155735,-0.179974,-1.69761,-0.463105,-0.56394,0.163246
28,40,-1.0472,-0.698132,-0.174533,-0.174533,-1.03871,-0.689862,-0.155735,-0.179974,-1.69761,-0.463105,-0.56394,0.163246
28,40,-1.0472,-0.698132,-0.174533,-0.174533,-1.03871,-0.689862,-0.155735,-0.179974,-1.69761,-0.463105,-0.56394,0.163246
28,40,-1.0472,-0.698132,-0.174533,-0.174533,-1.03871,-0.689862,-0.155735,-0.179974,-1.69761,-0.463105,-0.56394,0.163246
28,40,-1.0472,-0.698132,-0.174533,-0.174533,-1.03871,-0.689862,-0.155735,-0.179974,-1.69761,-0.463105,-0.56394,0.163246
28,40,-1.0472,-0.698132,-0.174533,-0.174533,-1.03871,-0.689862,-0.155735,-0.179974,-1.69761,-0.463105,-0.56394,0.163246
28,40,-1.0472,-0.698132,-0.174533,-0.174533,-1.03871,-0.689862,-0.155735,-0.179974,-1.69761,-0.463105,-0.56394,0.163246
28,40,-1.0472,-0.698132,-0.174533,-0.174533,-1.03871,-0.689862,-0.155735,-0.179974,-1.69761,-0.463105,-0.56394,0.163246
28,40,-1.0472,-0.698132,-0.174533,-0.174533,-1.03871,-0.689862,-0.155735,-0.179974,-1.69761,-0.463105,-0.56394,0.163246
28,40,-1.0472,-0.698132,-0.174533,-0.174533,-1.03871,-0.689862,-0.155735,-0.179974,-1.69761,-0.463105,-0.56394,0.163246
28,40,-1.0472,-0.698132,-0.174533,-0.174533,-1.03871,-0.689862,-0.155735,-0.179974,-1.69761,-0.463105,-0.56394,0.163246
28,40,-1.0472,-0.698132,-0.174533,-0.174533,-1.03871,-0.689862,-0.155735,-0.179974,-1.69761,-0.463105,-0.56394,0.163246
28,40,-1.0472,-0.698132,-0.174533,-0.174533,-1.03871,-0.689862,-0.155735,-0.179974,-1.69761,-0.463105,-0.56394,0.163246
28,40,-1.0472,-0.698132,-0.174533,-0.174533,-1.03871,-0.689862,-0.155735,-0.179974,-1.69761,-0.463105,-0.56394,0.163246
28,40,-1.0472,-0.698132,-0.174533,-0.174533,-1.03871,-0.689862,-0.155735,-0.179974,-1.69761,-0.463105,-0.56394,0.163246
28,40,-1.0472,-0.698132,-0.174533,-0.174533,-1.03871,-0.689862,-0.155735,-0.179974,-1.69761,-0.463105,-0.56394,0.163246
28,40,-1.0472,-0.698132,-0.174533,-0.174533,-1.03871,-0.689862,-0.155735,-0.179974,-1.69761,-0.463105,-0.56394,0.163246
28,40,-1.0472,-0.698132,-0.174533,-0.174533,-1.03871,-0.689862,-0.155735,-0.179974,-1.69761,-0.463105,-0.56394,0.163246
28,40,-1.0472,-0.698132,-0.174533,-0.174533,-1.03871,-0.689862,-0.155735,-0.179974,-1.69761,-0.463105,-0.56394,0.163246
28,40,-1.0472,-0.698132,-0.174533,-0.174533,-1.03871,-0.689862,-0.155735,-0.179974,-1.69761,-0.463105,-0.56394,0.163246
28,40,-1.0472,-0.698132,-0.174533,-0.174533,-1.03871,-0.689862,-0.155735,-0.179974,-1.69761,-0.463105,-0.56394,0.163246
28,40,-1.0472,-0.698132,-0.174533,-0.174533,-1.03871,-0.689862,-0.155735,-0.179974,-1.69761,-0.463105,-0.56394,0.163246
28,40,-1.0472,-0.698132,-0.174533,-0.174533,-1.03871,-0.689862,-0.155735,-0.179974,-1.69761,-0.463105,-0.56394,0.163246
28,40,-1.0472,-0.698132,-0.174533,-0.174533,-1.03871,-0.689862,-0.155735,-0.179974,-1.69761,-0.463105,-0.56394,0.163246
28,40,-1.0472,-0.698132,-0.174533,-0.174533,-1.03871,-0.689862,-0.155735,-0.179974,-1.69761,-0.463105,-0.56394,0.163246
28,40,-1.0472,-0.698132,-0.174533,-0.174533,-1.03871,-0.689862,-0.155735,-0.179974,-1.69761,-0.463105,-0.56394,0.163246
28,40,-1.0472,-0.698132,-0.174533,-0.174533,-1.03871,-0.689862,-0.155735,-0.179974,-1.69761,-0.463105,-0.56394,0.163246
28,40,-1.0472,-0.698132,-0.174533,-0.174533,-1.03871,-0.689862,-0.155735,-0.179974,-1.69761,-0.463105,-0.56394,0.163246
28,40,-1.0472,-0.698132,-0.174533,-0.174533,-1.03871,-0.689862,-0.155735,-0.179974,-1.69761,-0.463105,-0.56394,0.163246
28,40,-1.0472,-0.698132,-0.174533,-0.174533,-1.03871,-0.689862,-0.155735,-0.179974,-1.69761,-0.463105,-0.56394,0.163246
28,40,-1.0472,-0.698132,-0.174533,-0.174533,-1.03871,-0.689862,-0.155735,-0.179974,-1.69761,-0.463105,-0.56394,0.163246
28,40,-1.0472,-0.698132,-0.174533,-0.174533,-1.03871,-0.689862,-0.155735,-0.179974,-1.69761,-0.463105,-0.56394,0.163246
28,40,-1.0472,-0.698132,-0.174533,-0.174533,-1.03871,-0.689862,-0.155735,-0.179974,-1.69761,-0.463105,-0.56394,0.163246
28,40,-1.0472,-0.698132,-0.174533,-0.174533,-1.03871,-0.689862,-0.155735,-0.179974,-1.69761,-0.463105,-0.56394,0.163246
28,40,-1.0472,-0.698132,-0.174533,-0.174533,-1.03871,-0.689862,-0.155735,-0.179974,-1.69761,-0.463105,-0.56394,0.163246
28,40,-1.0472,-0.698132,-0.174533,-0.174533,-1.03871,-0.689862,-0.155735,-0.179974,-1.69761,-0.463105,-0.56394,0.163246
28,40,-1.0472,-0.698132,-0.174533,-0.174533,-1.03871,-0.689862,-0.155735,-0.179974,-1.69761,-0.463105,-0.56394,0.163246
28,40,-1.0472,-0.698132,-0.174533,-0.174533,-1.03871,-0.689862,-0.155735,-0.179974,-1.69761,-0.463105,-0.56394,0.163246
28,40,-1.0472,-0.698132,-0.174533,-0.174533,-1.03871,-0.689862,-0.155735,-0.179974,-1.69761,-0.463105,-0.56394,0.163246
28,40,-1.0472,-0.698132,-0.174533,-0.174533,-1.03871,-0.689862,-0.155735,-0.179974,-1.69761,-0.463105,-0.56394,0.163246
28,40,-1.0472,-0.698132,-0.174533,-0.174533,-1.03871,-0.689862,-0.155735,-0.179974,-1.69761,-0.463105,-0.56394,0.163246
28,40,-1.0472,-0.698132,-0.174533,-0.174533,-1.03871,-0.689862,-0.155735,-0.179974,-1.69761,-0.463105,-0.56394,0.163246
28,40,-1.0472,-0.698132,-0.174533,-0.174533,-1.03871,-0.689862,-0.155735,-0.179974,-1.69761,-0.463105,-0.56394,0.163246
28,40,-1.0472,-0.698132,-0.174533,-0.174533,-1.03871,-0.689862,-0.155735,-0.179974,-1.69761,-0.463105,-0.56394,0.163246
28,40,-1.0472,-0.698132,-0.174533,-0.174533,-1.03871,-0.689862,-0.155735,-0.179974,-1.69761,-0.463105,-0.56394,0.163246
28,40,-1.0472,-0.698132,-0.174533,-0.174533,-1.03871,-0.689862,-0.155735,-0.179974,-1.69761,-0.463105,-0.56394,0.163246
28,40,-1.0472,-0.698132,-0.174533,-0.174533,-1.03871,-0.689862,-0.155735,-0.179974,-1.69761,-0.463105,-0.56394,0.163246
28,40,-1.0472,-0.698132,-0.174533,-0.174533,-1.03871,-0.689862,-0.155735,-0.179974,-1.69761,-0.463105,-0.56394,0.163246
28,40,-1.0472,-0.698132,-0.174533,-0.174533,-1.03871,-0.689862,-0.155735,-0.179974,-1.69761,-0.463105,-0.56394,0.163246
28,40,-1.0472,-0.698132,-0.174533,-0.174533,-1.03871,-0.689862,-0.155735,-0.179974,-1.69761,-0.463105,-0.56394,0.163246
28,40,-1.0472,-0.698132,-0.174533,-0.174533,-1.03871,-0.689862,-0.155735,-0.179974,-1.69761,-0.463105,-0.56394,0.163246
28,40,-1.0472,-0.698132,-0.174533,-0.174533,-1.03871,-0.689862,-0.155735,-0.179974,-1.69761,-0.463105,-0.56394,0.163246
28,40,-1.0472,-0.698132,-0.174533,-0.174533,-1.03871,-0.689862,-0.155735,-0.179974,-1.69761,-0.463105,-0.56394,0.163246
28,40,-1.0472,-0.698132,-0.174533,-0.174533,-1.03871,-0.689862,-0.155735,-0.179974,-1.69761,-0.463105,-0.56394,0.163246
28,40,-1.0472,-0.698132,-0.174533,-0.174533,-1.03871,-0.689862,-0.155735,-0.179974,-1.69761,-0.463105,-0.56394,0.163246
28,40,-1.0472,-0.698132,-0.174533,-0.174533,-1.03871,-0.689862,-0.155735,-0.179974,-1.69761,-0.463105,-0.56394,0.163246
28,40,-1.0472,-0.698132,-0.174533,-0.174533,-1.03871,-0.689862,-0.155735,-0.179974,-1.69761,-0.463105,-0.56394,0.163246
28,40,-1.0472,-0.698132,-0.174533,-0.174533,-1.03871,-0.689862,-0.155735,-0.179974,-1.69761,-0.463105,-0.56394,0.163246
28,40,-1.0472,-0.698132,-0.174533,-0.174533,-1.03871,-0.689862,-0.155735,-0.179974,-1.69761,-0.463105,-0.56394,0.163246
28,40,-1.0472,-0.698132,-0.174533,-0.174533,-1.03871,-0.689862,-0.155735,-0.179974,-1.69761,-0.463105,-0.56394,0.163246
28,40,-1.0472,-0.698132,-0.174533,-0.174533,-1.03871,-0.689862,-0.155735,-0.179974,-1.69761,-0.463105,-0.56394,0.163246
28,40,-1.0472,-0.698132,-0.174533,-0.174533,-1.03871,-0.689862,-0.155735,-0.179974,-1.69761,-0.463105,-0.56394,0.163246
28,40,-1.0472,-0.698132,-0.174533,-0.174533,-1.03871,-0.689862,-0.155735,-0.179974,-1.69761,-0.463105,-0.56394,0.163246
28,40,-1.0472,-0.698132,-0.174533,-0.174533,-1.03871,-0.689862,-0.155735,-0.179974,-1.69761,-0.463105,-0.56394,0.163246
28,40,-1.0472,-0.698132,-0.174533,-0.174533,-1.03871,-0.689862,-0.155735,-0.179974,-1.69761,-0.463105,-0.56394,0.163246
28,40,-1.0472,-0.698132,-0.174533,-0.174533,-1.03871,-0.689862,-0.155735,-0.179974,-1.69761,-0.463105,-0.56394,0.163246
28,40,-1.0472,-0.698132,-0.174533,-0.174533,-1.03871,-0.689862,-0.155735,-0.179974,-1.69761,-0.463105,-0.56394,0.163246
28,40,-1.0472,-0.698132,-0.174533,-0.174533,-1.03871,-0.689862,-0.155735,-0.179974,-1.69761,-0.463105,-0.56394,0.163246
28,40,-1.0472,-0.698132,-0.174533,-0.174533,-1.03871,-0.689862,-0.155735,-0.179974,-1.69761,-0.463105,-0.56394,0.163246
28,40,-1.0472,-0.698132,-0.174533,-0.174533,-1.03871,-0.689862,-0.155735,-0.179974,-1.69761,-0.463105,-0.56394,0.163246
28,40,-1.0472,-0.698132,-0.174533,-0.174533,-1.03871,-0.689862,-0.155735,-0.179974,-1.69761,-0.463105,-0.56394,0.163246
28,40,-1.0472,-0.698132,-0.174533,-0.174533,-1.03871,-0.689862,-0.155735,-0.179974,-1.69761,-0.463105,-0.56394,0.163246
28,40,-1.0472,-0.698132,-0.174533,-0.174533,-1.03871,-0.689862,-0.155735,-0.179974,-1.69761,-0.463105,-0.56394,0.163246
28,40,-1.0472,-0.698132,-0.174533,-0.174533,-1.03871,-0.689862,-0.155735,-0.179974,-1.69761,-0.463105,-0.56394,0.163246
28,40,-1.0472,-0.698132,-0.174533,-0.174533,-1.03871,-0.689862,-0.155735,-0.179974,-1.69761,-0.463105,-0.56394,0.163246
28,40,-1.0472,-0.698132,-0.174533,-0.174533,-1.03871,-0.689862,-0.155735,-0.179974,-1.69761,-0.463105,-0.56394,0.163246
28,40,-1.0472,-0.698132,-0.174533,-0.174533,-1.03871,-0.689862,-0.155735,-0.179974,-1.69761,-0.463105,-0.56394,0.163246
28,40,-1.0472,-0.698132,-0.174533,-0.174533,-1.03871,-0.689862,-0.155735,-0.179974,-1.69761,-0.463105,-0.56394,0.163246
28,40,-1.0472,-0.698132,-0.174533,-0.174533,-1.03871,-0.689862,-0.155735,-0.179974,-1.69761,-0.463105,-0.56394,0.163246
28,40,-1.0472,-0.698132,-0.174533,-0.174533,-1.03871,-0.689862,-0.155735,-0.179974,-1.69761,-0.463105,-0.56394,0.163246
28,40,-1.0472,-0.698132,-0.174533,-0.174533,-1.03871,-0.689862,-0.155735,-0.179974,-1.69761,-0.463105,-0.56394,0.163246
28,40,-1.0472,-0.698132,-0.174533,-0.174533,-1.03871,-0.689862,-0.155735,-0.179974,-1.69761,-0.463105,-0.56394,0.163246
28,40,-1.0472,-0.698132,-0.174533,-0.174533,-1.03871,-0.689862,-0.155735,-0.179974,-1.69761,-0.463105,-0.56394,0.163246
28,40,-1.0472,-0.698132,-0.174533,-0.174533,-1.03871,-0.689862,-0.155735,-0.179974,-1.69761,-0.463105,-0.56394,0.163246
28,40,-1.0472,-0.698132,-0.174533,-0.174533,-1.03871,-0.689862,-0.155735,-0.179974,-1.69761,-0.463105,-0.56394,0.163246
28,40,-1.0472,-0.698132,-0.174533,-0.174533,-1.03871,-0.689862,-0.155735,-0.179974,-1.69761,-0.463105,-0.56394,0.163246
28,40,-1.0472,-0.698132,-0.174533,-0.174533,-1.03871,-0.689862,-0.155735,-0.179974,-1.69761,-0.463105,-0.56394,0.163246
28,40,-1.0472,-0.698132,-0.174533,-0.174533,-1.03871,-0.689862,-0.155735,-0.179974,-1.69761,-0.463105,-0.56394,0.163246
28,40,-1.0472,-0.698132,-0.174533,-0.174533,-1.03871,-0.689862,-0.155735,-0.179974,-1.69761,-0.463105,-0.56394,0.163246
28,40,-1.0472,-0.698132,-0.174533,-0.174533,-1.03871,-0.689862,-0.155735,-0.179974,-1.69761,-0.463105,-0.56394,0.163246
28,40,-1.0472,-0.698132,-0.174533,-0.174533,-1.03871,-0.689862,-0.155735,-0.179974,-1.69761,-0.463105,-0.56394,0.163246
28,40,-1.0472,-0.698132,-0.174533,-0.174533,-1.03871,-0.689862,-0.155735,-0.179974,-1.69761,-0.463105,-0.56394,0.163246
28,40,-1.0472,-0.698132,-0.174533,-0.174533,-1.03871,-0.689862,-0.1558,-0.180016,-1.69761,-0.463105,-0.562001,0.164495
28,40,-1.0472,-0.698132,-0.174533,-0.174533,-1.03871,-0.689862,-0.1558,-0.180016,-1.69761,-0.463105,-0.562001,0.164495
28,40,-1.0472,-0.698132,-0.174533,-0.174533,-1.03871,-0.689862,-0.1558,-0.180016,-1.69761,-0.463105,-0.562001,0.164495
28,40,-1.0472,-0.698132,-0.174533,-0.174533,-1.03871,-0.689862,-0.1558,-0.180016,-1.69761,-0.463105,-0.562001,0.164495
28,40,-1.0472,-0.698132,-0.174533,-0.174533,-1.03871,-0.689862,-0.1558,-0.180016,-1.69761,-0.463105,-0.562001,0.164495
28,40,-1.0472,-0.698132,-0.174533,-0.174533,-1.03871,-0.689862,-0.1558,-0.180016,-1.69761,-0.463105,-0.562001,0.164495
28,40,-1.0472,-0.698132,-0.174533,-0.174533,-1.03871,-0.689862,-0.1558,-0.180016,-1.69761,-0.463105,-0.562001,0.164495
28,40,-1.0472,-0.698132,-0.174533,-0.174533,-1.03871,-0.689862,-0.1558,-0.180016,-1.69761,-0.463105,-0.562001,0.164495
28,40,-1.0472,-0.698132,-0.174533,-0.174533,-1.03871,-0.689862,-0.1558,-0.180016,-1.69761,-0.463105,-0.562001,0.164495
28,40,-1.0472,-0.698132,-0.174533,-0.174533,-1.03871,-0.689862,-0.1558,-0.180016,-1.69761,-0.463105,-0.562001,0.164495
28,40,-1.0472,-0.698132,-0.174533,-0.174533,-1.03871,-0.689862,-0.1558,-0.180016,-1.69761,-0.463105,-0.562001,0.164495
28,40,-1.0472,-0.698132,-0.174533,-0.174533,-1.03871,-0.689862,-0.1558,-0.180016,-1.69761,-0.463105,-0.562001,0.164495
28,40,-1.0472,-0.698132,-0.174533,-0.174533,-1.03871,-0.689862,-0.1558,-0.180016,-1.69761,-0.463105,-0.562001,0.164495
28,40,-1.0472,-0.698132,-0.174533,-0.174533,-1.03871,-0.689862,-0.1558,-0.180016,-1.69761,-0.463105,-0.562001,0.164495
28,40,-1.0472,-0.698132,-0.174533,-0.174533,-1.03871,-0.689862,-0.1558,-0.180016,-1.69761,-0.463105,-0.562001,0.164495
28,40,-1.0472,-0.698132,-0.174533,-0.174533,-1.03871,-0.689862,-0.1558,-0.180016,-1.69761,-0.463105,-0.562001,0.164495
28,40,-1.0472,-0.698132,-0.174533,-0.174533,-1.03871,-0.689862,-0.1558,-0.180016,-1.69761,-0.463105,-0.562001,0.164495
28,40,-1.0472,-0.698132,-0.174533,-0.174533,-1.03871,-0.689862,-0.1558,-0.180016,-1.69761,-0.463105,-0.562001,0.164495
28,40,-1.0472,-0.698132,-0.174533,-0.174533,-1.03871,-0.689862,-0.1558,-0.180016,-1.69761,-0.463105,-0.562001,0.164495
28,40,-1.0472,-0.698132,-0.174533,-0.174533,-1.03871,-0.689862,-0.1558,-0.180016,-1.69761,-0.463105,-0.562001,0.164495
28,40,-1.0472,-0.698132,-0.174533,-0.174533,-1.03871,-0.689862,-0.1558,-0.180016,-1.69761,-0.463105,-0.562001,0.164495
28,40,-1.0472,-0.698132,-0.174533,-0.174533,-1.03871,-0.689862,-0.1558,-0.180016,-1.69761,-0.463105,-0.562001,0.164495
28,40,-1.0472,-0.698132,-0.174533,-0.174533,-1.03871,-0.689862,-0.1558,-0.180016,-1.69761,-0.463105,-0.562001,0.164495
28,40,-1.0472,-0.698132,-0.174533,-0.174533,-1.03871,-0.689862,-0.1558,-0.180016,-1.69761,-0.463105,-0.562001,0.164495
28,40,-1.0472,-0.698132,-0.174533,-0.174533,-1.03871,-0.689862,-0.1558,-0.180016,-1.69761,-0.463105,-0.562001,0.164495
28,40,-1.0472,-0.698132,-0.174533,-0.174533,-1.03871,-0.689862,-0.1558,-0.180016,-1.69761,-0.463105,-0.562001,0.164495
28,40,-1.0472,-0.698132,-0.174533,-0.174533,-1.03871,-0.689862,-0.1558,-0.180016,-1.69761,-0.463105,-0.562001,0.164495
28,40,-1.0472,-0.698132,-0.174533,-0.174533,-1.03871,-0.689862,-0.1558,-0.180016,-1.69761,-0.463105,-0.562001,0.164495
28,40,-1.0472,-0.698132,-0.174533,-0.174533,-1.03871,-0.689862,-0.1558,-0.180016,-1.69761,-0.463105,-0.562001,0.164495
28,40,-1.0472,-0.698132,-0.174533,-0.174533,-1.03871,-0.689862,-0.1558,-0.180016,-1.69761,-0.463105,-0.562001,0.164495
28,40,-1.0472,-0.698132,-0.174533,-0.174533,-1.03871,-0.689862,-0.1558,-0.180016,-1.69761,-0.463105,-0.562001,0.164495
28,40,-1.0472,-0.698132,-0.174533,-0.174533,-1.03871,-0.689862,-0.1558,-0.180016,-1.69761,-0.463105,-0.562001,0.164495
28,40,-1.0472,-0.698132,-0.174533,-0.174533,-1.03871,-0.689862,-0.1558,-0.180016,-1.69761,-0.463105,-0.562001,0.164495
28,40,-1.0472,-0.698132,-0.174533,-0.174533,-1.03871,-0.689862,-0.1558,-0.180016,-1.69761,-0.463105,-0.562001,0.164495
28,40,-1.0472,-0.698132,-0.174533,-0.174533,-1.03871,-0.689862,-0.1558,-0.180016,-1.69761,-0.463105,-0.562001,0.164495
28,40,-1.0472,-0.698132,-0.174533,-0.174533,-1.03871,-0.689862,-0.1558,-0.180016,-1.69761,-0.463105,-0.562001,0.164495
28,40,-1.0472,-0.698132,-0.174533,-0.174533,-1.03871,-0.689862,-0.1558,-0.180016,-1.69761,-0.463105,-0.562001,0.164495
28,40,-1.0472,-0.698132,-0.174533,-0.174533,-1.03871,-0.689862,-0.1558,-0.180016,-1.69761,-0.463105,-0.562001,0.164495
28,40,-1.0472,-0.698132,-0.174533,-0.174533,-1.03871,-0.689862,-0.1558,-0.180016,-1.69761,-0.463105,-0.562001,0.164495
28,40,-1.0472,-0.698132,-0.174533,-0.174533,-1.03871,-0.689862,-0.1558,-0.180016,-1.69761,-0.463105,-0.562001,0.164495
28,40,-1.0472,-0.698132,-0.174533,-0.174533,-1.03871,-0.689862,-0.1558,-0.180016,-1.69761,-0.463105,-0.562001,0.164495
28,40,-1.0472,-0.698132,-0.174533,-0.174533,-1.03871,-0.689862,-0.1558,-0.180016,-1.69761,-0.463105,-0.562001,0.164495
28,40,-1.0472,-0.698132,-0.174533,-0.174533,-1.03871,-0.689862,-0.1558,-0.180016,-1.69761,-0.463105,-0.562001,0.164495
28,40,-1.0472,-0.698132,-0.174533,-0.174533,-1.03871,-0.689862,-0.1558,-0.180016,-1.69761,-0.463105,-0.562001,0.164495
28,40,-1.0472,-0.698132,-0.174533,-0.174533,-1.03871,-0.689862,-0.1558,-0.180016,-1.69761,-0.463105,-0.562001,0.164495
28,40,-1.0472,-0.698132,-0.174533,-0.174533,-1.03871,-0.689862,-0.1558,-0.180016,-1.69761,-0.463105,-0.562001,0.164495
28,40,-1.0472,-0.698132,-0.174533,-0.174533,-1.03871,-0.689862,-0.1558,-0.180016,-1.69761,-0.463105,-0.562001,0.164495
28,40,-1.0472,-0.698132,-0.174533,-0.174533,-1.03871,-0.689862,-0.1558,-0.180016,-1.69761,-0.463105,-0.562001,0.164495
28,40,-1.0472,-0.698132,-0.174533,-0.174533,-1.03871,-0.689862,-0.1558,-0.180016,-1.69761,-0.463105,-0.562001,0.164495
28,40,-1.0472,-0.698132,-0.174533,-0.174533,-1.03871,-0.689862,-0.1558,-0.180016,-1.69761,-0.463105,-0.562001,0.164495
28,40,-1.0472,-0.698132,-0.174533,-0.174533,-1.03871,-0.689862,-0.1558,-0.180016,-1.69761,-0.463105,-0.562001,0.164495
28,40,-1.0472,-0.698132,-0.174533,-0.174533,-1.03871,-0.689862,-0.1558,-0.180016,-1.69761,-0.463105,-0.562001,0.164495
28,40,-1.0472,-0.698132,-0.174533,-0.174533,-1.03871,-0.689862,-0.1558,-0.180016,-1.69761,-0.463105,-0.562001,0.164495
28,40,-1.0472,-0.698132,-0.174533,-0.174533,-1.03871,-0.689862,-0.1558,-0.180016,-1.69761,-0.463105,-0.562001,0.164495
28,40,-1.0472,-0.698132,-0.174533,-0.174533,-1.03871,-0.689862,-0.1558,-0.180016,-1.69761,-0.463105,-0.562001,0.164495
28,40,-1.0472,-0.698132,-0.174533,-0.174533,-1.03871,-0.689862,-0.1558,-0.180016,-1.69761,-0.463105,-0.562001,0.164495
28,40,-1.0472,-0.698132,-0.174533,-0.174533,-1.03871,-0.689862,-0.1558,-0.180016,-1.69761,-0.463105,-0.562001,0.164495
28,40,-1.0472,-0.698132,-0.174533,-0.174533,-1.03871,-0.689862,-0.1558,-0.180016,-1.69761,-0.463105,-0.562001,0.164495
28,40,-1.0472,-0.698132,-0.174533,-0.174533,-1.03871,-0.689862,-0.1558,-0.180016,-1.69761,-0.463105,-0.562001,0.164495
28,40,-1.0472,-0.698132,-0.174533,-0.174533,-1.03871,-0.689862,-0.1558,-0.180016,-1.69761,-0.463105,-0.562001,0.164495
28,40,-1.0472,-0.698132,-0.174533,-0.174533,-1.03871,-0.689862,-0.1558,-0.180016,-1.69761,-0.463105,-0.562001,0.164495
28,40,-1.0472,-0.698132,-0.174533,-0.174533,-1.03871,-0.689862,-0.1558,-0.180016,-1.69761,-0.463105,-0.562001,0.164495
28,40,-1.0472,-0.698132,-0.174533,-0.174533,-1.03871,-0.689862,-0.1558,-0.180016,-1.69761,-0.463105,-0.562001,0.164495
28,40,-1.0472,-0.698132,-0.174533,-0.174533,-1.03871,-0.689862,-0.1558,-0.180016,-1.69761,-0.463105,-0.562001,0.164495
28,40,-1.0472,-0.698132,-0.174533,-0.174533,-1.03871,-0.689862,-0.1558,-0.180016,-1.69761,-0.463105,-0.562001,0.164495
28,40,-1.0472,-0.698132,-0.174533,-0.174533,-1.03871,-0.689862,-0.1558,-0.180016,-1.69761,-0.463105,-0.562001,0.164495
28,40,-1.0472,-0.698132,-0.174533,-0.174533,-1.03871,-0.689862,-0.1558,-0.180016,-1.69761,-0.463105,-0.562001,0.164495
28,40,-1.0472,-0.698132,-0.174533,-0.174533,-1.03871,-0.689862,-0.1558,-0.180016,-1.69761,-0.463105,-0.562001,0.164495
28,40,-1.0472,-0.698132,-0.174533,-0.174533,-1.03871,-0.689862,-0.1558,-0.180016,-1.69761,-0.463105,-0.562001,0.164495
28,40,-1.0472,-0.698132,-0.174533,-0.174533,-1.03871,-0.689862,-0.1558,-0.180016,-1.69761,-0.463105,-0.562001,0.164495
28,40,-1.0472,-0.698132,-0.174533,-0.174533,-1.03871,-0.689862,-0.1558,-0.180016,-1.69761,-0.463105,-0.562001,0.164495
28,40,-1.0472,-0.698132,-0.174533,-0.174533,-1.03871,-0.689862,-0.1558,-0.180016,-1.69761,-0.463105,-0.562001,0.164495
28,40,-1.0472,-0.698132,-0.174533,-0.174533,-1.03871,-0.689862,-0.1558,-0.180016,-1.69761,-0.463105,-0.562001,0.164495
28,40,-1.0472,-0.698132,-0.174533,-0.174533,-1.03871,-0.689862,-0.1558,-0.180016,-1.69761,-0.463105,-0.562001,0.164495
28,40,-1.0472,-0.698132,-0.174533,-0.174533,-1.03871,-0.689862,-0.1558,-0.180016,-1.69761,-0.463105,-0.562001,0.164495
28,40,-1.0472,-0.698132,-0.174533,-0.174533,-1.03871,-0.689862,-0.1558,-0.180016,-1.69761,-0.463105,-0.562001,0.164495
28,40,-1.0472,-0.698132,-0.174533,-0.174533,-1.03871,-0.689862,-0.1558,-0.180016,-1.69761,-0.463105,-0.562001,0.164495
28,40,-1.0472,-0.698132,-0.174533,-0.174533,-1.03871,-0.689862,-0.1558,-0.180016,-1.69761,-0.463105,-0.562001,0.164495
28,40,-1.0472,-0.698132,-0.174533,-0.174533,-1.03871,-0.689862,-0.1558,-0.180016,-1.69761,-0.463105,-0.562001,0.164495
28,40,-1.0472,-0.698132,-0.174533,-0.174533,-1.03871,-0.689862,-0.1558,-0.180016,-1.69761,-0.463105,-0.562001,0.164495
28,40,-1.0472,-0.698132,-0.174533,-0.174533,-1.03871,-0.689862,-0.1558,-0.180016,-1.69761,-0.463105,-0.562001,0.164495
28,40,-1.0472,-0.698132,-0.174533,-0.174533,-1.03871,-0.689862,-0.1558,-0.180016,-1.69761,-0.463105,-0.562001,0.164495
28,40,-1.0472,-0.698132,-0.174533,-0.174533,-1.03871,-0.689862,-0.1558,-0.180016,-1.69761,-0.463105,-0.562001,0.164495
28,40,-1.0472,-0.698132,-0.174533,-0.174533,-1.03871,-0.689862,-0.1558,-0.180016,-1.69761,-0.463105,-0.562001,0.164495
28,40,-1.0472,-0.698132,-0.174533,-0.174533,-1.03871,-0.689862,-0.1558,-0.180016,-1.69761,-0.463105,-0.562001,0.164495
28,40,-1.0472,-0.698132,-0.174533,-0.174533,-1.03871,-0.689862,-0.1558,-0.180016,-1.69761,-0.463105,-0.562001,0.164495
28,40,-1.0472,-0.698132,-0.174533,-0.174533,-1.03871,-0.689862,-0.1558,-0.180016,-1.69761,-0.463105,-0.562001,0.164495
28,40,-1.0472,-0.698132,-0.174533,-0.174533,-1.03871,-0.689862,-0.1558,-0.180016,-1.69761,-0.463105,-0.562001,0.164495
28,40,-1.0472,-0.698132,-0.174533,-0.174533,-1.03871,-0.689862,-0.1558,-0.180016,-1.69761,-0.463105,-0.562001,0.164495
28,40,-1.0472,-0.698132,-0.174533,-0.174533,-1.03871,-0.689862,-0.1558,-0.180016,-1.69761,-0.463105,-0.562001,0.164495
28,40,-1.0472,-0.698132,-0.174533,-0.174533,-1.03871,-0.689862,-0.1558,-0.180016,-1.69761,-0.463105,-0.562001,0.164495
28,40,-1.0472,-0.698132,-0.174533,-0.174533,-1.03871,-0.689862,-0.1558,-0.180016,-1.69761,-0.463105,-0.562001,0.164495
28,40,-1.0472,-0.698132,-0.174533,-0.174533,-1.03871,-0.689862,-0.1558,-0.180016,-1.69761,-0.463105,-0.562001,0.164495
28,40,-1.0472,-0.698132,-0.174533,-0.174533,-1.03871,-0.689862,-0.1558,-0.180016,-1.69761,-0.463105,-0.562001,0.164495
28,40,-1.0472,-0.698132,-0.174533,-0.174533,-1.03871,-0.689862,-0.1558,-0.180016,-1.69761,-0.463105,-0.562001,0.164495
28,40,-1.0472,-0.698132,-0.174533,-0.174533,-1.03871,-0.689862,-0.1558,-0.180016,-1.69761,-0.463105,-0.562001,0.164495
28,40,-1.0472,-0.698132,-0.174533,-0.174533,-1.03871,-0.689862,-0.1558,-0.180016,-1.69761,-0.463105,-0.562001,0.164495
28,40,-1.0472,-0.698132,-0.174533,-0.174533,-1.03871,-0.689862,-0.1558,-0.180016,-1.69761,-0.463105,-0.562001,0.164495
28,40,-1.0472,-0.698132,-0.174533,-0.174533,-1.03871,-0.689862,-0.1558,-0.180016,-1.69761,-0.463105,-0.562001,0.164495
28,40,-1.0472,-0.698132,-0.174533,-0.174533,-1.03871,-0.689862,-0.1558,-0.180016,-1.69761,-0.463105,-0.562001,0.164495
28,40,-1.0472,-0.698132,-0.174533,-0.174533,-1.03871,-0.689862,-0.1558,-0.180016,-1.69761,-0.463105,-0.562001,0.164495
28,40,-1.0472,-0.698132,-0.174533,-0.174533,-1.03871,-0.689862,-0.1558,-0.180016,-1.69761,-0.463105,-0.562001,0.164495
28,40,-1.0472,-0.698132,-0.174533,-0.174533,-1.03871,-0.689862,-0.1558,-0.180016,-1.69761,-0.463105,-0.562001,0.164495
28,40,-1.0472,-0.698132,-0.174533,-0.174533,-1.03871,-0.689862,-0.1558,-0.180016,-1.69761,-0.463105,-0.562001,0.164495
28,40,-1.0472,-0.698132,-0.174533,-0.174533,-1.03871,-0.689862,-0.1558,-0.180016,-1.69761,-0.463105,-0.562001,0.164495
28,40,-1.0472,-0.698132,-0.174533,-0.174533,-1.03871,-0.689862,-0.1558,-0.180016,-1.69761,-0.463105,-0.562001,0.164495
28,40,-1.0472,-0.698132,-0.174533,-0.174533,-1.03871,-0.689862,-0.1558,-0.180016,-1.69761,-0.463105,-0.562001,0.164495
28,40,-1.0472,-0.698132,-0.174533,-0.174533,-1.03871,-0.689862,-0.1558,-0.180016,-1.69761,-0.463105,-0.562001,0.164495
28,40,-1.0472,-0.698132,-0.174533,-0.174533,-1.03871,-0.689862,-0.1558,-0.180016,-1.69761,-0.463105,-0.562001,0.164495
28,40,-1.0472,-0.698132,-0.174533,-0.174533,-1.03871,-0.689862,-0.1558,-0.180016,-1.69761,-0.463105,-0.562001,0.164495
28,40,-1.0472,-0.698132,-0.174533,-0.174533,-1.03871,-0.689862,-0.1558,-0.180016,-1.69761,-0.463105,-0.562001,0.164495
28,40,-1.0472,-0.698132,-0.174533,-0.174533,-1.03871,-0.689862,-0.1558,-0.180016,-1.69761,-0.463105,-0.562001,0.164495
28,40,-1.0472,-0.698132,-0.174533,-0.174533,-1.03871,-0.689862,-0.1558,-0.180016,-1.69761,-0.463105,-0.562001,0.164495
28,40,-1.0472,-0.698132,-0.174533,-0.174533,-1.03871,-0.689862,-0.1558,-0.180016,-1.69761,-0.463105,-0.562001,0.164495
28,40,-1.0472,-0.698132,-0.174533,-0.174533,-1.03871,-0.689862,-0.1558,-0.180016,-1.69761,-0.463105,-0.562001,0.164495
28,40,-1.0472,-0.698132,-0.174533,-0.174533,-1.03871,-0.689862,-0.1558,-0.180016,-1.69761,-0.463105,-0.562001,0.164495
28,40,-1.0472,-0.698132,-0.174533,-0.174533,-1.03871,-0.689862,-0.1558,-0.180016,-1.69761,-0.463105,-0.562001,0.164495
28,40,-1.0472,-0.698132,-0.174533,-0.174533,-1.03871,-0.689862,-0.1558,-0.180016,-1.69761,-0.463105,-0.562001,0.164495
28,40,-1.0472,-0.698132,-0.174533,-0.174533,-1.03871,-0.689862,-0.1558,-0.180016,-1.69761,-0.463105,-0.562001,0.164495
28,40,-1.0472,-0.698132,-0.174533,-0.174533,-1.03871,-0.689862,-0.1558,-0.180016,-1.69761,-0.463105,-0.562001,0.164495
28,40,-1.0472,-0.698132,-0.174533,-0.174533,-1.03871,-0.689862,-0.1558,-0.180016,-1.69761,-0.463105,-0.562001,0.164495
28,40,-1.0472,-0.698132,-0.174533,-0.174533,-1.03871,-0.689862,-0.1558,-0.180016,-1.69761,-0.463105,-0.562001,0.164495
28,40,-1.0472,-0.698132,-0.174533,-0.174533,-1.03871,-0.689862,-0.1558,-0.180016,-1.69761,-0.463105,-0.562001,0.164495
28,40,-1.0472,-0.698132,-0.174533,-0.174533,-1.03871,-0.689862,-0.1558,-0.180016,-1.69761,-0.463105,-0.562001,0.164495
28,40,-1.0472,-0.698132,-0.174533,-0.174533,-1.03871,-0.689862,-0.1558,-0.180016,-1.69761,-0.463105,-0.562001,0.164495
28,40,-1.0472,-0.698132,-0.174533,-0.174533,-1.03871,-0.689862,-0.1558,-0.180016,-1.69761,-0.463105,-0.562001,0.164495
28,40,-1.0472,-0.698132,-0.174533,-0.174533,-1.03871,-0.689862,-0.1558,-0.180016,-1.69761,-0.463105,-0.562001,0.164495
28,40,-1.0472,-0.698132,-0.174533,-0.174533,-1.03871,-0.689862,-0.1558,-0.180016,-1.69761,-0.463105,-0.562001,0.164495
28,40,-1.0472,-0.698132,-0.174533,-0.174533,-1.03871,-0.689862,-0.1558,-0.180016,-1.69761,-0.463105,-0.562001,0.164495
28,40,-1.0472,-0.698132,-0.174533,-0.174533,-1.03871,-0.689862,-0.1558,-0.180016,-1.69761,-0.463105,-0.562001,0.164495
28,40,-1.0472,-0.698132,-0.174533,-0.174533,-1.03871,-0.689862,-0.1558,-0.180016,-1.69761,-0.463105,-0.562001,0.164495
28,40,-1.0472,-0.698132,-0.174533,-0.174533,-1.03871,-0.689862,-0.1558,-0.180016,-1.69761,-0.463105,-0.562001,0.164495
28,40,-1.0472,-0.698132,-0.174533,-0.174533,-1.03871,-0.689862,-0.1558,-0.180016,-1.69761,-0.463105,-0.562001,0.164495
28,40,-1.0472,-0.698132,-0.174533,-0.174533,-1.03871,-0.689862,-0.1558,-0.180016,-1.69761,-0.463105,-0.562001,0.164495
28,40,-1.0472,-0.698132,-0.174533,-0.174533,-1.03871,-0.689862,-0.1558,-0.180016,-1.69761,-0.463105,-0.562001,0.164495
28,40,-1.0472,-0.698132,-0.174533,-0.174533,-1.03871,-0.689862,-0.1558,-0.180016,-1.69761,-0.463105,-0.562001,0.164495
28,40,-1.0472,-0.698132,-0.174533,-0.174533,-1.03871,-0.689862,-0.1558,-0.180016,-1.69761,-0.463105,-0.562001,0.164495
28,40,-1.0472,-0.698132,-0.174533,-0.174533,-1.03871,-0.689862,-0.1558,-0.180016,-1.69761,-0.463105,-0.562001,0.164495
28,40,-1.0472,-0.698132,-0.174533,-0.174533,-1.03871,-0.689862,-0.1558,-0.180016,-1.69761,-0.463105,-0.562001,0.164495
28,40,-1.0472,-0.698132,-0.174533,-0.174533,-1.03871,-0.689862,-0.1558,-0.180016,-1.69761,-0.463105,-0.562001,0.164495
28,40,-1.0472,-0.698132,-0.174533,-0.174533,-1.03871,-0.689862,-0.1558,-0.180016,-1.69761,-0.463105,-0.562001,0.164495
28,40,-1.0472,-0.698132,-0.174533,-0.174533,-1.03871,-0.689862,-0.1558,-0.180016,-1.69761,-0.463105,-0.562001,0.164495
28,40,-1.0472,-0.698132,-0.174533,-0.174533,-1.03871,-0.689862,-0.1558,-0.180016,-1.69761,-0.463105,-0.562001,0.164495
28,40,-1.0472,-0.698132,-0.174533,-0.174533,-1.03871,-0.689862,-0.1558,-0.180016,-1.69761,-0.463105,-0.562001,0.164495
28,40,-1.0472,-0.698132,-0.174533,-0.174533,-1.03871,-0.689862,-0.1558,-0.180016,-1.69761,-0.463105,-0.562001,0.164495
28,40,-1.0472,-0.698132,-0.174533,-0.174533,-1.03871,-0.689862,-0.1558,-0.180016,-1.69761,-0.463105,-0.562001,0.164495
28,40,-1.0472,-0.698132,-0.174533,-0.174533,-1.03871,-0.689862,-0.1558,-0.180016,-1.69761,-0.463105,-0.562001,0.164495
28,40,-1.0472,-0.698132,-0.174533,-0.174533,-1.03871,-0.689862,-0.1558,-0.180016,-1.69761,-0.463105,-0.562001,0.164495
28,40,-1.0472,-0.698132,-0.174533,-0.174533,-1.03871,-0.689862,-0.1558,-0.180016,-1.69761,-0.463105,-0.562001,0.164495
28,40,-1.0472,-0.698132,-0.174533,-0.174533,-1.03871,-0.689862,-0.1558,-0.180016,-1.69761,-0.463105,-0.562001,0.164495
28,40,-1.0472,-0.698132,-0.174533,-0.174533,-1.03871,-0.689862,-0.1558,-0.180016,-1.69761,-0.463105,-0.562001,0.164495
28,40,-1.0472,-0.698132,-0.174533,-0.174533,-1.03871,-0.689862,-0.155797,-0.179957,-1.69761,-0.463105,-0.562067,0.162711
28,40,-1.0472,-0.698132,-0.174533,-0.174533,-1.03871,-0.689862,-0.155797,-0.179957,-1.69761,-0.463105,-0.562067,0.162711
28,40,-1.0472,-0.698132,-0.174533,-0.174533,-1.03871,-0.689862,-0.155797,-0.179957,-1.69761,-0.463105,-0.562067,0.162711
28,40,-1.0472,-0.698132,-0.174533,-0.174533,-1.03871,-0.689862,-0.155797,-0.179957,-1.69761,-0.463105,-0.562067,0.162711
28,40,-1.0472,-0.698132,-0.174533,-0.174533,-1.03871,-0.689862,-0.155797,-0.179957,-1.69761,-0.463105,-0.562067,0.162711
28,40,-1.0472,-0.698132,-0.174533,-0.174533,-1.03871,-0.689862,-0.155797,-0.179957,-1.69761,-0.463105,-0.562067,0.162711
28,40,-1.0472,-0.698132,-0.174533,-0.174533,-1.03871,-0.689862,-0.155797,-0.179957,-1.69761,-0.463105,-0.562067,0.162711
28,40,-1.0472,-0.698132,-0.174533,-0.174533,-1.03871,-0.689862,-0.155797,-0.179957,-1.69761,-0.463105,-0.562067,0.162711
28,40,-1.0472,-0.698132,-0.174533,-0.174533,-1.03871,-0.689862,-0.155797,-0.179957,-1.69761,-0.463105,-0.562067,0.162711
28,40,-1.0472,-0.698132,-0.174533,-0.174533,-1.03871,-0.689862,-0.155797,-0.179957,-1.69761,-0.463105,-0.562067,0.162711
28,40,-1.0472,-0.698132,-0.174533,-0.174533,-1.03871,-0.689862,-0.155797,-0.179957,-1.69761,-0.463105,-0.562067,0.162711
28,40,-1.0472,-0.698132,-0.174533,-0.174533,-1.03871,-0.689862,-0.155797,-0.179957,-1.69761,-0.463105,-0.562067,0.162711
28,40,-1.0472,-0.698132,-0.174533,-0.174533,-1.03871,-0.689862,-0.155797,-0.179957,-1.69761,-0.463105,-0.562067,0.162711
28,40,-1.0472,-0.698132,-0.174533,-0.174533,-1.03871,-0.689862,-0.155797,-0.179957,-1.69761,-0.463105,-0.562067,0.162711
28,40,-1.0472,-0.698132,-0.174533,-0.174533,-1.03871,-0.689862,-0.155797,-0.179957,-1.69761,-0.463105,-0.562067,0.162711
28,40,-1.0472,-0.698132,-0.174533,-0.174533,-1.03871,-0.689862,-0.155797,-0.179957,-1.69761,-0.463105,-0.562067,0.162711
28,40,-1.0472,-0.698132,-0.174533,-0.174533,-1.03871,-0.689862,-0.155797,-0.179957,-1.69761,-0.463105,-0.562067,0.162711
28,40,-1.0472,-0.698132,-0.174533,-0.174533,-1.03871,-0.689862,-0.155797,-0.179957,-1.69761,-0.463105,-0.562067,0.162711
28,40,-1.0472,-0.698132,-0.174533,-0.174533,-1.03871,-0.689862,-0.155797,-0.179957,-1.69761,-0.463105,-0.562067,0.162711
28,40,-1.0472,-0.698132,-0.174533,-0.174533,-1.03871,-0.689862,-0.155797,-0.179957,-1.69761,-0.463105,-0.562067,0.162711
28,40,-1.0472,-0.698132,-0.174533,-0.174533,-1.03871,-0.689862,-0.155797,-0.179957,-1.69761,-0.463105,-0.562067,0.162711
28,40,-1.0472,-0.698132,-0.174533,-0.174533,-1.03871,-0.689862,-0.155797,-0.179957,-1.69761,-0.463105,-0.562067,0.162711
28,40,-1.0472,-0.698132,-0.174533,-0.174533,-1.03871,-0.689862,-0.155797,-0.179957,-1.69761,-0.463105,-0.562067,0.162711
28,40,-1.0472,-0.698132,-0.174533,-0.174533,-1.03871,-0.689862,-0.155797,-0.179957,-1.69761,-0.463105,-0.562067,0.162711
28,40,-1.0472,-0.698132,-0.174533,-0.174533,-1.03871,-0.689862,-0.155797,-0.179957,-1.69761,-0.463105,-0.562067,0.162711
28,40,-1.0472,-0.698132,-0.174533,-0.174533,-1.03871,-0.689862,-0.155797,-0.179957,-1.69761,-0.463105,-0.562067,0.162711
28,40,-1.0472,-0.698132,-0.174533,-0.174533,-1.03871,-0.689862,-0.155797,-0.179957,-1.69761,-0.463105,-0.562067,0.162711
28,40,-1.0472,-0.698132,-0.174533,-0.174533,-1.03871,-0.689862,-0.155797,-0.179957,-1.69761,-0.463105,-0.562067,0.162711
28,40,-1.0472,-0.698132,-0.174533,-0.174533,-1.03871,-0.689862,-0.155797,-0.179957,-1.69761,-0.463105,-0.562067,0.162711
28,40,-1.0472,-0.698132,-0.174533,-0.174533,-1.03871,-0.689862,-0.155797,-0.179957,-1.69761,-0.463105,-0.562067,0.162711
28,40,-1.0472,-0.698132,-0.174533,-0.174533,-1.03871,-0.689862,-0.155797,-0.179957,-1.69761,-0.463105,-0.562067,0.162711
28,40,-1.0472,-0.698132,-0.174533,-0.174533,-1.03871,-0.689862,-0.155797,-0.179957,-1.69761,-0.463105,-0.562067,0.162711
28,40,-1.0472,-0.698132,-0.174533,-0.174533,-1.03871,-0.689862,-0.155797,-0.179957,-1.69761,-0.463105,-0.562067,0.162711
28,40,-1.0472,-0.698132,-0.174533,-0.174533,-1.03871,-0.689862,-0.155797,-0.179957,-1.69761,-0.463105,-0.562067,0.162711
28,40,-1.0472,-0.698132,-0.174533,-0.174533,-1.03871,-0.689862,-0.155797,-0.179957,-1.69761,-0.463105,-0.562067,0.162711
28,40,-1.0472,-0.698132,-0.174533,-0.174533,-1.03871,-0.689862,-0.155797,-0.179957,-1.69761,-0.463105,-0.562067,0.162711
28,40,-1.0472,-0.698132,-0.174533,-0.174533,-1.03871,-0.689862,-0.155797,-0.179957,-1.69761,-0.463105,-0.562067,0.162711
28,40,-1.0472,-0.698132,-0.174533,-0.174533,-1.03871,-0.689862,-0.155797,-0.179957,-1.69761,-0.463105,-0.562067,0.162711
28,40,-1.0472,-0.698132,-0.174533,-0.174533,-1.03871,-0.689862,-0.155797,-0.179957,-1.69761,-0.463105,-0.562067,0.162711
28,40,-1.0472,-0.698132,-0.174533,-0.174533,-1.03871,-0.689862,-0.155797,-0.179957,-1.69761,-0.463105,-0.562067,0.162711
28,40,-1.0472,-0.698132,-0.174533,-0.174533,-1.03871,-0.689862,-0.155797,-0.179957,-1.69761,-0.463105,-0.562067,0.162711
28,40,-1.0472,-0.698132,-0.174533,-0.174533,-1.03871,-0.689862,-0.155797,-0.179957,-1.69761,-0.463105,-0.562067,0.162711
28,40,-1.0472,-0.698132,-0.174533,-0.174533,-1.03871,-0.689862,-0.155797,-0.179957,-1.69761,-0.463105,-0.562067,0.162711
28,40,-1.0472,-0.698132,-0.174533,-0.174533,-1.03871,-0.689862,-0.155797,-0.179957,-1.69761,-0.463105,-0.562067,0.162711
28,40,-1.0472,-0.698132,-0.174533,-0.174533,-1.03871,-0.689862,-0.155797,-0.179957,-1.69761,-0.463105,-0.562067,0.162711
28,40,-1.0472,-0.698132,-0.174533,-0.174533,-1.03871,-0.689862,-0.155797,-0.179957,-1.69761,-0.463105,-0.562067,0.162711
28,40,-1.0472,-0.698132,-0.174533,-0.174533,-1.03871,-0.689862,-0.155797,-0.179957,-1.69761,-0.463105,-0.562067,0.162711
28,40,-1.0472,-0.698132,-0.174533,-0.174533,-1.03871,-0.689862,-0.155797,-0.179957,-1.69761,-0.463105,-0.562067,0.162711
28,40,-1.0472,-0.698132,-0.174533,-0.174533,-1.03871,-0.689862,-0.155797,-0.179957,-1.69761,-0.463105,-0.562067,0.162711
28,40,-1.0472,-0.698132,-0.174533,-0.174533,-1.03871,-0.689862,-0.155797,-0.179957,-1.69761,-0.463105,-0.562067,0.162711
28,40,-1.0472,-0.698132,-0.174533,-0.174533,-1.03871,-0.689862,-0.155797,-0.179957,-1.69761,-0.463105,-0.562067,0.162711
28,40,-1.0472,-0.698132,-0.174533,-0.174533,-1.03871,-0.689862,-0.155797,-0.179957,-1.69761,-0.463105,-0.562067,0.162711
28,40,-1.0472,-0.698132,-0.174533,-0.174533,-1.03871,-0.689862,-0.155797,-0.179957,-1.69761,-0.463105,-0.562067,0.162711
28,40,-1.0472,-0.698132,-0.174533,-0.174533,-1.03871,-0.689862,-0.155797,-0.179957,-1.69761,-0.463105,-0.562067,0.162711
28,40,-1.0472,-0.698132,-0.174533,-0.174533,-1.03871,-0.689862,-0.155797,-0.179957,-1.69761,-0.463105,-0.562067,0.162711
28,40,-1.0472,-0.698132,-0.174533,-0.174533,-1.03871,-0.689862,-0.155797,-0.179957,-1.69761,-0.463105,-0.562067,0.162711
28,40,-1.0472,-0.698132,-0.174533,-0.174533,-1.03871,-0.689862,-0.155797,-0.179957,-1.69761,-0.463105,-0.562067,0.162711
28,40,-1.0472,-0.698132,-0.174533,-0.174533,-1.03871,-0.689862,-0.155797,-0.179957,-1.69761,-0.463105,-0.562067,0.162711
28,40,-1.0472,-0.698132,-0.174533,-0.174533,-1.03871,-0.689862,-0.155797,-0.179957,-1.69761,-0.463105,-0.562067,0.162711
28,40,-1.0472,-0.698132,-0.174533,-0.174533,-1.03871,-0.689862,-0.155797,-0.179957,-1.69761,-0.463105,-0.562067,0.162711
28,40,-1.0472,-0.698132,-0.174533,-0.174533,-1.03871,-0.689862,-0.155797,-0.179957,-1.69761,-0.463105,-0.562067,0.162711
28,40,-1.0472,-0.698132,-0.174533,-0.174533,-1.03871,-0.689862,-0.155797,-0.179957,-1.69761,-0.463105,-0.562067,0.162711
28,40,-1.0472,-0.698132,-0.174533,-0.174533,-1.03871,-0.689862,-0.155797,-0.179957,-1.69761,-0.463105,-0.562067,0.162711
28,40,-1.0472,-0.698132,-0.174533,-0.174533,-1.03871,-0.689862,-0.155797,-0.179957,-1.69761,-0.463105,-0.562067,0.162711
28,40,-1.0472,-0.698132,-0.174533,-0.174533,-1.03871,-0.689862,-0.155797,-0.179957,-1.69761,-0.463105,-0.562067,0.162711
28,40,-1.0472,-0.698132,-0.174533,-0.174533,-1.03871,-0.689862,-0.155797,-0.179957,-1.69761,-0.463105,-0.562067,0.162711
28,40,-1.0472,-0.698132,-0.174533,-0.174533,-1.03871,-0.689862,-0.155797,-0.179957,-1.69761,-0.463105,-0.562067,0.162711
28,40,-1.0472,-0.698132,-0.174533,-0.174533,-1.03871,-0.689862,-0.155797,-0.179957,-1.69761,-0.463105,-0.562067,0.162711
28,40,-1.0472,-0.698132,-0.174533,-0.174533,-1.03871,-0.689862,-0.155797,-0.179957,-1.69761,-0.463105,-0.562067,0.162711
28,40,-1.0472,-0.698132,-0.174533,-0.174533,-1.03871,-0.689862,-0.155797,-0.179957,-1.69761,-0.463105,-0.562067,0.162711
28,40,-1.0472,-0.698132,-0.174533,-0.174533,-1.03871,-0.689862,-0.155797,-0.179957,-1.69761,-0.463105,-0.562067,0.162711
28,40,-1.0472,-0.698132,-0.174533,-0.174533,-1.03871,-0.689862,-0.155797,-0.179957,-1.69761,-0.463105,-0.562067,0.162711
28,40,-1.0472,-0.698132,-0.174533,-0.174533,-1.03871,-0.689862,-0.155797,-0.179957,-1.69761,-0.463105,-0.562067,0.162711
28,40,-1.0472,-0.698132,-0.174533,-0.174533,-1.03871,-0.689862,-0.155797,-0.179957,-1.69761,-0.463105,-0.562067,0.162711
28,40,-1.0472,-0.698132,-0.174533,-0.174533,-1.03871,-0.689862,-0.155797,-0.179957,-1.69761,-0.463105,-0.562067,0.162711
28,40,-1.0472,-0.698132,-0.174533,-0.174533,-1.03871,-0.689862,-0.155797,-0.179957,-1.69761,-0.463105,-0.562067,0.162711
28,40,-1.0472,-0.698132,-0.174533,-0.174533,-1.03871,-0.689862,-0.155797,-0.179957,-1.69761,-0.463105,-0.562067,0.162711
28,40,-1.0472,-0.698132,-0.174533,-0.174533,-1.03871,-0.689862,-0.155797,-0.179957,-1.69761,-0.463105,-0.562067,0.162711
28,40,-1.0472,-0.698132,-0.174533,-0.174533,-1.03871,-0.689862,-0.155797,-0.179957,-1.69761,-0.463105,-0.562067,0.162711
28,40,-1.0472,-0.698132,-0.174533,-0.174533,-1.03871,-0.689862,-0.155797,-0.179957,-1.69761,-0.463105,-0.562067,0.162711
28,40,-1.0472,-0.698132,-0.174533,-0.174533,-1.03871,-0.689862,-0.155797,-0.179957,-1.69761,-0.463105,-0.562067,0.162711
28,40,-1.0472,-0.698132,-0.174533,-0.174533,-1.03871,-0.689862,-0.155797,-0.179957,-1.69761,-0.463105,-0.562067,0.162711
28,40,-1.0472,-0.698132,-0.174533,-0.174533,-1.03871,-0.689862,-0.155797,-0.179957,-1.69761,-0.463105,-0.562067,0.162711
28,40,-1.0472,-0.698132,-0.174533,-0.174533,-1.03871,-0.689862,-0.155797,-0.179957,-1.69761,-0.463105,-0.562067,0.162711
28,40,-1.0472,-0.698132,-0.174533,-0.174533,-1.03871,-0.689862,-0.155797,-0.179957,-1.69761,-0.463105,-0.562067,0.162711
28,40,-1.0472,-0.698132,-0.174533,-0.174533,-1.03871,-0.689862,-0.155797,-0.179957,-1.69761,-0.463105,-0.562067,0.162711
28,40,-1.0472,-0.698132,-0.174533,-0.174533,-1.03871,-0.689862,-0.155797,-0.179957,-1.69761,-0.463105,-0.562067,0.162711
28,40,-1.0472,-0.698132,-0.174533,-0.174533,-1.03871,-0.689862,-0.155797,-0.179957,-1.69761,-0.463105,-0.562067,0.162711
28,40,-1.0472,-0.698132,-0.174533,-0.174533,-1.03871,-0.689862,-0.155797,-0.179957,-1.69761,-0.463105,-0.562067,0.162711
28,40,-1.0472,-0.698132,-0.174533,-0.174533,-1.03871,-0.689862,-0.155797,-0.179957,-1.69761,-0.463105,-0.562067,0.162711
28,40,-1.0472,-0.698132,-0.174533,-0.174533,-1.03871,-0.689862,-0.155797,-0.179957,-1.69761,-0.463105,-0.562067,0.162711
28,40,-1.0472,-0.698132,-0.174533,-0.174533,-1.03871,-0.689862,-0.155797,-0.179957,-1.69761,-0.463105,-0.562067,0.162711
28,40,-1.0472,-0.698132,-0.174533,-0.174533,-1.03871,-0.689862,-0.155797,-0.179957,-1.69761,-0.463105,-0.562067,0.162711
28,40,-1.0472,-0.698132,-0.174533,-0.174533,-1.03871,-0.689862,-0.155797,-0.179957,-1.69761,-0.463105,-0.562067,0.162711
28,40,-1.0472,-0.698132,-0.174533,-0.174533,-1.03871,-0.689862,-0.155797,-0.179957,-1.69761,-0.463105,-0.562067,0.162711
28,40,-1.0472,-0.698132,-0.174533,-0.174533,-1.03871,-0.689862,-0.155797,-0.179957,-1.69761,-0.463105,-0.562067,0.162711
28,40,-1.0472,-0.698132,-0.174533,-0.174533,-1.03871,-0.689862,-0.155797,-0.179957,-1.69761,-0.463105,-0.562067,0.162711
28,40,-1.0472,-0.698132,-0.174533,-0.174533,-1.03871,-0.689862,-0.155797,-0.179957,-1.69761,-0.463105,-0.562067,0.162711
28,40,-1.0472,-0.698132,-0.174533,-0.174533,-1.03871,-0.689862,-0.155797,-0.179957,-1.69761,-0.463105,-0.562067,0.162711
28,40,-1.0472,-0.698132,-0.174533,-0.174533,-1.03871,-0.689862,-0.155797,-0.179957,-1.69761,-0.463105,-0.562067,0.162711
28,40,-1.0472,-0.698132,-0.174533,-0.174533,-1.03871,-0.689862,-0.155797,-0.179957,-1.69761,-0.463105,-0.562067,0.162711
28,40,-1.0472,-0.698132,-0.174533,-0.174533,-1.03871,-0.689862,-0.155797,-0.179957,-1.69761,-0.463105,-0.562067,0.162711
28,40,-1.0472,-0.698132,-0.174533,-0.174533,-1.03871,-0.689862,-0.155797,-0.179957,-1.69761,-0.463105,-0.562067,0.162711
28,40,-1.0472,-0.698132,-0.174533,-0.174533,-1.03871,-0.689862,-0.155797,-0.179957,-1.69761,-0.463105,-0.562067,0.162711
28,40,-1.0472,-0.698132,-0.174533,-0.174533,-1.03871,-0.689862,-0.155797,-0.179957,-1.69761,-0.463105,-0.562067,0.162711
28,40,-1.0472,-0.698132,-0.174533,-0.174533,-1.03871,-0.689862,-0.155797,-0.179957,-1.69761,-0.463105,-0.562067,0.162711
28,40,-1.0472,-0.698132,-0.174533,-0.174533,-1.03871,-0.689862,-0.155797,-0.179957,-1.69761,-0.463105,-0.562067,0.162711
28,40,-1.0472,-0.698132,-0.174533,-0.174533,-1.03871,-0.689862,-0.155797,-0.179957,-1.69761,-0.463105,-0.562067,0.162711
28,40,-1.0472,-0.698132,-0.174533,-0.174533,-1.03871,-0.689862,-0.155797,-0.179957,-1.69761,-0.463105,-0.562067,0.162711
28,40,-1.0472,-0.698132,-0.174533,-0.174533,-1.03871,-0.689862,-0.155797,-0.179957,-1.69761,-0.463105,-0.562067,0.162711
28,40,-1.0472,-0.698132,-0.174533,-0.174533,-1.03871,-0.689862,-0.155797,-0.179957,-1.69761,-0.463105,-0.562067,0.162711
28,40,-1.0472,-0.698132,-0.174533,-0.174533,-1.03871,-0.689862,-0.155797,-0.179957,-1.69761,-0.463105,-0.562067,0.162711
28,40,-1.0472,-0.698132,-0.174533,-0.174533,-1.03871,-0.689862,-0.155797,-0.179957,-1.69761,-0.463105,-0.562067,0.162711
28,40,-1.0472,-0.698132,-0.174533,-0.174533,-1.03871,-0.689862,-0.155797,-0.179957,-1.69761,-0.463105,-0.562067,0.162711
28,40,-1.0472,-0.698132,-0.174533,-0.174533,-1.03871,-0.689862,-0.155797,-0.179957,-1.69761,-0.463105,-0.562067,0.162711
28,40,-1.0472,-0.698132,-0.174533,-0.174533,-1.03871,-0.689862,-0.155797,-0.179957,-1.69761,-0.463105,-0.562067,0.162711
28,40,-1.0472,-0.698132,-0.174533,-0.174533,-1.03871,-0.689862,-0.155797,-0.179957,-1.69761,-0.463105,-0.562067,0.162711
28,40,-1.0472,-0.698132,-0.174533,-0.174533,-1.03871,-0.689862,-0.155797,-0.179957,-1.69761,-0.463105,-0.562067,0.162711
28,40,-1.0472,-0.698132,-0.174533,-0.174533,-1.03871,-0.689862,-0.155797,-0.179957,-1.69761,-0.463105,-0.562067,0.162711
28,40,-1.0472,-0.698132,-0.174533,-0.174533,-1.03871,-0.689862,-0.155797,-0.179957,-1.69761,-0.463105,-0.562067,0.162711
28,40,-1.0472,-0.698132,-0.174533,-0.174533,-1.03871,-0.689862,-0.155797,-0.179957,-1.69761,-0.463105,-0.562067,0.162711
28,40,-1.0472,-0.698132,-0.174533,-0.174533,-1.03871,-0.689862,-0.155797,-0.179957,-1.69761,-0.463105,-0.562067,0.162711
28,40,-1.0472,-0.698132,-0.174533,-0.174533,-1.03871,-0.689862,-0.155797,-0.179957,-1.69761,-0.463105,-0.562067,0.162711
28,40,-1.0472,-0.698132,-0.174533,-0.174533,-1.03871,-0.689862,-0.155797,-0.179957,-1.69761,-0.463105,-0.562067,0.162711
28,40,-1.0472,-0.698132,-0.174533,-0.174533,-1.03871,-0.689862,-0.155797,-0.179957,-1.69761,-0.463105,-0.562067,0.162711
28,40,-1.0472,-0.698132,-0.174533,-0.174533,-1.03871,-0.689862,-0.155797,-0.179957,-1.69761,-0.463105,-0.562067,0.162711
28,40,-1.0472,-0.698132,-0.174533,-0.174533,-1.03871,-0.689862,-0.155797,-0.179957,-1.69761,-0.463105,-0.562067,0.162711
28,40,-1.0472,-0.698132,-0.174533,-0.174533,-1.03871,-0.689862,-0.155797,-0.179957,-1.69761,-0.463105,-0.562067,0.162711
28,40,-1.0472,-0.698132,-0.174533,-0.174533,-1.03871,-0.689862,-0.155797,-0.179957,-1.69761,-0.463105,-0.562067,0.162711
28,40,-1.0472,-0.698132,-0.174533,-0.174533,-1.03871,-0.689862,-0.155797,-0.179957,-1.69761,-0.463105,-0.562067,0.162711
28,40,-1.0472,-0.698132,-0.174533,-0.174533,-1.03871,-0.689862,-0.155797,-0.179957,-1.69761,-0.463105,-0.562067,0.162711
28,40,-1.0472,-0.698132,-0.174533,-0.174533,-1.03871,-0.689862,-0.155797,-0.179957,-1.69761,-0.463105,-0.562067,0.162711
28,40,-1.0472,-0.698132,-0.174533,-0.174533,-1.03871,-0.689862,-0.155797,-0.179957,-1.69761,-0.463105,-0.562067,0.162711
28,40,-1.0472,-0.698132,-0.174533,-0.174533,-1.03871,-0.689862,-0.155797,-0.179957,-1.69761,-0.463105,-0.562067,0.162711
28,40,-1.0472,-0.698132,-0.174533,-0.174533,-1.03871,-0.689862,-0.155797,-0.179957,-1.69761,-0.463105,-0.562067,0.162711
28,40,-1.0472,-0.698132,-0.174533,-0.174533,-1.03871,-0.689862,-0.155797,-0.179957,-1.69761,-0.463105,-0.562067,0.162711
28,40,-1.0472,-0.698132,-0.174533,-0.174533,-1.03871,-0.689862,-0.155797,-0.179957,-1.69761,-0.463105,-0.562067,0.162711
28,40,-1.0472,-0.698132,-0.174533,-0.174533,-1.03871,-0.689862,-0.155797,-0.179957,-1.69761,-0.463105,-0.562067,0.162711
28,40,-1.0472,-0.698132,-0.174533,-0.174533,-1.03871,-0.689862,-0.155797,-0.179957,-1.69761,-0.463105,-0.562067,0.162711
28,40,-1.0472,-0.698132,-0.174533,-0.174533,-1.03871,-0.689862,-0.155797,-0.179957,-1.69761,-0.463105,-0.562067,0.162711
28,40,-1.0472,-0.698132,-0.174533,-0.174533,-1.03871,-0.689862,-0.155797,-0.179957,-1.69761,-0.463105,-0.562067,0.162711
28,40,-1.0472,-0.698132,-0.174533,-0.174533,-1.03871,-0.689862,-0.155797,-0.179957,-1.69761,-0.463105,-0.562067,0.162711
28,40,-1.0472,-0.698132,-0.174533,-0.174533,-1.03871,-0.689862,-0.155797,-0.179957,-1.69761,-0.463105,-0.562067,0.162711
28,40,-1.0472,-0.698132,-0.174533,-0.174533,-1.03871,-0.689862,-0.155797,-0.179957,-1.69761,-0.463105,-0.562067,0.162711
28,40,-1.0472,-0.698132,-0.174533,-0.174533,-1.03871,-0.689862,-0.155797,-0.179957,-1.69761,-0.463105,-0.562067,0.162711
28,40,-1.0472,-0.698132,-0.174533,-0.174533,-1.03871,-0.689862,-0.155797,-0.179957,-1.69761,-0.463105,-0.562067,0.162711
28,40,-1.0472,-0.698132,-0.174533,-0.174533,-1.03871,-0.689862,-0.155797,-0.179957,-1.69761,-0.463105,-0.562067,0.162711
28,40,-1.0472,-0.698132,-0.174533,-0.174533,-1.03871,-0.689862,-0.155797,-0.179957,-1.69761,-0.463105,-0.562067,0.162711
28,40,-1.0472,-0.698132,-0.174533,-0.174533,-1.03871,-0.689862,-0.155797,-0.179957,-1.69761,-0.463105,-0.562067,0.162711
28,40,-1.0472,-0.698132,-0.174533,-0.174533,-1.03871,-0.689862,-0.155797,-0.179957,-1.69761,-0.463105,-0.562067,0.162711
28,40,-1.0472,-0.698132,-0.174533,-0.174533,-1.03871,-0.689862,-0.155797,-0.179957,-1.69761,-0.463105,-0.562067,0.162711
28,40,-1.0472,-0.698132,-0.174533,-0.174533,-1.03871,-0.689862,-0.155797,-0.179957,-1.69761,-0.463105,-0.562067,0.162711
28,40,-1.0472,-0.698132,-0.174533,-0.174533,-1.03871,-0.689862,-0.155797,-0.179957,-1.69761,-0.463105,-0.562067,0.162711
28,40,-1.0472,-0.698132,-0.174533,-0.174533,-1.03871,-0.689862,-0.155797,-0.179957,-1.69761,-0.463105,-0.562067,0.162711
28,40,-1.0472,-0.698132,-0.174533,-0.174533,-1.03871,-0.689862,-0.155797,-0.179957,-1.69761,-0.463105,-0.562067,0.162711
28,40,-1.0472,-0.698132,-0.174533,-0.174533,-1.03871,-0.689862,-0.155797,-0.179957,-1.69761,-0.463105,-0.562067,0.162711
28,40,-1.0472,-0.698132,-0.174533,-0.174533,-1.03871,-0.689862,-0.155797,-0.179957,-1.69761,-0.463105,-0.562067,0.162711
28,40,-1.0472,-0.698132,-0.174533,-0.174533,-1.03871,-0.689862,-0.155797,-0.179957,-1.69761,-0.463105,-0.562067,0.162711
28,40,-1.0472,-0.698132,-0.174533,-0.174533,-1.03871,-0.689862,-0.155797,-0.179957,-1.69761,-0.463105,-0.562067,0.162711
28,40,-1.0472,-0.698132,-0.174533,-0.174533,-1.03871,-0.689862,-0.155797,-0.179957,-1.69761,-0.463105,-0.562067,0.162711
28,40,-1.0472,-0.698132,-0.174533,-0.174533,-1.03871,-0.689862,-0.155797,-0.179957,-1.69761,-0.463105,-0.562067,0.162711
28,40,-1.0472,-0.698132,-0.174533,-0.174533,-1.03871,-0.689862,-0.155797,-0.179957,-1.69761,-0.463105,-0.562067,0.162711
28,40,-1.0472,-0.698132,-0.174533,-0.174533,-1.03871,-0.689862,-0.155797,-0.179957,-1.69761,-0.463105,-0.562067,0.162711
28,40,-1.0472,-0.698132,-0.174533,-0.174533,-1.03871,-0.689862,-0.155797,-0.179957,-1.69761,-0.463105,-0.562067,0.162711
28,40,-1.0472,-0.698132,-0.174533,-0.174533,-1.03871,-0.689862,-0.155797,-0.179957,-1.69761,-0.463105,-0.562067,0.162711
28,40,-1.0472,-0.698132,-0.174533,-0.174533,-1.03871,-0.689862,-0.155797,-0.179957,-1.69761,-0.463105,-0.562067,0.162711
28,40,-1.0472,-0.698132,-0.174533,-0.174533,-1.03871,-0.689862,-0.155797,-0.179957,-1.69761,-0.463105,-0.562067,0.162711
28,40,-1.0472,-0.698132,-0.174533,-0.174533,-1.03871,-0.689862,-0.155797,-0.179957,-1.69761,-0.463105,-0.562067,0.162711
28,40,-1.0472,-0.698132,-0.174533,-0.174533,-1.03871,-0.689862,-0.155797,-0.179957,-1.69761,-0.463105,-0.562067,0.162711
28,40,-1.0472,-0.698132,-0.174533,-0.174533,-1.03871,-0.689862,-0.155797,-0.179957,-1.69761,-0.463105,-0.562067,0.162711
28,40,-1.0472,-0.698132,-0.174533,-0.174533,-1.03871,-0.689862,-0.155797,-0.179957,-1.69761,-0.463105,-0.562067,0.162711
28,40,-1.0472,-0.698132,-0.174533,-0.174533,-1.03871,-0.689862,-0.155797,-0.179957,-1.69761,-0.463105,-0.562067,0.162711
28,40,-1.0472,-0.698132,-0.174533,-0.174533,-1.03871,-0.689862,-0.155862,-0.179998,-1.69761,-0.463105,-0.560129,0.16396
28,40,-1.0472,-0.698132,-0.174533,-0.174533,-1.03871,-0.689862,-0.155862,-0.179998,-1.69761,-0.463105,-0.560129,0.16396
28,40,-1.0472,-0.698132,-0.174533,-0.174533,-1.03871,-0.689862,-0.155862,-0.179998,-1.69761,-0.463105,-0.560129,0.16396
28,40,-1.0472,-0.698132,-0.174533,-0.174533,-1.03871,-0.689862,-0.155862,-0.179998,-1.69761,-0.463105,-0.560129,0.16396
28,40,-1.0472,-0.698132,-0.174533,-0.174533,-1.03871,-0.689862,-0.155862,-0.179998,-1.69761,-0.463105,-0.560129,0.16396
28,40,-1.0472,-0.698132,-0.174533,-0.174533,-1.03871,-0.689862,-0.155862,-0.179998,-1.69761,-0.463105,-0.560129,0.16396
28,40,-1.0472,-0.698132,-0.174533,-0.174533,-1.03871,-0.689862,-0.155862,-0.179998,-1.69761,-0.463105,-0.560129,0.16396
28,40,-1.0472,-0.698132,-0.174533,-0.174533,-1.03871,-0.689862,-0.155862,-0.179998,-1.69761,-0.463105,-0.560129,0.16396
28,40,-1.0472,-0.698132,-0.174533,-0.174533,-1.03871,-0.689862,-0.155862,-0.179998,-1.69761,-0.463105,-0.560129,0.16396
28,40,-1.0472,-0.698132,-0.174533,-0.174533,-1.03871,-0.689862,-0.155862,-0.179998,-1.69761,-0.463105,-0.560129,0.16396
28,40,-1.0472,-0.698132,-0.174533,-0.174533,-1.03871,-0.689862,-0.155862,-0.179998,-1.69761,-0.463105,-0.560129,0.16396
28,40,-1.0472,-0.698132,-0.174533,-0.174533,-1.03871,-0.689862,-0.155862,-0.179998,-1.69761,-0.463105,-0.560129,0.16396
28,40,-1.0472,-0.698132,-0.174533,-0.174533,-1.03871,-0.689862,-0.155862,-0.179998,-1.69761,-0.463105,-0.560129,0.16396
28,40,-1.0472,-0.698132,-0.174533,-0.174533,-1.03871,-0.689862,-0.155862,-0.179998,-1.69761,-0.463105,-0.560129,0.16396
28,40,-1.0472,-0.698132,-0.174533,-0.174533,-1.03871,-0.689862,-0.155862,-0.179998,-1.69761,-0.463105,-0.560129,0.16396
28,40,-1.0472,-0.698132,-0.174533,-0.174533,-1.03871,-0.689862,-0.155862,-0.179998,-1.69761,-0.463105,-0.560129,0.16396
28,40,-1.0472,-0.698132,-0.174533,-0.174533,-1.03871,-0.689862,-0.155862,-0.179998,-1.69761,-0.463105,-0.560129,0.16396
28,40,-1.0472,-0.698132,-0.174533,-0.174533,-1.03871,-0.689862,-0.155862,-0.179998,-1.69761,-0.463105,-0.560129,0.16396
28,40,-1.0472,-0.698132,-0.174533,-0.174533,-1.03871,-0.689862,-0.155862,-0.179998,-1.69761,-0.463105,-0.560129,0.16396
28,40,-1.0472,-0.698132,-0.174533,-0.174533,-1.03871,-0.689862,-0.155862,-0.179998,-1.69761,-0.463105,-0.560129,0.16396
28,40,-1.0472,-0.698132,-0.174533,-0.174533,-1.03871,-0.689862,-0.155862,-0.179998,-1.69761,-0.463105,-0.560129,0.16396
28,40,-1.0472,-0.698132,-0.174533,-0.174533,-1.03871,-0.689862,-0.155862,-0.179998,-1.69761,-0.463105,-0.560129,0.16396
28,40,-1.0472,-0.698132,-0.174533,-0.174533,-1.03871,-0.689862,-0.155862,-0.179998,-1.69761,-0.463105,-0.560129,0.16396
28,40,-1.0472,-0.698132,-0.174533,-0.174533,-1.03871,-0.689862,-0.155862,-0.179998,-1.69761,-0.463105,-0.560129,0.16396
28,40,-1.0472,-0.698132,-0.174533,-0.174533,-1.03871,-0.689862,-0.155862,-0.179998,-1.69761,-0.463105,-0.560129,0.16396
28,40,-1.0472,-0.698132,-0.174533,-0.174533,-1.03871,-0.689862,-0.155862,-0.179998,-1.69761,-0.463105,-0.560129,0.16396
28,40,-1.0472,-0.698132,-0.174533,-0.174533,-1.03871,-0.689862,-0.155862,-0.179998,-1.69761,-0.463105,-0.560129,0.16396
28,40,-1.0472,-0.698132,-0.174533,-0.174533,-1.03871,-0.689862,-0.155862,-0.179998,-1.69761,-0.463105,-0.560129,0.16396
28,40,-1.0472,-0.698132,-0.174533,-0.174533,-1.03871,-0.689862,-0.155862,-0.179998,-1.69761,-0.463105,-0.560129,0.16396
28,40,-1.0472,-0.698132,-0.174533,-0.174533,-1.03871,-0.689862,-0.155862,-0.179998,-1.69761,-0.463105,-0.560129,0.16396
28,40,-1.0472,-0.698132,-0.174533,-0.174533,-1.03871,-0.689862,-0.155862,-0.179998,-1.69761,-0.463105,-0.560129,0.16396
28,40,-1.0472,-0.698132,-0.174533,-0.174533,-1.03871,-0.689862,-0.155862,-0.179998,-1.69761,-0.463105,-0.560129,0.16396
28,40,-1.0472,-0.698132,-0.174533,-0.174533,-1.03871,-0.689862,-0.155862,-0.179998,-1.69761,-0.463105,-0.560129,0.16396
28,40,-1.0472,-0.698132,-0.174533,-0.174533,-1.03871,-0.689862,-0.155862,-0.179998,-1.69761,-0.463105,-0.560129,0.16396
28,40,-1.0472,-0.698132,-0.174533,-0.174533,-1.03871,-0.689862,-0.155862,-0.179998,-1.69761,-0.463105,-0.560129,0.16396
28,40,-1.0472,-0.698132,-0.174533,-0.174533,-1.03871,-0.689862,-0.155862,-0.179998,-1.69761,-0.463105,-0.560129,0.16396
28,40,-1.0472,-0.698132,-0.174533,-0.174533,-1.03871,-0.689862,-0.155862,-0.179998,-1.69761,-0.463105,-0.560129,0.16396
28,40,-1.0472,-0.698132,-0.174533,-0.174533,-1.03871,-0.689862,-0.155862,-0.179998,-1.69761,-0.463105,-0.560129,0.16396
28,40,-1.0472,-0.698132,-0.174533,-0.174533,-1.03871,-0.689862,-0.155862,-0.179998,-1.69761,-0.463105,-0.560129,0.16396
28,40,-1.0472,-0.698132,-0.174533,-0.174533,-1.03871,-0.689862,-0.155862,-0.179998,-1.69761,-0.463105,-0.560129,0.16396
28,40,-1.0472,-0.698132,-0.174533,-0.174533,-1.03871,-0.689862,-0.155862,-0.179998,-1.69761,-0.463105,-0.560129,0.16396
28,40,-1.0472,-0.698132,-0.174533,-0.174533,-1.03871,-0.689862,-0.155862,-0.179998,-1.69761,-0.463105,-0.560129,0.16396
28,40,-1.0472,-0.698132,-0.174533,-0.174533,-1.03871,-0.689862,-0.155862,-0.179998,-1.69761,-0.463105,-0.560129,0.16396
28,40,-1.0472,-0.698132,-0.174533,-0.174533,-1.03871,-0.689862,-0.155862,-0.179998,-1.69761,-0.463105,-0.560129,0.16396
28,40,-1.0472,-0.698132,-0.174533,-0.174533,-1.03871,-0.689862,-0.155862,-0.179998,-1.69761,-0.463105,-0.560129,0.16396
28,40,-1.0472,-0.698132,-0.174533,-0.174533,-1.03871,-0.689862,-0.155862,-0.179998,-1.69761,-0.463105,-0.560129,0.16396
28,40,-1.0472,-0.698132,-0.174533,-0.174533,-1.03871,-0.689862,-0.155862,-0.179998,-1.69761,-0.463105,-0.560129,0.16396
28,40,-1.0472,-0.698132,-0.174533,-0.174533,-1.03871,-0.689862,-0.155862,-0.179998,-1.69761,-0.463105,-0.560129,0.16396
28,40,-1.0472,-0.698132,-0.174533,-0.174533,-1.03871,-0.689862,-0.155862,-0.179998,-1.69761,-0.463105,-0.560129,0.16396
28,40,-1.0472,-0.698132,-0.174533,-0.174533,-1.03871,-0.689862,-0.155862,-0.179998,-1.69761,-0.463105,-0.560129,0.16396
28,40,-1.0472,-0.698132,-0.174533,-0.174533,-1.03871,-0.689862,-0.155862,-0.179998,-1.69761,-0.463105,-0.560129,0.16396
28,40,-1.0472,-0.698132,-0.174533,-0.174533,-1.03871,-0.689862,-0.155862,-0.179998,-1.69761,-0.463105,-0.560129,0.16396
28,40,-1.0472,-0.698132,-0.174533,-0.174533,-1.03871,-0.689862,-0.155862,-0.179998,-1.69761,-0.463105,-0.560129,0.16396
28,40,-1.0472,-0.698132,-0.174533,-0.174533,-1.03871,-0.689862,-0.155862,-0.179998,-1.69761,-0.463105,-0.560129,0.16396
28,40,-1.0472,-0.698132,-0.174533,-0.174533,-1.03871,-0.689862,-0.155862,-0.179998,-1.69761,-0.463105,-0.560129,0.16396
28,40,-1.0472,-0.698132,-0.174533,-0.174533,-1.03871,-0.689862,-0.155862,-0.179998,-1.69761,-0.463105,-0.560129,0.16396
28,40,-1.0472,-0.698132,-0.174533,-0.174533,-1.03871,-0.689862,-0.155862,-0.179998,-1.69761,-0.463105,-0.560129,0.16396
28,40,-1.0472,-0.698132,-0.174533,-0.174533,-1.03871,-0.689862,-0.155862,-0.179998,-1.69761,-0.463105,-0.560129,0.16396
28,40,-1.0472,-0.698132,-0.174533,-0.174533,-1.03871,-0.689862,-0.155862,-0.179998,-1.69761,-0.463105,-0.560129,0.16396
28,40,-1.0472,-0.698132,-0.174533,-0.174533,-1.03871,-0.689862,-0.155862,-0.179998,-1.69761,-0.463105,-0.560129,0.16396
28,40,-1.0472,-0.698132,-0.174533,-0.174533,-1.03871,-0.689862,-0.155862,-0.179998,-1.69761,-0.463105,-0.560129,0.16396
28,40,-1.0472,-0.698132,-0.174533,-0.174533,-1.03871,-0.689862,-0.155862,-0.179998,-1.69761,-0.463105,-0.560129,0.16396
28,40,-1.0472,-0.698132,-0.174533,-0.174533,-1.03871,-0.689862,-0.155862,-0.179998,-1.69761,-0.463105,-0.560129,0.16396
28,40,-1.0472,-0.698132,-0.174533,-0.174533,-1.03871,-0.689862,-0.155862,-0.179998,-1.69761,-0.463105,-0.560129,0.16396
28,40,-1.0472,-0.698132,-0.174533,-0.174533,-1.03871,-0.689862,-0.155862,-0.179998,-1.69761,-0.463105,-0.560129,0.16396
28,40,-1.0472,-0.698132,-0.174533,-0.174533,-1.03871,-0.689862,-0.155862,-0.179998,-1.69761,-0.463105,-0.560129,0.16396
28,40,-1.0472,-0.698132,-0.174533,-0.174533,-1.03871,-0.689862,-0.155862,-0.179998,-1.69761,-0.463105,-0.560129,0.16396
28,40,-1.0472,-0.698132,-0.174533,-0.174533,-1.03871,-0.689862,-0.155862,-0.179998,-1.69761,-0.463105,-0.560129,0.16396
28,40,-1.0472,-0.698132,-0.174533,-0.174533,-1.03871,-0.689862,-0.155862,-0.179998,-1.69761,-0.463105,-0.560129,0.16396
28,40,-1.0472,-0.698132,-0.174533,-0.174533,-1.03871,-0.689862,-0.155862,-0.179998,-1.69761,-0.463105,-0.560129,0.16396
28,40,-1.0472,-0.698132,-0.174533,-0.174533,-1.03871,-0.689862,-0.155862,-0.179998,-1.69761,-0.463105,-0.560129,0.16396
