stim_pw [us],stim_amp [mA],com_elbow_fe [rad],com_forearm_ps [rad],com_wrist_fe [rad],com_wrist_ru [rad],act_elbow_fe [rad],act_forearm_ps [rad],act_wrist_fe [rad],act_wrist_ru [rad],elbow_fe_trq [Nm],forearm_ps_trq [Nm],wrist_fe_trq [Nm],wrist_ru_trq [Nm]
26,60,-0.0872665,-0.698132,-0.174533,-0.174533,-0.112461,-0.691794,-0.174328,-0.199139,5.03896,-0.354916,-0.00613535,0.738182
26,60,-0.0872665,-0.698132,-0.174533,-0.174533,-0.112461,-0.691794,-0.174328,-0.199139,5.03896,-0.354916,-0.00613535,0.738182
26,60,-0.0872665,-0.698132,-0.174533,-0.174533,-0.112461,-0.691794,-0.174328,-0.199139,5.03896,-0.354916,-0.00613535,0.738182
26,60,-0.0872665,-0.698132,-0.174533,-0.174533,-0.112461,-0.691794,-0.174328,-0.199139,5.03896,-0.354916,-0.00613535,0.738182
26,60,-0.0872665,-0.698132,-0.174533,-0.174533,-0.112461,-0.691794,-0.174328,-0.199139,5.03896,-0.354916,-0.00613535,0.738182
26,60,-0.0872665,-0.698132,-0.174533,-0.174533,-0.112461,-0.691794,-0.174328,-0.199139,5.03896,-0.354916,-0.00613535,0.738182
26,60,-0.0872665,-0.698132,-0.174533,-0.174533,-0.112461,-0.691794,-0.174328,-0.199139,5.03896,-0.354916,-0.00613535,0.738182
26,60,-0.0872665,-0.698132,-0.174533,-0.174533,-0.112461,-0.691794,-0.174328,-0.199139,5.03896,-0.354916,-0.00613535,0.738182
26,60,-0.0872665,-0.698132,-0.174533,-0.174533,-0.112461,-0.691794,-0.174328,-0.199139,5.03896,-0.354916,-0.00613535,0.738182
26,60,-0.0872665,-0.698132,-0.174533,-0.174533,-0.112461,-0.691794,-0.174328,-0.199139,5.03896,-0.354916,-0.00613535,0.738182
26,60,-0.0872665,-0.698132,-0.174533,-0.174533,-0.112461,-0.691794,-0.174259,-0.199096,5.03896,-0.354916,-0.00819462,0.736874
26,60,-0.0872665,-0.698132,-0.174533,-0.174533,-0.112461,-0.691794,-0.174259,-0.199096,5.03896,-0.354916,-0.00819462,0.736874
26,60,-0.0872665,-0.698132,-0.174533,-0.174533,-0.112461,-0.691794,-0.174259,-0.199096,5.03896,-0.354916,-0.00819462,0.736874
26,60,-0.0872665,-0.698132,-0.174533,-0.174533,-0.112461,-0.691794,-0.174259,-0.199096,5.03896,-0.354916,-0.00819462,0.736874
26,60,-0.0872665,-0.698132,-0.174533,-0.174533,-0.112461,-0.691794,-0.174259,-0.199096,5.03896,-0.354916,-0.00819462,0.736874
26,60,-0.0872665,-0.698132,-0.174533,-0.174533,-0.112461,-0.691794,-0.174259,-0.199096,5.03896,-0.354916,-0.00819462,0.736874
26,60,-0.0872665,-0.698132,-0.174533,-0.174533,-0.112461,-0.691794,-0.174259,-0.199096,5.03896,-0.354916,-0.00819462,0.736874
26,60,-0.0872665,-0.698132,-0.174533,-0.174533,-0.112461,-0.691794,-0.174259,-0.199096,5.03896,-0.354916,-0.00819462,0.736874
26,60,-0.0872665,-0.698132,-0.174533,-0.174533,-0.112461,-0.691845,-0.174259,-0.199096,5.03896,-0.351986,-0.00819462,0.736874
26,60,-0.0872665,-0.698132,-0.174533,-0.174533,-0.112461,-0.691845,-0.174259,-0.199096,5.03896,-0.351986,-0.00819462,0.736874
26,60,-0.0872665,-0.698132,-0.174533,-0.174533,-0.112461,-0.691845,-0.174259,-0.199096,5.03896,-0.351986,-0.00819462,0.736874
26,60,-0.0872665,-0.698132,-0.174533,-0.174533,-0.112461,-0.691845,-0.174259,-0.199096,5.03896,-0.351986,-0.00819462,0.736874
26,60,-0.0872665,-0.698132,-0.174533,-0.174533,-0.112461,-0.691845,-0.174259,-0.199096,5.03896,-0.351986,-0.00819462,0.736874
26,60,-0.0872665,-0.698132,-0.174533,-0.174533,-0.112461,-0.691845,-0.174259,-0.199096,5.03896,-0.351986,-0.00819462,0.736874
26,60,-0.0872665,-0.698132,-0.174533,-0.174533,-0.112461,-0.691845,-0.174259,-0.199096,5.03896,-0.351986,-0.00819462,0.736874
26,60,-0.0872665,-0.698132,-0.174533,-0.174533,-0.112461,-0.691845,-0.174259,-0.199096,5.03896,-0.351986,-0.00819462,0.736874
26,60,-0.0872665,-0.698132,-0.174533,-0.174533,-0.112461,-0.691845,-0.174259,-0.199096,5.03896,-0.351986,-0.00819462,0.736874
26,60,-0.0872665,-0.698132,-0.174533,-0.174533,-0.112461,-0.691845,-0.174259,-0.199096,5.03896,-0.351986,-0.00819462,0.736874
26,60,-0.0872665,-0.698132,-0.174533,-0.174533,-0.112461,-0.691845,-0.174259,-0.199096,5.03896,-0.351986,-0.00819462,0.736874
26,60,-0.0872665,-0.698132,-0.174533,-0.174533,-0.112461,-0.691845,-0.174259,-0.199096,5.03896,-0.351986,-0.00819462,0.736874
26,60,-0.0872665,-0.698132,-0.174533,-0.174533,-0.112461,-0.691845,-0.174259,-0.199096,5.03896,-0.351986,-0.00819462,0.736874
26,60,-0.0872665,-0.698132,-0.174533,-0.174533,-0.112461,-0.691845,-0.174259,-0.199096,5.03896,-0.351986,-0.00819462,0.736874
26,60,-0.0872665,-0.698132,-0.174533,-0.174533,-0.112461,-0.691845,-0.174259,-0.199096,5.03896,-0.351986,-0.00819462,0.736874
26,60,-0.0872665,-0.698132,-0.174533,-0.174533,-0.112461,-0.691845,-0.174259,-0.199096,5.03896,-0.351986,-0.00819462,0.736874
26,60,-0.0872665,-0.698132,-0.174533,-0.174533,-0.112461,-0.691845,-0.174259,-0.199096,5.03896,-0.351986,-0.00819462,0.736874
26,60,-0.0872665,-0.698132,-0.174533,-0.174533,-0.112461,-0.691845,-0.174259,-0.199096,5.03896,-0.351986,-0.00819462,0.736874
26,60,-0.0872665,-0.698132,-0.174533,-0.174533,-0.112461,-0.691845,-0.174259,-0.199096,5.03896,-0.351986,-0.00819462,0.736874
26,60,-0.0872665,-0.698132,-0.174533,-0.174533,-0.112461,-0.691845,-0.174259,-0.199096,5.03896,-0.351986,-0.00819462,0.736874
26,60,-0.0872665,-0.698132,-0.174533,-0.174533,-0.112461,-0.691845,-0.174259,-0.199096,5.03896,-0.351986,-0.00819462,0.736874
26,60,-0.0872665,-0.698132,-0.174533,-0.174533,-0.112461,-0.691845,-0.174259,-0.199096,5.03896,-0.351986,-0.00819462,0.736874
26,60,-0.0872665,-0.698132,-0.174533,-0.174533,-0.112461,-0.691845,-0.174259,-0.199096,5.03896,-0.351986,-0.00819462,0.736874
26,60,-0.0872665,-0.698132,-0.174533,-0.174533,-0.112461,-0.691845,-0.174259,-0.199096,5.03896,-0.351986,-0.00819462,0.736874
26,60,-0.0872665,-0.698132,-0.174533,-0.174533,-0.112461,-0.691845,-0.174259,-0.199096,5.03896,-0.351986,-0.00819462,0.736874
26,60,-0.0872665,-0.698132,-0.174533,-0.174533,-0.112461,-0.691845,-0.174259,-0.199096,5.03896,-0.351986,-0.00819475,0.736874
26,60,-0.0872665,-0.698132,-0.174533,-0.174533,-0.112461,-0.691845,-0.174259,-0.199096,5.03896,-0.351986,-0.0081949,0.736874
26,60,-0.0872665,-0.698132,-0.174533,-0.174533,-0.112461,-0.691845,-0.174259,-0.199096,5.03896,-0.351986,-0.00819505,0.736874
26,60,-0.0872665,-0.698132,-0.174533,-0.174533,-0.112461,-0.691845,-0.174259,-0.199096,5.03896,-0.351986,-0.0081952,0.736874
26,60,-0.0872665,-0.698132,-0.174533,-0.174533,-0.112461,-0.691845,-0.174259,-0.199096,5.03896,-0.351986,-0.00819535,0.736874
26,60,-0.0872665,-0.698132,-0.174533,-0.174533,-0.112461,-0.691845,-0.174259,-0.199096,5.03896,-0.351986,-0.00819549,0.736874
26,60,-0.0872665,-0.698132,-0.174533,-0.174533,-0.112461,-0.691845,-0.174259,-0.199096,5.03896,-0.351986,-0.00819563,0.736874
26,60,-0.0872665,-0.698132,-0.174533,-0.174533,-0.112461,-0.691845,-0.174259,-0.199096,5.03896,-0.351986,-0.00819577,0.736874
26,60,-0.0872665,-0.698132,-0.174533,-0.174533,-0.112461,-0.691845,-0.174259,-0.199096,5.03896,-0.351986,-0.00819591,0.736874
26,60,-0.0872665,-0.698132,-0.174533,-0.174533,-0.112461,-0.691845,-0.174259,-0.199096,5.03896,-0.351986,-0.00819604,0.736874
26,60,-0.0872665,-0.698132,-0.174533,-0.174533,-0.112461,-0.691845,-0.174259,-0.199096,5.03896,-0.351986,-0.00819617,0.736874
26,60,-0.0872665,-0.698132,-0.174533,-0.174533,-0.112461,-0.691845,-0.174259,-0.199096,5.03896,-0.351986,-0.00819631,0.736874
26,60,-0.0872665,-0.698132,-0.174533,-0.174533,-0.112461,-0.691845,-0.174259,-0.199096,5.03896,-0.351986,-0.00819644,0.736874
26,60,-0.0872665,-0.698132,-0.174533,-0.174533,-0.112461,-0.691845,-0.174259,-0.199096,5.03896,-0.351986,-0.00819656,0.736874
26,60,-0.0872665,-0.698132,-0.174533,-0.174533,-0.112461,-0.691845,-0.174259,-0.199096,5.03896,-0.351986,-0.00819669,0.736874
26,60,-0.0872665,-0.698132,-0.174533,-0.174533,-0.112461,-0.691845,-0.174259,-0.199096,5.03896,-0.351986,-0.00819682,0.736874
26,60,-0.0872665,-0.698132,-0.174533,-0.174533,-0.112461,-0.691845,-0.174259,-0.199096,5.03896,-0.351986,-0.00819694,0.736874
26,60,-0.0872665,-0.698132,-0.174533,-0.174533,-0.112461,-0.691845,-0.174259,-0.199096,5.03896,-0.351986,-0.00819706,0.736874
26,60,-0.0872665,-0.698132,-0.174533,-0.174533,-0.112461,-0.691845,-0.174259,-0.199096,5.03896,-0.351986,-0.00819718,0.736874
26,60,-0.0872665,-0.698132,-0.174533,-0.174533,-0.112461,-0.691845,-0.174259,-0.199096,5.03896,-0.351986,-0.0081973,0.736875
26,60,-0.0872665,-0.698132,-0.174533,-0.174533,-0.112461,-0.691845,-0.174259,-0.199096,5.03896,-0.351986,-0.00819742,0.736875
26,60,-0.0872665,-0.698132,-0.174533,-0.174533,-0.112461,-0.691845,-0.174259,-0.199096,5.03896,-0.351986,-0.00819753,0.736875
26,60,-0.0872665,-0.698132,-0.174533,-0.174533,-0.112461,-0.691845,-0.174259,-0.199096,5.03896,-0.351986,-0.00819765,0.736875
26,60,-0.0872665,-0.698132,-0.174533,-0.174533,-0.112461,-0.691845,-0.174259,-0.199096,5.03896,-0.351986,-0.00819776,0.736875
26,60,-0.0872665,-0.698132,-0.174533,-0.174533,-0.112461,-0.691845,-0.174259,-0.199096,5.03896,-0.351986,-0.00819787,0.736875
26,60,-0.0872665,-0.698132,-0.174533,-0.174533,-0.112461,-0.691845,-0.174259,-0.199096,5.03896,-0.351986,-0.00819798,0.736875
26,60,-0.0872665,-0.698132,-0.174533,-0.174533,-0.112461,-0.691845,-0.174259,-0.199096,5.03896,-0.351986,-0.00819809,0.736875
26,60,-0.0872665,-0.698132,-0.174533,-0.174533,-0.112461,-0.691845,-0.174259,-0.199096,5.03896,-0.351986,-0.0081982,0.736875
26,60,-0.0872665,-0.698132,-0.174533,-0.174533,-0.112461,-0.691845,-0.174259,-0.199096,5.03896,-0.351986,-0.0081983,0.736875
26,60,-0.0872665,-0.698132,-0.174533,-0.174533,-0.112461,-0.691845,-0.174259,-0.199096,5.03896,-0.351986,-0.00819841,0.736875
26,60,-0.0872665,-0.698132,-0.174533,-0.174533,-0.112461,-0.691845,-0.174259,-0.199096,5.03896,-0.351986,-0.00819851,0.736875
26,60,-0.0872665,-0.698132,-0.174533,-0.174533,-0.112461,-0.691845,-0.174259,-0.199096,5.03896,-0.351986,-0.00819861,0.736875
26,60,-0.0872665,-0.698132,-0.174533,-0.174533,-0.112461,-0.691845,-0.174259,-0.199096,5.03896,-0.351986,-0.00819871,0.736875
26,60,-0.0872665,-0.698132,-0.174533,-0.174533,-0.112461,-0.691845,-0.174259,-0.199096,5.03896,-0.351986,-0.00819881,0.736875
26,60,-0.0872665,-0.698132,-0.174533,-0.174533,-0.112461,-0.691845,-0.174259,-0.199096,5.03896,-0.351986,-0.00819891,0.736875
26,60,-0.0872665,-0.698132,-0.174533,-0.174533,-0.112461,-0.691845,-0.174259,-0.199096,5.03896,-0.351986,-0.00819901,0.736875
26,60,-0.0872665,-0.698132,-0.174533,-0.174533,-0.112461,-0.691845,-0.174259,-0.199096,5.03896,-0.351986,-0.00819911,0.736875
26,60,-0.0872665,-0.698132,-0.174533,-0.174533,-0.112461,-0.691845,-0.174259,-0.199096,5.03896,-0.351986,-0.0081992,0.736875
26,60,-0.0872665,-0.698132,-0.174533,-0.174533,-0.112461,-0.691845,-0.174259,-0.199096,5.03896,-0.351986,-0.0081993,0.736875
26,60,-0.0872665,-0.698132,-0.174533,-0.174533,-0.112461,-0.691845,-0.174259,-0.199096,5.03896,-0.351986,-0.00819939,0.736875
26,60,-0.0872665,-0.698132,-0.174533,-0.174533,-0.112461,-0.691845,-0.174259,-0.199096,5.03896,-0.351986,-0.00819948,0.736875
26,60,-0.0872665,-0.698132,-0.174533,-0.174533,-0.112461,-0.691845,-0.174259,-0.199096,5.03896,-0.351986,-0.00819957,0.736875
26,60,-0.0872665,-0.698132,-0.174533,-0.174533,-0.112461,-0.691845,-0.174259,-0.199096,5.03896,-0.351986,-0.00819966,0.736875
26,60,-0.0872665,-0.698132,-0.174533,-0.174533,-0.112461,-0.691845,-0.174259,-0.199096,5.03896,-0.351986,-0.00819975,0.736875
26,60,-0.0872665,-0.698132,-0.174533,-0.174533,-0.112461,-0.691845,-0.174259,-0.199096,5.03896,-0.351986,-0.00819984,0.736875
26,60,-0.0872665,-0.698132,-0.174533,-0.174533,-0.112461,-0.691845,-0.174259,-0.199096,5.03896,-0.351986,-0.00819993,0.736875
26,60,-0.0872665,-0.698132,-0.174533,-0.174533,-0.112461,-0.691845,-0.174259,-0.199096,5.03896,-0.351986,-0.00820001,0.736875
26,60,-0.0872665,-0.698132,-0.174533,-0.174533,-0.112461,-0.691845,-0.174259,-0.199096,5.03896,-0.351986,-0.0082001,0.736875
26,60,-0.0872665,-0.698132,-0.174533,-0.174533,-0.112461,-0.691845,-0.174259,-0.199096,5.03896,-0.351986,-0.00820018,0.736875
26,60,-0.0872665,-0.698132,-0.174533,-0.174533,-0.112461,-0.691845,-0.174259,-0.199096,5.03896,-0.351986,-0.00820027,0.736875
26,60,-0.0872665,-0.698132,-0.174533,-0.174533,-0.112461,-0.691845,-0.174259,-0.199096,5.03896,-0.351986,-0.00820035,0.736875
26,60,-0.0872665,-0.698132,-0.174533,-0.174533,-0.112461,-0.691845,-0.174259,-0.199096,5.03896,-0.351986,-0.00820043,0.736875
26,60,-0.0872665,-0.698132,-0.174533,-0.174533,-0.112461,-0.691845,-0.174259,-0.199096,5.03896,-0.351986,-0.00820051,0.736875
26,60,-0.0872665,-0.698132,-0.174533,-0.174533,-0.112461,-0.691845,-0.174259,-0.199096,5.03896,-0.351986,-0.00820059,0.736876
26,60,-0.0872665,-0.698132,-0.174533,-0.174533,-0.112461,-0.691845,-0.174259,-0.199096,5.03896,-0.351986,-0.00820067,0.736876
26,60,-0.0872665,-0.698132,-0.174533,-0.174533,-0.112461,-0.691845,-0.174259,-0.199096,5.03896,-0.351986,-0.00820075,0.736876
26,60,-0.0872665,-0.698132,-0.174533,-0.174533,-0.112461,-0.691845,-0.174259,-0.199096,5.03896,-0.351986,-0.00820083,0.736876
26,60,-0.0872665,-0.698132,-0.174533,-0.174533,-0.112461,-0.691845,-0.174259,-0.199096,5.03896,-0.351986,-0.0082009,0.736876
26,60,-0.0872665,-0.698132,-0.174533,-0.174533,-0.112461,-0.691845,-0.174259,-0.199096,5.03896,-0.351986,-0.00820098,0.736876
26,60,-0.0872665,-0.698132,-0.174533,-0.174533,-0.112461,-0.691845,-0.174259,-0.199096,5.03896,-0.351986,-0.00820106,0.736876
26,60,-0.0872665,-0.698132,-0.174533,-0.174533,-0.112461,-0.691845,-0.174259,-0.199096,5.03896,-0.351986,-0.00820113,0.736876
26,60,-0.0872665,-0.698132,-0.174533,-0.174533,-0.112461,-0.691845,-0.174259,-0.199096,5.03896,-0.351986,-0.0082012,0.736876
26,60,-0.0872665,-0.698132,-0.174533,-0.174533,-0.112461,-0.691845,-0.174259,-0.199096,5.03896,-0.351986,-0.00820128,0.736876
26,60,-0.0872665,-0.698132,-0.174533,-0.174533,-0.112461,-0.691845,-0.174191,-0.199052,5.03896,-0.351986,-0.010261,0.735567
26,60,-0.0872665,-0.698132,-0.174533,-0.174533,-0.112461,-0.691845,-0.174191,-0.199052,5.03896,-0.351986,-0.010261,0.735567
26,60,-0.0872665,-0.698132,-0.174533,-0.174533,-0.112461,-0.691845,-0.174191,-0.199052,5.03896,-0.351986,-0.0102611,0.735567
26,60,-0.0872665,-0.698132,-0.174533,-0.174533,-0.112461,-0.691845,-0.174191,-0.199052,5.03896,-0.351986,-0.0102612,0.735567
26,60,-0.0872665,-0.698132,-0.174533,-0.174533,-0.112461,-0.691845,-0.174191,-0.199052,5.03896,-0.351986,-0.0102612,0.735567
26,60,-0.0872665,-0.698132,-0.174533,-0.174533,-0.112461,-0.691845,-0.174191,-0.199052,5.03896,-0.351986,-0.0102613,0.735567
26,60,-0.0872665,-0.698132,-0.174533,-0.174533,-0.112461,-0.691845,-0.174191,-0.199052,5.03896,-0.351986,-0.0102614,0.735567
26,60,-0.0872665,-0.698132,-0.174533,-0.174533,-0.112461,-0.691845,-0.174191,-0.199052,5.03896,-0.351986,-0.0102614,0.735567
26,60,-0.0872665,-0.698132,-0.174533,-0.174533,-0.112461,-0.691845,-0.174191,-0.199052,5.03896,-0.351986,-0.0102615,0.735567
26,60,-0.0872665,-0.698132,-0.174533,-0.174533,-0.112461,-0.691845,-0.174191,-0.199052,5.03896,-0.351986,-0.0102754,0.735572
26,60,-0.0872665,-0.698132,-0.174533,-0.174533,-0.112461,-0.691845,-0.174191,-0.199052,5.03896,-0.351986,-0.0102754,0.735572
26,60,-0.0872665,-0.698132,-0.174533,-0.174533,-0.112461,-0.691845,-0.174191,-0.199052,5.03896,-0.351986,-0.0102754,0.735572
26,60,-0.0872665,-0.698132,-0.174533,-0.174533,-0.112461,-0.691845,-0.174252,-0.199034,5.03896,-0.351986,-0.00843234,0.735012
26,60,-0.0872665,-0.698132,-0.174533,-0.174533,-0.112461,-0.691845,-0.174252,-0.199034,5.03896,-0.351986,-0.00843234,0.735012
26,60,-0.0872665,-0.698132,-0.174533,-0.174533,-0.112461,-0.691845,-0.174252,-0.199034,5.03896,-0.351986,-0.00843234,0.735012
26,60,-0.0872665,-0.698132,-0.174533,-0.174533,-0.112461,-0.691845,-0.174252,-0.199034,5.03896,-0.351986,-0.00843234,0.735012
26,60,-0.0872665,-0.698132,-0.174533,-0.174533,-0.112461,-0.691845,-0.174252,-0.199034,5.03896,-0.351986,-0.00843234,0.735012
26,60,-0.0872665,-0.698132,-0.174533,-0.174533,-0.112461,-0.691845,-0.174252,-0.199034,5.03896,-0.351986,-0.00843234,0.735012
26,60,-0.0872665,-0.698132,-0.174533,-0.174533,-0.112461,-0.691845,-0.174252,-0.199034,5.03896,-0.351986,-0.00843234,0.735012
26,60,-0.0872665,-0.698132,-0.174533,-0.174533,-0.112461,-0.691845,-0.174252,-0.199034,5.03896,-0.351986,-0.00843234,0.735012
26,60,-0.0872665,-0.698132,-0.174533,-0.174533,-0.112461,-0.691845,-0.174252,-0.199034,5.03896,-0.351986,-0.00843234,0.735012
26,60,-0.0872665,-0.698132,-0.174533,-0.174533,-0.112461,-0.691845,-0.174252,-0.199034,5.03896,-0.351986,-0.00843234,0.735012
26,60,-0.0872665,-0.698132,-0.174533,-0.174533,-0.112461,-0.691845,-0.174252,-0.199034,5.03896,-0.351986,-0.00843234,0.735012
26,60,-0.0872665,-0.698132,-0.174533,-0.174533,-0.112461,-0.691845,-0.174252,-0.199034,5.03896,-0.351986,-0.00843234,0.735012
26,60,-0.0872665,-0.698132,-0.174533,-0.174533,-0.112461,-0.691845,-0.174252,-0.199034,5.03896,-0.351986,-0.00843234,0.735012
26,60,-0.0872665,-0.698132,-0.174533,-0.174533,-0.112461,-0.691845,-0.174252,-0.199034,5.03896,-0.351986,-0.00843234,0.735012
26,60,-0.0872665,-0.698132,-0.174533,-0.174533,-0.112461,-0.691845,-0.174252,-0.199034,5.03896,-0.351986,-0.00843234,0.735012
26,60,-0.0872665,-0.698132,-0.174533,-0.174533,-0.112461,-0.691845,-0.174252,-0.199034,5.03896,-0.351986,-0.00843234,0.735012
26,60,-0.0872665,-0.698132,-0.174533,-0.174533,-0.112461,-0.691845,-0.174252,-0.199034,5.03896,-0.351986,-0.00843234,0.735012
26,60,-0.0872665,-0.698132,-0.174533,-0.174533,-0.112461,-0.691845,-0.174252,-0.199034,5.03896,-0.351986,-0.00843234,0.735012
26,60,-0.0872665,-0.698132,-0.174533,-0.174533,-0.112461,-0.691845,-0.174252,-0.199034,5.03896,-0.351986,-0.00843234,0.735012
26,60,-0.0872665,-0.698132,-0.174533,-0.174533,-0.112461,-0.691845,-0.174252,-0.199034,5.03896,-0.351986,-0.00843234,0.735012
26,60,-0.0872665,-0.698132,-0.174533,-0.174533,-0.112461,-0.691845,-0.174252,-0.199034,5.03896,-0.351986,-0.00843234,0.735012
26,60,-0.0872665,-0.698132,-0.174533,-0.174533,-0.112461,-0.691845,-0.174252,-0.199034,5.03896,-0.351986,-0.00843234,0.735012
26,60,-0.0872665,-0.698132,-0.174533,-0.174533,-0.112461,-0.691845,-0.174252,-0.199034,5.03896,-0.351986,-0.00843234,0.735012
26,60,-0.0872665,-0.698132,-0.174533,-0.174533,-0.112461,-0.691845,-0.174252,-0.199034,5.03896,-0.351986,-0.00843234,0.735012
26,60,-0.0872665,-0.698132,-0.174533,-0.174533,-0.112461,-0.691845,-0.174252,-0.199034,5.03896,-0.351986,-0.00843234,0.735012
26,60,-0.0872665,-0.698132,-0.174533,-0.174533,-0.112461,-0.691845,-0.174252,-0.199034,5.03896,-0.351986,-0.00843234,0.735012
26,60,-0.0872665,-0.698132,-0.174533,-0.174533,-0.112461,-0.691845,-0.174252,-0.199034,5.03896,-0.351986,-0.00843234,0.735012
26,60,-0.0872665,-0.698132,-0.174533,-0.174533,-0.112461,-0.691845,-0.174252,-0.199034,5.03896,-0.351986,-0.00843234,0.735012
26,60,-0.0872665,-0.698132,-0.174533,-0.174533,-0.112461,-0.691845,-0.174252,-0.199034,5.03896,-0.351986,-0.00843234,0.735012
26,60,-0.0872665,-0.698132,-0.174533,-0.174533,-0.112461,-0.691845,-0.174252,-0.199034,5.03896,-0.351986,-0.00843234,0.735012
26,60,-0.0872665,-0.698132,-0.174533,-0.174533,-0.112461,-0.691845,-0.174252,-0.199034,5.03896,-0.351986,-0.00843234,0.735012
26,60,-0.0872665,-0.698132,-0.174533,-0.174533,-0.112461,-0.691845,-0.174252,-0.199034,5.03896,-0.351986,-0.00843234,0.735012
26,60,-0.0872665,-0.698132,-0.174533,-0.174533,-0.112461,-0.691845,-0.174252,-0.199034,5.03896,-0.351986,-0.00843234,0.735012
26,60,-0.0872665,-0.698132,-0.174533,-0.174533,-0.112461,-0.691845,-0.174252,-0.199034,5.03896,-0.351986,-0.00843234,0.735012
26,60,-0.0872665,-0.698132,-0.174533,-0.174533,-0.112461,-0.691845,-0.174252,-0.199034,5.03896,-0.351986,-0.00843234,0.735012
26,60,-0.0872665,-0.698132,-0.174533,-0.174533,-0.112461,-0.691845,-0.174252,-0.199034,5.03896,-0.351986,-0.00843234,0.735012
26,60,-0.0872665,-0.698132,-0.174533,-0.174533,-0.112461,-0.691845,-0.174252,-0.199034,5.03896,-0.351986,-0.00843234,0.735012
26,60,-0.0872665,-0.698132,-0.174533,-0.174533,-0.112461,-0.691845,-0.174252,-0.199034,5.03896,-0.351986,-0.00843234,0.735012
26,60,-0.0872665,-0.698132,-0.174533,-0.174533,-0.112461,-0.691845,-0.174252,-0.199034,5.03896,-0.351986,-0.00843234,0.735012
26,60,-0.0872665,-0.698132,-0.174533,-0.174533,-0.112461,-0.691845,-0.174252,-0.199034,5.03896,-0.351986,-0.00843234,0.735012
26,60,-0.0872665,-0.698132,-0.174533,-0.174533,-0.112461,-0.691845,-0.174252,-0.199034,5.03896,-0.351986,-0.00843234,0.735012
26,60,-0.0872665,-0.698132,-0.174533,-0.174533,-0.112461,-0.691845,-0.174252,-0.199034,5.03896,-0.351986,-0.00843234,0.735012
26,60,-0.0872665,-0.698132,-0.174533,-0.174533,-0.112461,-0.691845,-0.174252,-0.199034,5.03896,-0.351986,-0.00843234,0.735012
26,60,-0.0872665,-0.698132,-0.174533,-0.174533,-0.112461,-0.691845,-0.174252,-0.199034,5.03896,-0.351986,-0.00843234,0.735012
26,60,-0.0872665,-0.698132,-0.174533,-0.174533,-0.112461,-0.691845,-0.174252,-0.199034,5.03896,-0.351986,-0.00843234,0.735012
26,60,-0.0872665,-0.698132,-0.174533,-0.174533,-0.112461,-0.691845,-0.174252,-0.199034,5.03896,-0.351986,-0.00843234,0.735012
26,60,-0.0872665,-0.698132,-0.174533,-0.174533,-0.112461,-0.691845,-0.174252,-0.199034,5.03896,-0.351986,-0.00843234,0.735012
26,60,-0.0872665,-0.698132,-0.174533,-0.174533,-0.112461,-0.691845,-0.174252,-0.199034,5.03896,-0.351986,-0.00843234,0.735012
26,60,-0.0872665,-0.698132,-0.174533,-0.174533,-0.112461,-0.691845,-0.174252,-0.199034,5.03896,-0.351986,-0.00843234,0.735012
26,60,-0.0872665,-0.698132,-0.174533,-0.174533,-0.112461,-0.691845,-0.174252,-0.199034,5.03896,-0.351986,-0.00843234,0.735012
26,60,-0.0872665,-0.698132,-0.174533,-0.174533,-0.112461,-0.691845,-0.174252,-0.199034,5.03896,-0.351986,-0.00843234,0.735012
26,60,-0.0872665,-0.698132,-0.174533,-0.174533,-0.112461,-0.691845,-0.174252,-0.199034,5.03896,-0.351986,-0.00843234,0.735012
26,60,-0.0872665,-0.698132,-0.174533,-0.174533,-0.112461,-0.691845,-0.174252,-0.199034,5.03896,-0.351986,-0.00843234,0.735012
26,60,-0.0872665,-0.698132,-0.174533,-0.174533,-0.112461,-0.691845,-0.174252,-0.199034,5.03896,-0.351986,-0.00843234,0.735012
26,60,-0.0872665,-0.698132,-0.174533,-0.174533,-0.112461,-0.691845,-0.174252,-0.199034,5.03896,-0.351986,-0.00843234,0.735012
26,60,-0.0872665,-0.698132,-0.174533,-0.174533,-0.112461,-0.691845,-0.174252,-0.199034,5.03896,-0.351986,-0.00843234,0.735012
26,60,-0.0872665,-0.698132,-0.174533,-0.174533,-0.112461,-0.691845,-0.174184,-0.19899,5.03896,-0.351986,-0.0104926,0.733703
26,60,-0.0872665,-0.698132,-0.174533,-0.174533,-0.112461,-0.691845,-0.174184,-0.19899,5.03896,-0.351986,-0.0104926,0.733703
26,60,-0.0872665,-0.698132,-0.174533,-0.174533,-0.112461,-0.691845,-0.174184,-0.19899,5.03896,-0.351986,-0.0104926,0.733703
26,60,-0.0872665,-0.698132,-0.174533,-0.174533,-0.112461,-0.691845,-0.174184,-0.19899,5.03896,-0.351986,-0.0104926,0.733703
26,60,-0.0872665,-0.698132,-0.174533,-0.174533,-0.112461,-0.691845,-0.174184,-0.19899,5.03896,-0.351986,-0.0104926,0.733703
26,60,-0.0872665,-0.698132,-0.174533,-0.174533,-0.112461,-0.691845,-0.174184,-0.19899,5.03896,-0.351986,-0.0104926,0.733703
26,60,-0.0872665,-0.698132,-0.174533,-0.174533,-0.112461,-0.691845,-0.174184,-0.19899,5.03896,-0.351986,-0.0104926,0.733703
26,60,-0.0872665,-0.698132,-0.174533,-0.174533,-0.112461,-0.691845,-0.174184,-0.19899,5.03896,-0.351986,-0.0104926,0.733703
26,60,-0.0872665,-0.698132,-0.174533,-0.174533,-0.112461,-0.691845,-0.174184,-0.19899,5.03896,-0.351986,-0.0104926,0.733703
26,60,-0.0872665,-0.698132,-0.174533,-0.174533,-0.112461,-0.691845,-0.174184,-0.19899,5.03896,-0.351986,-0.0104926,0.733703
26,60,-0.0872665,-0.698132,-0.174533,-0.174533,-0.112461,-0.691845,-0.174184,-0.19899,5.03896,-0.351986,-0.0104926,0.733703
26,60,-0.0872665,-0.698132,-0.174533,-0.174533,-0.112461,-0.691845,-0.174184,-0.19899,5.03896,-0.351986,-0.0104926,0.733703
26,60,-0.0872665,-0.698132,-0.174533,-0.174533,-0.112461,-0.691845,-0.174184,-0.19899,5.03896,-0.351986,-0.0104926,0.733703
26,60,-0.0872665,-0.698132,-0.174533,-0.174533,-0.112461,-0.691845,-0.174184,-0.19899,5.03896,-0.351986,-0.0104926,0.733703
26,60,-0.0872665,-0.698132,-0.174533,-0.174533,-0.112461,-0.691845,-0.174245,-0.198971,5.03896,-0.351986,-0.00864742,0.733142
26,60,-0.0872665,-0.698132,-0.174533,-0.174533,-0.112461,-0.691845,-0.174245,-0.198971,5.03896,-0.351986,-0.00864742,0.733142
26,60,-0.0872665,-0.698132,-0.174533,-0.174533,-0.112461,-0.691845,-0.174245,-0.198971,5.03896,-0.351986,-0.00864742,0.733142
26,60,-0.0872665,-0.698132,-0.174533,-0.174533,-0.112461,-0.691845,-0.174245,-0.198971,5.03896,-0.351986,-0.00864742,0.733142
26,60,-0.0872665,-0.698132,-0.174533,-0.174533,-0.112461,-0.691845,-0.174245,-0.198971,5.03896,-0.351986,-0.00864742,0.733142
26,60,-0.0872665,-0.698132,-0.174533,-0.174533,-0.112461,-0.691845,-0.174245,-0.198971,5.03896,-0.351986,-0.00864742,0.733142
26,60,-0.0872665,-0.698132,-0.174533,-0.174533,-0.112461,-0.691845,-0.174245,-0.198971,5.03896,-0.351986,-0.00864742,0.733142
26,60,-0.0872665,-0.698132,-0.174533,-0.174533,-0.112461,-0.691845,-0.174245,-0.198971,5.03896,-0.351986,-0.00864742,0.733142
26,60,-0.0872665,-0.698132,-0.174533,-0.174533,-0.112461,-0.691845,-0.174245,-0.198971,5.03896,-0.351986,-0.00864742,0.733142
26,60,-0.0872665,-0.698132,-0.174533,-0.174533,-0.112461,-0.691845,-0.174245,-0.198971,5.03896,-0.351986,-0.00864742,0.733142
26,60,-0.0872665,-0.698132,-0.174533,-0.174533,-0.112461,-0.691845,-0.174245,-0.198971,5.03896,-0.351986,-0.00864742,0.733142
26,60,-0.0872665,-0.698132,-0.174533,-0.174533,-0.112461,-0.691845,-0.174245,-0.198971,5.03896,-0.351986,-0.00864742,0.733142
26,60,-0.0872665,-0.698132,-0.174533,-0.174533,-0.112461,-0.691845,-0.174245,-0.198971,5.03896,-0.351986,-0.00864742,0.733142
26,60,-0.0872665,-0.698132,-0.174533,-0.174533,-0.112461,-0.691845,-0.174177,-0.198928,5.03896,-0.351986,-0.0106932,0.731842
26,60,-0.0872665,-0.698132,-0.174533,-0.174533,-0.112461,-0.691845,-0.174177,-0.198928,5.03896,-0.351986,-0.0106932,0.731842
26,60,-0.0872665,-0.698132,-0.174533,-0.174533,-0.112461,-0.691845,-0.174177,-0.198928,5.03896,-0.351986,-0.0106932,0.731842
26,60,-0.0872665,-0.698132,-0.174533,-0.174533,-0.112461,-0.691845,-0.174177,-0.198928,5.03896,-0.351986,-0.0106932,0.731842
26,60,-0.0872665,-0.698132,-0.174533,-0.174533,-0.112461,-0.691845,-0.174177,-0.198928,5.03896,-0.351986,-0.0106932,0.731842
26,60,-0.0872665,-0.698132,-0.174533,-0.174533,-0.112461,-0.691845,-0.174177,-0.198928,5.03896,-0.351986,-0.0106932,0.731842
26,60,-0.0872665,-0.698132,-0.174533,-0.174533,-0.112461,-0.691845,-0.174177,-0.198928,5.03896,-0.351986,-0.0106932,0.731842
26,60,-0.0872665,-0.698132,-0.174533,-0.174533,-0.112461,-0.691845,-0.174177,-0.198928,5.03896,-0.351986,-0.0106932,0.731842
26,60,-0.0872665,-0.698132,-0.174533,-0.174533,-0.112461,-0.691845,-0.174177,-0.198928,5.03896,-0.351986,-0.0106932,0.731842
26,60,-0.0872665,-0.698132,-0.174533,-0.174533,-0.112461,-0.691845,-0.174177,-0.198928,5.03896,-0.351986,-0.0106932,0.731842
26,60,-0.0872665,-0.698132,-0.174533,-0.174533,-0.112461,-0.691845,-0.174177,-0.198928,5.03896,-0.351986,-0.0106932,0.731842
26,60,-0.0872665,-0.698132,-0.174533,-0.174533,-0.112461,-0.691845,-0.174177,-0.198928,5.03896,-0.351986,-0.0106932,0.731842
26,60,-0.0872665,-0.698132,-0.174533,-0.174533,-0.112461,-0.691845,-0.174177,-0.198928,5.03896,-0.351986,-0.0106932,0.731842
26,60,-0.0872665,-0.698132,-0.174533,-0.174533,-0.112461,-0.691845,-0.174177,-0.198928,5.03896,-0.351986,-0.0106932,0.731842
26,60,-0.0872665,-0.698132,-0.174533,-0.174533,-0.112461,-0.691845,-0.174177,-0.198928,5.03896,-0.351986,-0.0106932,0.731842
26,60,-0.0872665,-0.698132,-0.174533,-0.174533,-0.112461,-0.691845,-0.174177,-0.198928,5.03896,-0.351986,-0.0106932,0.731842
26,60,-0.0872665,-0.698132,-0.174533,-0.174533,-0.112461,-0.691845,-0.174177,-0.198928,5.03896,-0.351986,-0.0106932,0.731842
26,60,-0.0872665,-0.698132,-0.174533,-0.174533,-0.112461,-0.691845,-0.174177,-0.198928,5.03896,-0.351986,-0.0106932,0.731842
26,60,-0.0872665,-0.698132,-0.174533,-0.174533,-0.112461,-0.691845,-0.174177,-0.198928,5.03896,-0.351986,-0.0106932,0.731842
26,60,-0.0872665,-0.698132,-0.174533,-0.174533,-0.112461,-0.691845,-0.174177,-0.198928,5.03896,-0.351986,-0.0106932,0.731842
26,60,-0.0872665,-0.698132,-0.174533,-0.174533,-0.112461,-0.691845,-0.174177,-0.198928,5.03896,-0.351986,-0.0106932,0.731842
26,60,-0.0872665,-0.698132,-0.174533,-0.174533,-0.112461,-0.691845,-0.174177,-0.198928,5.03896,-0.351986,-0.0106932,0.731842
26,60,-0.0872665,-0.698132,-0.174533,-0.174533,-0.112461,-0.691845,-0.174108,-0.198884,5.03896,-0.351986,-0.0127766,0.730518
26,60,-0.0872665,-0.698132,-0.174533,-0.174533,-0.112461,-0.691845,-0.174108,-0.198884,5.03896,-0.351986,-0.0127766,0.730518
26,60,-0.0872665,-0.698132,-0.174533,-0.174533,-0.112461,-0.691845,-0.174108,-0.198884,5.03896,-0.351986,-0.0127766,0.730518
26,60,-0.0872665,-0.698132,-0.174533,-0.174533,-0.112461,-0.691845,-0.174108,-0.198884,5.03896,-0.351986,-0.0127766,0.730518
26,60,-0.0872665,-0.698132,-0.174533,-0.174533,-0.112461,-0.691845,-0.174108,-0.198884,5.03896,-0.352068,-0.0127766,0.730518
26,60,-0.0872665,-0.698132,-0.174533,-0.174533,-0.112461,-0.691845,-0.174108,-0.198884,5.03896,-0.352068,-0.0127766,0.730518
26,60,-0.0872665,-0.698132,-0.174533,-0.174533,-0.112461,-0.691845,-0.174108,-0.198884,5.03896,-0.352068,-0.0127766,0.730518
26,60,-0.0872665,-0.698132,-0.174533,-0.174533,-0.112461,-0.691845,-0.174108,-0.198884,5.03896,-0.352068,-0.0127766,0.730518
26,60,-0.0872665,-0.698132,-0.174533,-0.174533,-0.112461,-0.691845,-0.174108,-0.198884,5.03896,-0.352068,-0.0127766,0.730518
26,60,-0.0872665,-0.698132,-0.174533,-0.174533,-0.112461,-0.691845,-0.174108,-0.198884,5.03896,-0.352068,-0.0127766,0.730518
26,60,-0.0872665,-0.698132,-0.174533,-0.174533,-0.112461,-0.691845,-0.174108,-0.198884,5.03896,-0.352068,-0.0127766,0.730518
26,60,-0.0872665,-0.698132,-0.174533,-0.174533,-0.112461,-0.691845,-0.174108,-0.198884,5.03896,-0.352068,-0.0127766,0.730518
26,60,-0.0872665,-0.698132,-0.174533,-0.174533,-0.112461,-0.691845,-0.174108,-0.198884,5.03896,-0.352068,-0.0127766,0.730518
26,60,-0.0872665,-0.698132,-0.174533,-0.174533,-0.112461,-0.691845,-0.174108,-0.198884,5.03896,-0.352068,-0.0127766,0.730518
26,60,-0.0872665,-0.698132,-0.174533,-0.174533,-0.112461,-0.691845,-0.174108,-0.198884,5.03896,-0.352068,-0.0127766,0.730518
26,60,-0.0872665,-0.698132,-0.174533,-0.174533,-0.112461,-0.691845,-0.174108,-0.198884,5.03896,-0.352068,-0.0127766,0.730518
26,60,-0.0872665,-0.698132,-0.174533,-0.174533,-0.112461,-0.691845,-0.174108,-0.198884,5.03896,-0.352068,-0.0127766,0.730518
26,60,-0.0872665,-0.698132,-0.174533,-0.174533,-0.112461,-0.691845,-0.174108,-0.198884,5.03896,-0.352068,-0.0127766,0.730518
26,60,-0.0872665,-0.698132,-0.174533,-0.174533,-0.112461,-0.691845,-0.174108,-0.198884,5.03896,-0.352068,-0.0127766,0.730518
26,60,-0.0872665,-0.698132,-0.174533,-0.174533,-0.112461,-0.691845,-0.174108,-0.198884,5.03896,-0.352068,-0.0127766,0.730518
26,60,-0.0872665,-0.698132,-0.174533,-0.174533,-0.112461,-0.691845,-0.174108,-0.198884,5.03896,-0.352068,-0.0127766,0.730518
26,60,-0.0872665,-0.698132,-0.174533,-0.174533,-0.112461,-0.691845,-0.174108,-0.198884,5.03896,-0.352068,-0.0127766,0.730518
26,60,-0.0872665,-0.698132,-0.174533,-0.174533,-0.112461,-0.691845,-0.174108,-0.198884,5.03896,-0.352068,-0.0127766,0.730518
26,60,-0.0872665,-0.698132,-0.174533,-0.174533,-0.112461,-0.691845,-0.174108,-0.198884,5.03896,-0.352068,-0.0127766,0.730518
26,60,-0.0872665,-0.698132,-0.174533,-0.174533,-0.112461,-0.691845,-0.174108,-0.198884,5.03896,-0.352068,-0.0127766,0.730518
26,60,-0.0872665,-0.698132,-0.174533,-0.174533,-0.112461,-0.691845,-0.174108,-0.198884,5.03896,-0.352068,-0.0127766,0.730518
26,60,-0.0872665,-0.698132,-0.174533,-0.174533,-0.112461,-0.691845,-0.174108,-0.198884,5.03896,-0.352068,-0.0127766,0.730518
26,60,-0.0872665,-0.698132,-0.174533,-0.174533,-0.112461,-0.691845,-0.174108,-0.198884,5.03896,-0.352068,-0.0127766,0.730518
26,60,-0.0872665,-0.698132,-0.174533,-0.174533,-0.112461,-0.691845,-0.174108,-0.198884,5.03896,-0.352068,-0.0127766,0.730518
26,60,-0.0872665,-0.698132,-0.174533,-0.174533,-0.112461,-0.691845,-0.174101,-0.198822,5.03896,-0.352068,-0.0130472,0.728614
26,60,-0.0872665,-0.698132,-0.174533,-0.174533,-0.112461,-0.691845,-0.174101,-0.198822,5.03896,-0.352068,-0.0130472,0.728614
26,60,-0.0872665,-0.698132,-0.174533,-0.174533,-0.112461,-0.691845,-0.174101,-0.198822,5.03896,-0.352068,-0.0130472,0.728614
26,60,-0.0872665,-0.698132,-0.174533,-0.174533,-0.112461,-0.691845,-0.174101,-0.198822,5.03896,-0.352068,-0.0130472,0.728614
26,60,-0.0872665,-0.698132,-0.174533,-0.174533,-0.112461,-0.691845,-0.174101,-0.198822,5.03896,-0.352068,-0.0130472,0.728614
26,60,-0.0872665,-0.698132,-0.174533,-0.174533,-0.112461,-0.691845,-0.174101,-0.198822,5.03896,-0.352068,-0.0130472,0.728614
26,60,-0.0872665,-0.698132,-0.174533,-0.174533,-0.112461,-0.691845,-0.174101,-0.198822,5.03896,-0.352068,-0.0130472,0.728614
26,60,-0.0872665,-0.698132,-0.174533,-0.174533,-0.112461,-0.691845,-0.174101,-0.198822,5.03896,-0.352068,-0.0130472,0.728614
26,60,-0.0872665,-0.698132,-0.174533,-0.174533,-0.112461,-0.691845,-0.174101,-0.198822,5.03896,-0.352068,-0.0130472,0.728614
26,60,-0.0872665,-0.698132,-0.174533,-0.174533,-0.112461,-0.691845,-0.174101,-0.198822,5.03896,-0.352068,-0.0130472,0.728614
26,60,-0.0872665,-0.698132,-0.174533,-0.174533,-0.112461,-0.691845,-0.174101,-0.198822,5.03896,-0.352068,-0.0130472,0.728614
26,60,-0.0872665,-0.698132,-0.174533,-0.174533,-0.112461,-0.691845,-0.174101,-0.198822,5.03896,-0.352068,-0.0130472,0.728614
26,60,-0.0872665,-0.698132,-0.174533,-0.174533,-0.112461,-0.691845,-0.174101,-0.198822,5.03896,-0.352068,-0.0130472,0.728614
26,60,-0.0872665,-0.698132,-0.174533,-0.174533,-0.112461,-0.691845,-0.174101,-0.198822,5.03896,-0.352068,-0.0130472,0.728614
26,60,-0.0872665,-0.698132,-0.174533,-0.174533,-0.112461,-0.691845,-0.174101,-0.198822,5.03896,-0.352068,-0.0130472,0.728614
26,60,-0.0872665,-0.698132,-0.174533,-0.174533,-0.112461,-0.691845,-0.174101,-0.198822,5.03896,-0.352068,-0.0130472,0.728614
26,60,-0.0872665,-0.698132,-0.174533,-0.174533,-0.112461,-0.691845,-0.174101,-0.198822,5.03896,-0.352068,-0.0130472,0.728614
26,60,-0.0872665,-0.698132,-0.174533,-0.174533,-0.112461,-0.691845,-0.174101,-0.198822,5.03896,-0.352068,-0.0130472,0.728614
26,60,-0.0872665,-0.698132,-0.174533,-0.174533,-0.112461,-0.691845,-0.174101,-0.198822,5.03896,-0.352068,-0.0130472,0.728614
26,60,-0.0872665,-0.698132,-0.174533,-0.174533,-0.112461,-0.691845,-0.174101,-0.198822,5.03896,-0.352068,-0.0130472,0.728614
26,60,-0.0872665,-0.698132,-0.174533,-0.174533,-0.112461,-0.691845,-0.174101,-0.198822,5.03896,-0.352068,-0.0130472,0.728614
26,60,-0.0872665,-0.698132,-0.174533,-0.174533,-0.112461,-0.691845,-0.174101,-0.198822,5.03896,-0.352068,-0.0130472,0.728614
26,60,-0.0872665,-0.698132,-0.174533,-0.174533,-0.112461,-0.691845,-0.174101,-0.198822,5.03896,-0.352068,-0.0130472,0.728614
26,60,-0.0872665,-0.698132,-0.174533,-0.174533,-0.112461,-0.691845,-0.174101,-0.198822,5.03896,-0.352068,-0.0130472,0.728614
26,60,-0.0872665,-0.698132,-0.174533,-0.174533,-0.112461,-0.691845,-0.174101,-0.198822,5.03896,-0.352068,-0.0130472,0.728614
26,60,-0.0872665,-0.698132,-0.174533,-0.174533,-0.112461,-0.691845,-0.174101,-0.198822,5.03896,-0.352068,-0.0130472,0.728614
26,60,-0.0872665,-0.698132,-0.174533,-0.174533,-0.112461,-0.691845,-0.174101,-0.198822,5.03896,-0.352068,-0.0130472,0.728614
26,60,-0.0872665,-0.698132,-0.174533,-0.174533,-0.112461,-0.691845,-0.174101,-0.198822,5.03896,-0.352068,-0.0130472,0.728614
26,60,-0.0872665,-0.698132,-0.174533,-0.174533,-0.112461,-0.691845,-0.174101,-0.198822,5.03896,-0.352068,-0.0130472,0.728614
26,60,-0.0872665,-0.698132,-0.174533,-0.174533,-0.112461,-0.691845,-0.174101,-0.198822,5.03896,-0.352068,-0.0130472,0.728614
26,60,-0.0872665,-0.698132,-0.174533,-0.174533,-0.112461,-0.691845,-0.174101,-0.198822,5.03896,-0.352068,-0.0130472,0.728614
26,60,-0.0872665,-0.698132,-0.174533,-0.174533,-0.112461,-0.691845,-0.174162,-0.198804,5.03896,-0.352068,-0.0111854,0.728048
26,60,-0.0872665,-0.698132,-0.174533,-0.174533,-0.112461,-0.691845,-0.174162,-0.198804,5.03896,-0.352068,-0.0111854,0.728048
26,60,-0.0872665,-0.698132,-0.174533,-0.174533,-0.112461,-0.691845,-0.174162,-0.198804,5.03896,-0.352068,-0.0111854,0.728048
26,60,-0.0872665,-0.698132,-0.174533,-0.174533,-0.112461,-0.691845,-0.174162,-0.198804,5.03896,-0.352068,-0.0111854,0.728048
26,60,-0.0872665,-0.698132,-0.174533,-0.174533,-0.112461,-0.691845,-0.174162,-0.198804,5.03896,-0.352068,-0.0111854,0.728048
26,60,-0.0872665,-0.698132,-0.174533,-0.174533,-0.112461,-0.691845,-0.174162,-0.198804,5.03896,-0.352068,-0.0111854,0.728048
26,60,-0.0872665,-0.698132,-0.174533,-0.174533,-0.112461,-0.691845,-0.174162,-0.198804,5.03896,-0.352068,-0.0111854,0.728048
26,60,-0.0872665,-0.698132,-0.174533,-0.174533,-0.112461,-0.691845,-0.174162,-0.198804,5.03896,-0.352068,-0.0111854,0.728048
26,60,-0.0872665,-0.698132,-0.174533,-0.174533,-0.112461,-0.691845,-0.174162,-0.198804,5.03896,-0.352068,-0.0111854,0.728048
26,60,-0.0872665,-0.698132,-0.174533,-0.174533,-0.112461,-0.691845,-0.174162,-0.198804,5.03896,-0.352068,-0.0111854,0.728048
26,60,-0.0872665,-0.698132,-0.174533,-0.174533,-0.112461,-0.691845,-0.174162,-0.198804,5.03896,-0.352068,-0.0111854,0.728048
26,60,-0.0872665,-0.698132,-0.174533,-0.174533,-0.112461,-0.691845,-0.174162,-0.198804,5.03896,-0.352068,-0.0111854,0.728048
26,60,-0.0872665,-0.698132,-0.174533,-0.174533,-0.112461,-0.691845,-0.174162,-0.198804,5.03896,-0.352068,-0.0111854,0.728048
26,60,-0.0872665,-0.698132,-0.174533,-0.174533,-0.112461,-0.691845,-0.174094,-0.19876,5.03896,-0.352068,-0.0131758,0.726783
26,60,-0.0872665,-0.698132,-0.174533,-0.174533,-0.112461,-0.691845,-0.174094,-0.19876,5.03896,-0.352068,-0.0131758,0.726783
26,60,-0.0872665,-0.698132,-0.174533,-0.174533,-0.112461,-0.691845,-0.174094,-0.19876,5.03896,-0.352068,-0.0131758,0.726783
26,60,-0.0872665,-0.698132,-0.174533,-0.174533,-0.112461,-0.691845,-0.174094,-0.19876,5.03896,-0.352068,-0.0131758,0.726783
26,60,-0.0872665,-0.698132,-0.174533,-0.174533,-0.112461,-0.691845,-0.174094,-0.19876,5.03896,-0.352068,-0.0131758,0.726783
26,60,-0.0872665,-0.698132,-0.174533,-0.174533,-0.112461,-0.691845,-0.174094,-0.19876,5.03896,-0.352068,-0.0131758,0.726783
26,60,-0.0872665,-0.698132,-0.174533,-0.174533,-0.112461,-0.691845,-0.174094,-0.19876,5.03896,-0.352068,-0.0131758,0.726783
26,60,-0.0872665,-0.698132,-0.174533,-0.174533,-0.112461,-0.691845,-0.174094,-0.19876,5.03896,-0.352068,-0.0131758,0.726783
26,60,-0.0872665,-0.698132,-0.174533,-0.174533,-0.112461,-0.691845,-0.174094,-0.19876,5.03896,-0.352068,-0.0131758,0.726783
26,60,-0.0872665,-0.698132,-0.174533,-0.174533,-0.112461,-0.691845,-0.174094,-0.19876,5.03896,-0.352068,-0.0131758,0.726783
26,60,-0.0872665,-0.698132,-0.174533,-0.174533,-0.112461,-0.691845,-0.174094,-0.19876,5.03896,-0.352068,-0.0131758,0.726783
26,60,-0.0872665,-0.698132,-0.174533,-0.174533,-0.112461,-0.691845,-0.174094,-0.19876,5.03896,-0.352068,-0.0131758,0.726783
26,60,-0.0872665,-0.698132,-0.174533,-0.174533,-0.112461,-0.691845,-0.174094,-0.19876,5.03896,-0.352068,-0.0131758,0.726783
26,60,-0.0872665,-0.698132,-0.174533,-0.174533,-0.112461,-0.691845,-0.174094,-0.19876,5.03896,-0.352068,-0.0131758,0.726783
26,60,-0.0872665,-0.698132,-0.174533,-0.174533,-0.112461,-0.691845,-0.174094,-0.19876,5.03896,-0.352068,-0.0131758,0.726783
26,60,-0.0872665,-0.698132,-0.174533,-0.174533,-0.112461,-0.691845,-0.174094,-0.19876,5.03896,-0.352068,-0.0131758,0.726783
26,60,-0.0872665,-0.698132,-0.174533,-0.174533,-0.112461,-0.691845,-0.174094,-0.19876,5.03896,-0.352068,-0.0131758,0.726783
26,60,-0.0872665,-0.698132,-0.174533,-0.174533,-0.112461,-0.691845,-0.174094,-0.19876,5.03896,-0.352068,-0.0131758,0.726783
26,60,-0.0872665,-0.698132,-0.174533,-0.174533,-0.112461,-0.691845,-0.174094,-0.19876,5.03896,-0.352068,-0.0131758,0.726783
26,60,-0.0872665,-0.698132,-0.174533,-0.174533,-0.112461,-0.691845,-0.174094,-0.19876,5.03896,-0.352068,-0.0131758,0.726783
26,60,-0.0872665,-0.698132,-0.174533,-0.174533,-0.112461,-0.691845,-0.174094,-0.19876,5.03896,-0.352068,-0.0131758,0.726783
26,60,-0.0872665,-0.698132,-0.174533,-0.174533,-0.112461,-0.691845,-0.174094,-0.19876,5.03896,-0.352068,-0.0131758,0.726783
26,60,-0.0872665,-0.698132,-0.174533,-0.174533,-0.112461,-0.691845,-0.174094,-0.19876,5.03896,-0.352068,-0.0131758,0.726783
26,60,-0.0872665,-0.698132,-0.174533,-0.174533,-0.112461,-0.691845,-0.174094,-0.19876,5.03896,-0.352068,-0.0131758,0.726783
26,60,-0.0872665,-0.698132,-0.174533,-0.174533,-0.112461,-0.691845,-0.174094,-0.19876,5.03896,-0.352068,-0.0131758,0.726783
26,60,-0.0872665,-0.698132,-0.174533,-0.174533,-0.112461,-0.691845,-0.174094,-0.19876,5.03896,-0.352068,-0.0131758,0.726783
26,60,-0.0872665,-0.698132,-0.174533,-0.174533,-0.112461,-0.691845,-0.174094,-0.19876,5.03896,-0.352068,-0.0131758,0.726783
26,60,-0.0872665,-0.698132,-0.174533,-0.174533,-0.112461,-0.691845,-0.174094,-0.19876,5.03896,-0.352068,-0.0131758,0.726783
26,60,-0.0872665,-0.698132,-0.174533,-0.174533,-0.112461,-0.691845,-0.174094,-0.19876,5.03896,-0.352068,-0.0131758,0.726783
26,60,-0.0872665,-0.698132,-0.174533,-0.174533,-0.112461,-0.691845,-0.174094,-0.19876,5.03896,-0.352068,-0.0131758,0.726783
26,60,-0.0872665,-0.698132,-0.174533,-0.174533,-0.112461,-0.691845,-0.174094,-0.19876,5.03896,-0.352068,-0.0131758,0.726783
26,60,-0.0872665,-0.698132,-0.174533,-0.174533,-0.112461,-0.691845,-0.174094,-0.19876,5.03896,-0.352068,-0.0131758,0.726783
26,60,-0.0872665,-0.698132,-0.174533,-0.174533,-0.112461,-0.691845,-0.174094,-0.19876,5.03896,-0.352068,-0.0131758,0.726783
26,60,-0.0872665,-0.698132,-0.174533,-0.174533,-0.112461,-0.691845,-0.174155,-0.198742,5.03896,-0.352068,-0.0113511,0.726228
26,60,-0.0872665,-0.698132,-0.174533,-0.174533,-0.112461,-0.691845,-0.174155,-0.198742,5.03896,-0.352068,-0.0113511,0.726228
26,60,-0.0872665,-0.698132,-0.174533,-0.174533,-0.112461,-0.691845,-0.174155,-0.198742,5.03896,-0.352068,-0.0113511,0.726228
26,60,-0.0872665,-0.698132,-0.174533,-0.174533,-0.112461,-0.691845,-0.174155,-0.198742,5.03896,-0.352068,-0.0113511,0.726228
26,60,-0.0872665,-0.698132,-0.174533,-0.174533,-0.112461,-0.691845,-0.174155,-0.198742,5.03896,-0.352068,-0.0113511,0.726228
26,60,-0.0872665,-0.698132,-0.174533,-0.174533,-0.112461,-0.691845,-0.174155,-0.198742,5.03896,-0.352068,-0.0113511,0.726228
26,60,-0.0872665,-0.698132,-0.174533,-0.174533,-0.112461,-0.691845,-0.174155,-0.198742,5.03896,-0.352068,-0.0113511,0.726228
26,60,-0.0872665,-0.698132,-0.174533,-0.174533,-0.112461,-0.691845,-0.174155,-0.198742,5.03896,-0.352068,-0.0113511,0.726228
26,60,-0.0872665,-0.698132,-0.174533,-0.174533,-0.112461,-0.691845,-0.174155,-0.198742,5.03896,-0.352068,-0.0113511,0.726228
26,60,-0.0872665,-0.698132,-0.174533,-0.174533,-0.112461,-0.691845,-0.174155,-0.198742,5.03896,-0.352068,-0.0113511,0.726228
26,60,-0.0872665,-0.698132,-0.174533,-0.174533,-0.112461,-0.691845,-0.174155,-0.198742,5.03896,-0.352068,-0.0113511,0.726228
26,60,-0.0872665,-0.698132,-0.174533,-0.174533,-0.112461,-0.691845,-0.174155,-0.198742,5.03896,-0.352068,-0.0113511,0.726228
26,60,-0.0872665,-0.698132,-0.174533,-0.174533,-0.112461,-0.691845,-0.174155,-0.198742,5.03896,-0.352068,-0.0113511,0.726228
26,60,-0.0872665,-0.698132,-0.174533,-0.174533,-0.112461,-0.691845,-0.174155,-0.198742,5.03896,-0.352068,-0.0113511,0.726228
26,60,-0.0872665,-0.698132,-0.174533,-0.174533,-0.112461,-0.691845,-0.174155,-0.198742,5.03896,-0.352068,-0.0113511,0.726228
26,60,-0.0872665,-0.698132,-0.174533,-0.174533,-0.112461,-0.691845,-0.174155,-0.198742,5.03896,-0.352068,-0.0113511,0.726228
26,60,-0.0872665,-0.698132,-0.174533,-0.174533,-0.112461,-0.691845,-0.174155,-0.198742,5.03896,-0.352068,-0.0113511,0.726228
26,60,-0.0872665,-0.698132,-0.174533,-0.174533,-0.112461,-0.691845,-0.174155,-0.198742,5.03896,-0.352068,-0.0113511,0.726228
26,60,-0.0872665,-0.698132,-0.174533,-0.174533,-0.112461,-0.691845,-0.174155,-0.198742,5.03896,-0.352068,-0.0113511,0.726228
26,60,-0.0872665,-0.698132,-0.174533,-0.174533,-0.112461,-0.691845,-0.174155,-0.198742,5.03896,-0.352068,-0.0113511,0.726228
26,60,-0.0872665,-0.698132,-0.174533,-0.174533,-0.112461,-0.691845,-0.174155,-0.198742,5.03896,-0.352068,-0.0113511,0.726228
26,60,-0.0872665,-0.698132,-0.174533,-0.174533,-0.112461,-0.691845,-0.174155,-0.198742,5.03896,-0.352068,-0.0113511,0.726228
26,60,-0.0872665,-0.698132,-0.174533,-0.174533,-0.112461,-0.691845,-0.174155,-0.198742,5.03896,-0.352068,-0.0113511,0.726228
26,60,-0.0872665,-0.698132,-0.174533,-0.174533,-0.112461,-0.691845,-0.174155,-0.198742,5.03896,-0.352068,-0.0113511,0.726228
26,60,-0.0872665,-0.698132,-0.174533,-0.174533,-0.112461,-0.691845,-0.174155,-0.198742,5.03896,-0.352068,-0.0113511,0.726228
26,60,-0.0872665,-0.698132,-0.174533,-0.174533,-0.112461,-0.691845,-0.174155,-0.198742,5.03896,-0.352068,-0.0113511,0.726228
26,60,-0.0872665,-0.698132,-0.174533,-0.174533,-0.112461,-0.691845,-0.174155,-0.198742,5.03896,-0.352068,-0.0113511,0.726228
26,60,-0.0872665,-0.698132,-0.174533,-0.174533,-0.112461,-0.691845,-0.174155,-0.198742,5.03896,-0.352068,-0.0113511,0.726228
26,60,-0.0872665,-0.698132,-0.174533,-0.174533,-0.112461,-0.691845,-0.174155,-0.198742,5.03896,-0.352068,-0.0113511,0.726228
26,60,-0.0872665,-0.698132,-0.174533,-0.174533,-0.112461,-0.691845,-0.174155,-0.198742,5.03896,-0.352068,-0.0113511,0.726228
26,60,-0.0872665,-0.698132,-0.174533,-0.174533,-0.112461,-0.691845,-0.174155,-0.198742,5.03896,-0.352068,-0.0113511,0.726228
26,60,-0.0872665,-0.698132,-0.174533,-0.174533,-0.112461,-0.691845,-0.174155,-0.198742,5.03896,-0.352068,-0.0113511,0.726228
26,60,-0.0872665,-0.698132,-0.174533,-0.174533,-0.112461,-0.691845,-0.174155,-0.198742,5.03896,-0.352068,-0.0113511,0.726228
26,60,-0.0872665,-0.698132,-0.174533,-0.174533,-0.112461,-0.691845,-0.174155,-0.198742,5.03896,-0.352068,-0.0113511,0.726228
26,60,-0.0872665,-0.698132,-0.174533,-0.174533,-0.112461,-0.691845,-0.174155,-0.198742,5.03896,-0.352068,-0.0113511,0.726228
26,60,-0.0872665,-0.698132,-0.174533,-0.174533,-0.112461,-0.691845,-0.174155,-0.198742,5.03896,-0.352068,-0.0113511,0.726228
26,60,-0.0872665,-0.698132,-0.174533,-0.174533,-0.112461,-0.691845,-0.174155,-0.198742,5.03896,-0.352068,-0.0113511,0.726228
26,60,-0.0872665,-0.698132,-0.174533,-0.174533,-0.112461,-0.691845,-0.174155,-0.198742,5.03896,-0.352068,-0.0113511,0.726228
26,60,-0.0872665,-0.698132,-0.174533,-0.174533,-0.112461,-0.691845,-0.174155,-0.198742,5.03896,-0.352068,-0.0113511,0.726228
26,60,-0.0872665,-0.698132,-0.174533,-0.174533,-0.112461,-0.691845,-0.174155,-0.198742,5.03896,-0.352068,-0.0113511,0.726228
26,60,-0.0872665,-0.698132,-0.174533,-0.174533,-0.112461,-0.691845,-0.174217,-0.198723,5.03896,-0.352068,-0.00949465,0.725664
26,60,-0.0872665,-0.698132,-0.174533,-0.174533,-0.112461,-0.691845,-0.174217,-0.198723,5.03896,-0.352068,-0.00949465,0.725664
26,60,-0.0872665,-0.698132,-0.174533,-0.174533,-0.112461,-0.691845,-0.174217,-0.198723,5.03896,-0.352068,-0.00949465,0.725664
26,60,-0.0872665,-0.698132,-0.174533,-0.174533,-0.112461,-0.691845,-0.174217,-0.198723,5.03896,-0.352068,-0.00949465,0.725664
26,60,-0.0872665,-0.698132,-0.174533,-0.174533,-0.112461,-0.691845,-0.174217,-0.198723,5.03896,-0.352068,-0.00949465,0.725664
26,60,-0.0872665,-0.698132,-0.174533,-0.174533,-0.112461,-0.691845,-0.174217,-0.198723,5.03896,-0.352068,-0.00949465,0.725664
26,60,-0.0872665,-0.698132,-0.174533,-0.174533,-0.112461,-0.691845,-0.174217,-0.198723,5.03896,-0.352068,-0.00949465,0.725664
26,60,-0.0872665,-0.698132,-0.174533,-0.174533,-0.112461,-0.691845,-0.174217,-0.198723,5.03896,-0.352068,-0.00949465,0.725664
26,60,-0.0872665,-0.698132,-0.174533,-0.174533,-0.112461,-0.691845,-0.174217,-0.198723,5.03896,-0.352068,-0.00949465,0.725664
26,60,-0.0872665,-0.698132,-0.174533,-0.174533,-0.112461,-0.691845,-0.174217,-0.198723,5.03896,-0.352068,-0.00949465,0.725664
26,60,-0.0872665,-0.698132,-0.174533,-0.174533,-0.112461,-0.691845,-0.174217,-0.198723,5.03896,-0.352068,-0.00949465,0.725664
26,60,-0.0872665,-0.698132,-0.174533,-0.174533,-0.112461,-0.691845,-0.174217,-0.198723,5.03896,-0.352068,-0.00949465,0.725664
26,60,-0.0872665,-0.698132,-0.174533,-0.174533,-0.112461,-0.691845,-0.174217,-0.198723,5.03896,-0.352068,-0.00949465,0.725664
26,60,-0.0872665,-0.698132,-0.174533,-0.174533,-0.112461,-0.691845,-0.174217,-0.198723,5.03896,-0.352068,-0.00949465,0.725664
26,60,-0.0872665,-0.698132,-0.174533,-0.174533,-0.112461,-0.691845,-0.174217,-0.198723,5.03896,-0.352068,-0.00949465,0.725664
26,60,-0.0872665,-0.698132,-0.174533,-0.174533,-0.112461,-0.691845,-0.174217,-0.198723,5.03896,-0.352068,-0.00949465,0.725664
26,60,-0.0872665,-0.698132,-0.174533,-0.174533,-0.112461,-0.691845,-0.174217,-0.198723,5.03896,-0.352068,-0.00949465,0.725664
26,60,-0.0872665,-0.698132,-0.174533,-0.174533,-0.112461,-0.691845,-0.174217,-0.198723,5.03896,-0.352068,-0.00949465,0.725664
26,60,-0.0872665,-0.698132,-0.174533,-0.174533,-0.112461,-0.691845,-0.174217,-0.198723,5.03896,-0.352068,-0.00949465,0.725664
26,60,-0.0872665,-0.698132,-0.174533,-0.174533,-0.112461,-0.691845,-0.174217,-0.198723,5.03896,-0.352068,-0.00949465,0.725664
26,60,-0.0872665,-0.698132,-0.174533,-0.174533,-0.112461,-0.691845,-0.174217,-0.198723,5.03896,-0.352068,-0.00949465,0.725664
26,60,-0.0872665,-0.698132,-0.174533,-0.174533,-0.112461,-0.691845,-0.174217,-0.198723,5.03896,-0.352068,-0.00949465,0.725664
26,60,-0.0872665,-0.698132,-0.174533,-0.174533,-0.112461,-0.691845,-0.174217,-0.198723,5.03896,-0.352068,-0.00949465,0.725664
26,60,-0.0872665,-0.698132,-0.174533,-0.174533,-0.112461,-0.691845,-0.174217,-0.198723,5.03896,-0.352068,-0.00949465,0.725664
26,60,-0.0872665,-0.698132,-0.174533,-0.174533,-0.112461,-0.691845,-0.174217,-0.198723,5.03896,-0.352068,-0.00949465,0.725664
26,60,-0.0872665,-0.698132,-0.174533,-0.174533,-0.112461,-0.691845,-0.174217,-0.198723,5.03896,-0.352068,-0.00949465,0.725664
26,60,-0.0872665,-0.698132,-0.174533,-0.174533,-0.112461,-0.691845,-0.174217,-0.198723,5.03896,-0.352068,-0.00949465,0.725664
26,60,-0.0872665,-0.698132,-0.174533,-0.174533,-0.112461,-0.691845,-0.174217,-0.198723,5.03896,-0.352068,-0.00949465,0.725664
26,60,-0.0872665,-0.698132,-0.174533,-0.174533,-0.112461,-0.691845,-0.174217,-0.198723,5.03896,-0.352068,-0.00949465,0.725664
26,60,-0.0872665,-0.698132,-0.174533,-0.174533,-0.112461,-0.691845,-0.174217,-0.198723,5.03896,-0.352068,-0.00949465,0.725664
26,60,-0.0872665,-0.698132,-0.174533,-0.174533,-0.112461,-0.691845,-0.174217,-0.198723,5.03896,-0.352068,-0.00949465,0.725664
26,60,-0.0872665,-0.698132,-0.174533,-0.174533,-0.112461,-0.691845,-0.174217,-0.198723,5.03896,-0.352068,-0.00949465,0.725664
26,60,-0.0872665,-0.698132,-0.174533,-0.174533,-0.112461,-0.691845,-0.174217,-0.198723,5.03896,-0.352068,-0.00949465,0.725664
26,60,-0.0872665,-0.698132,-0.174533,-0.174533,-0.112461,-0.691845,-0.174217,-0.198723,5.03896,-0.352068,-0.00949465,0.725664
26,60,-0.0872665,-0.698132,-0.174533,-0.174533,-0.112461,-0.691845,-0.174217,-0.198723,5.03896,-0.352068,-0.00949465,0.725664
26,60,-0.0872665,-0.698132,-0.174533,-0.174533,-0.112461,-0.691845,-0.174217,-0.198723,5.03896,-0.352068,-0.00949465,0.725664
26,60,-0.0872665,-0.698132,-0.174533,-0.174533,-0.112461,-0.691845,-0.174217,-0.198723,5.03896,-0.352068,-0.00949465,0.725664
26,60,-0.0872665,-0.698132,-0.174533,-0.174533,-0.112461,-0.691845,-0.174217,-0.198723,5.03896,-0.352068,-0.00949465,0.725664
26,60,-0.0872665,-0.698132,-0.174533,-0.174533,-0.112461,-0.691845,-0.174217,-0.198723,5.03896,-0.352068,-0.00949465,0.725664
26,60,-0.0872665,-0.698132,-0.174533,-0.174533,-0.112461,-0.691845,-0.174217,-0.198723,5.03896,-0.352068,-0.00949465,0.725664
26,60,-0.0872665,-0.698132,-0.174533,-0.174533,-0.112461,-0.691845,-0.174148,-0.198679,5.03896,-0.352068,-0.0115549,0.724355
26,60,-0.0872665,-0.698132,-0.174533,-0.174533,-0.112461,-0.691845,-0.174148,-0.198679,5.03896,-0.352068,-0.0115549,0.724355
26,60,-0.0872665,-0.698132,-0.174533,-0.174533,-0.112461,-0.691845,-0.174148,-0.198679,5.03896,-0.352068,-0.0115549,0.724355
26,60,-0.0872665,-0.698132,-0.174533,-0.174533,-0.112461,-0.691845,-0.174148,-0.198679,5.03896,-0.352068,-0.0115549,0.724355
26,60,-0.0872665,-0.698132,-0.174533,-0.174533,-0.112461,-0.691845,-0.174148,-0.198679,5.03896,-0.352068,-0.0115549,0.724355
26,60,-0.0872665,-0.698132,-0.174533,-0.174533,-0.112461,-0.691845,-0.174148,-0.198679,5.03896,-0.352068,-0.0115549,0.724355
26,60,-0.0872665,-0.698132,-0.174533,-0.174533,-0.112461,-0.691845,-0.174148,-0.198679,5.03896,-0.352068,-0.0115549,0.724355
26,60,-0.0872665,-0.698132,-0.174533,-0.174533,-0.112461,-0.691845,-0.174148,-0.198679,5.03896,-0.352068,-0.0115549,0.724355
26,60,-0.0872665,-0.698132,-0.174533,-0.174533,-0.112461,-0.691845,-0.174148,-0.198679,5.03896,-0.352068,-0.0115549,0.724355
26,60,-0.0872665,-0.698132,-0.174533,-0.174533,-0.112461,-0.691845,-0.174148,-0.198679,5.03896,-0.352068,-0.0115549,0.724355
26,60,-0.0872665,-0.698132,-0.174533,-0.174533,-0.112461,-0.691845,-0.174148,-0.198679,5.03896,-0.352068,-0.0115549,0.724355
26,60,-0.0872665,-0.698132,-0.174533,-0.174533,-0.112461,-0.691845,-0.174148,-0.198679,5.03896,-0.352068,-0.0115549,0.724355
26,60,-0.0872665,-0.698132,-0.174533,-0.174533,-0.112461,-0.691845,-0.174148,-0.198679,5.03896,-0.352068,-0.0115549,0.724355
26,60,-0.0872665,-0.698132,-0.174533,-0.174533,-0.112461,-0.691845,-0.174148,-0.198679,5.03896,-0.352068,-0.0115549,0.724355
26,60,-0.0872665,-0.698132,-0.174533,-0.174533,-0.112461,-0.691845,-0.174148,-0.198679,5.03896,-0.352068,-0.0115549,0.724355
26,60,-0.0872665,-0.698132,-0.174533,-0.174533,-0.112461,-0.691845,-0.174148,-0.198679,5.03896,-0.352068,-0.0115549,0.724355
26,60,-0.0872665,-0.698132,-0.174533,-0.174533,-0.112461,-0.691845,-0.174148,-0.198679,5.03896,-0.352068,-0.0115549,0.724355
26,60,-0.0872665,-0.698132,-0.174533,-0.174533,-0.112461,-0.691845,-0.174148,-0.198679,5.03896,-0.352068,-0.0115549,0.724355
26,60,-0.0872665,-0.698132,-0.174533,-0.174533,-0.112461,-0.691845,-0.174148,-0.198679,5.03896,-0.352068,-0.0115549,0.724355
26,60,-0.0872665,-0.698132,-0.174533,-0.174533,-0.112461,-0.691845,-0.174148,-0.198679,5.03896,-0.352068,-0.0115549,0.724355
26,60,-0.0872665,-0.698132,-0.174533,-0.174533,-0.112461,-0.691845,-0.174148,-0.198679,5.03896,-0.352068,-0.0115549,0.724355
26,60,-0.0872665,-0.698132,-0.174533,-0.174533,-0.112461,-0.691845,-0.174148,-0.198679,5.03896,-0.352068,-0.0115549,0.724355
26,60,-0.0872665,-0.698132,-0.174533,-0.174533,-0.112461,-0.691845,-0.174148,-0.198679,5.03896,-0.352068,-0.0115549,0.724355
26,60,-0.0872665,-0.698132,-0.174533,-0.174533,-0.112461,-0.691845,-0.174148,-0.198679,5.03896,-0.352068,-0.0115549,0.724355
26,60,-0.0872665,-0.698132,-0.174533,-0.174533,-0.112461,-0.691845,-0.174148,-0.198679,5.03896,-0.352068,-0.0115549,0.724355
26,60,-0.0872665,-0.698132,-0.174533,-0.174533,-0.112461,-0.691845,-0.174148,-0.198679,5.03896,-0.352068,-0.0115549,0.724355
26,60,-0.0872665,-0.698132,-0.174533,-0.174533,-0.112461,-0.691845,-0.174148,-0.198679,5.03896,-0.352068,-0.0115549,0.724355
26,60,-0.0872665,-0.698132,-0.174533,-0.174533,-0.112461,-0.691845,-0.174148,-0.198679,5.03896,-0.352068,-0.0115549,0.724355
26,60,-0.0872665,-0.698132,-0.174533,-0.174533,-0.112461,-0.691845,-0.174148,-0.198679,5.03896,-0.352068,-0.0115549,0.724355
26,60,-0.0872665,-0.698132,-0.174533,-0.174533,-0.112461,-0.691845,-0.174148,-0.198679,5.03896,-0.352068,-0.0115549,0.724355
26,60,-0.0872665,-0.698132,-0.174533,-0.174533,-0.112461,-0.691845,-0.174148,-0.198679,5.03896,-0.352068,-0.0115549,0.724355
26,60,-0.0872665,-0.698132,-0.174533,-0.174533,-0.112461,-0.691845,-0.174148,-0.198679,5.03896,-0.352068,-0.0115549,0.724355
26,60,-0.0872665,-0.698132,-0.174533,-0.174533,-0.112461,-0.691845,-0.174148,-0.198679,5.03896,-0.352068,-0.0115549,0.724355
26,60,-0.0872665,-0.698132,-0.174533,-0.174533,-0.112461,-0.691845,-0.174148,-0.198679,5.03896,-0.352068,-0.0115549,0.724355
26,60,-0.0872665,-0.698132,-0.174533,-0.174533,-0.112461,-0.691845,-0.174148,-0.198679,5.03896,-0.352068,-0.0115549,0.724355
26,60,-0.0872665,-0.698132,-0.174533,-0.174533,-0.112461,-0.691845,-0.174148,-0.198679,5.03896,-0.352068,-0.0115549,0.724355
26,60,-0.0872665,-0.698132,-0.174533,-0.174533,-0.112461,-0.691845,-0.174148,-0.198679,5.03896,-0.352068,-0.0115549,0.724355
26,60,-0.0872665,-0.698132,-0.174533,-0.174533,-0.112461,-0.691845,-0.174148,-0.198679,5.03896,-0.352068,-0.0115549,0.724355
26,60,-0.0872665,-0.698132,-0.174533,-0.174533,-0.112461,-0.691845,-0.174148,-0.198679,5.03896,-0.352068,-0.0115549,0.724355
26,60,-0.0872665,-0.698132,-0.174533,-0.174533,-0.112461,-0.691845,-0.174148,-0.198679,5.03896,-0.352068,-0.0115549,0.724355
26,60,-0.0872665,-0.698132,-0.174533,-0.174533,-0.112461,-0.691845,-0.174148,-0.198679,5.03896,-0.352068,-0.0115549,0.724355
26,60,-0.0872665,-0.698132,-0.174533,-0.174533,-0.112461,-0.691845,-0.174148,-0.198679,5.03896,-0.352068,-0.0115549,0.724355
26,60,-0.0872665,-0.698132,-0.174533,-0.174533,-0.112461,-0.691845,-0.174148,-0.198679,5.03896,-0.352068,-0.0115549,0.724355
26,60,-0.0872665,-0.698132,-0.174533,-0.174533,-0.112461,-0.691845,-0.174148,-0.198679,5.03896,-0.352068,-0.0115549,0.724355
26,60,-0.0872665,-0.698132,-0.174533,-0.174533,-0.112461,-0.691845,-0.174209,-0.198661,5.03896,-0.352068,-0.00972161,0.723797
26,60,-0.0872665,-0.698132,-0.174533,-0.174533,-0.112461,-0.691845,-0.174209,-0.198661,5.03896,-0.352068,-0.00972161,0.723797
26,60,-0.0872665,-0.698132,-0.174533,-0.174533,-0.112461,-0.691845,-0.174209,-0.198661,5.03896,-0.352068,-0.00972161,0.723797
26,60,-0.0872665,-0.698132,-0.174533,-0.174533,-0.112461,-0.691845,-0.174209,-0.198661,5.03896,-0.352068,-0.00972161,0.723797
26,60,-0.0872665,-0.698132,-0.174533,-0.174533,-0.112461,-0.691845,-0.174209,-0.198661,5.03896,-0.352068,-0.00972161,0.723797
26,60,-0.0872665,-0.698132,-0.174533,-0.174533,-0.112461,-0.691845,-0.174209,-0.198661,5.03896,-0.352068,-0.00972161,0.723797
26,60,-0.0872665,-0.698132,-0.174533,-0.174533,-0.112461,-0.691845,-0.174209,-0.198661,5.03896,-0.352068,-0.00972161,0.723797
26,60,-0.0872665,-0.698132,-0.174533,-0.174533,-0.112461,-0.691845,-0.174209,-0.198661,5.03896,-0.352068,-0.00972161,0.723797
26,60,-0.0872665,-0.698132,-0.174533,-0.174533,-0.112461,-0.691845,-0.174209,-0.198661,5.03896,-0.352068,-0.00972161,0.723797
26,60,-0.0872665,-0.698132,-0.174533,-0.174533,-0.112461,-0.691845,-0.174209,-0.198661,5.03896,-0.352068,-0.00972161,0.723797
26,60,-0.0872665,-0.698132,-0.174533,-0.174533,-0.112461,-0.691845,-0.174209,-0.198661,5.03896,-0.352068,-0.00972161,0.723797
26,60,-0.0872665,-0.698132,-0.174533,-0.174533,-0.112461,-0.691845,-0.174209,-0.198661,5.03896,-0.352068,-0.00972161,0.723797
26,60,-0.0872665,-0.698132,-0.174533,-0.174533,-0.112461,-0.691845,-0.174209,-0.198661,5.03896,-0.352068,-0.00972161,0.723797
26,60,-0.0872665,-0.698132,-0.174533,-0.174533,-0.112461,-0.691845,-0.174209,-0.198661,5.03896,-0.352068,-0.00972161,0.723797
26,60,-0.0872665,-0.698132,-0.174533,-0.174533,-0.112461,-0.691845,-0.174209,-0.198661,5.03896,-0.352068,-0.00972161,0.723797
26,60,-0.0872665,-0.698132,-0.174533,-0.174533,-0.112461,-0.691845,-0.174209,-0.198661,5.03896,-0.352068,-0.00972161,0.723797
26,60,-0.0872665,-0.698132,-0.174533,-0.174533,-0.112461,-0.691845,-0.174209,-0.198661,5.03896,-0.352068,-0.00972161,0.723797
26,60,-0.0872665,-0.698132,-0.174533,-0.174533,-0.112461,-0.691845,-0.174209,-0.198661,5.03896,-0.352068,-0.00972161,0.723797
26,60,-0.0872665,-0.698132,-0.174533,-0.174533,-0.112461,-0.691845,-0.174209,-0.198661,5.03896,-0.352068,-0.00972161,0.723797
26,60,-0.0872665,-0.698132,-0.174533,-0.174533,-0.112461,-0.691845,-0.174209,-0.198661,5.03896,-0.352068,-0.00972161,0.723797
26,60,-0.0872665,-0.698132,-0.174533,-0.174533,-0.112461,-0.691845,-0.174209,-0.198661,5.03896,-0.352068,-0.00972161,0.723797
26,60,-0.0872665,-0.698132,-0.174533,-0.174533,-0.112461,-0.691845,-0.174209,-0.198661,5.03896,-0.352068,-0.00972161,0.723797
26,60,-0.0872665,-0.698132,-0.174533,-0.174533,-0.112461,-0.691845,-0.174209,-0.198661,5.03896,-0.352068,-0.00972161,0.723797
26,60,-0.0872665,-0.698132,-0.174533,-0.174533,-0.112461,-0.691845,-0.174209,-0.198661,5.03896,-0.352068,-0.00972161,0.723797
26,60,-0.0872665,-0.698132,-0.174533,-0.174533,-0.112461,-0.691845,-0.174209,-0.198661,5.03896,-0.352068,-0.00972161,0.723797
26,60,-0.0872665,-0.698132,-0.174533,-0.174533,-0.112461,-0.691845,-0.174209,-0.198661,5.03896,-0.352068,-0.00972161,0.723797
26,60,-0.0872665,-0.698132,-0.174533,-0.174533,-0.112461,-0.691845,-0.174209,-0.198661,5.03896,-0.352068,-0.00972161,0.723797
26,60,-0.0872665,-0.698132,-0.174533,-0.174533,-0.112461,-0.691845,-0.174209,-0.198661,5.03896,-0.352068,-0.00972161,0.723797
26,60,-0.0872665,-0.698132,-0.174533,-0.174533,-0.112461,-0.691845,-0.174209,-0.198661,5.03896,-0.352068,-0.00972161,0.723797
26,60,-0.0872665,-0.698132,-0.174533,-0.174533,-0.112461,-0.691845,-0.174209,-0.198661,5.03896,-0.352068,-0.00972161,0.723797
26,60,-0.0872665,-0.698132,-0.174533,-0.174533,-0.112461,-0.691845,-0.174209,-0.198661,5.03896,-0.352068,-0.00972161,0.723797
26,60,-0.0872665,-0.698132,-0.174533,-0.174533,-0.112461,-0.691845,-0.174209,-0.198661,5.03896,-0.352068,-0.00972161,0.723797
26,60,-0.0872665,-0.698132,-0.174533,-0.174533,-0.112461,-0.691845,-0.174209,-0.198661,5.03896,-0.352068,-0.00972161,0.723797
26,60,-0.0872665,-0.698132,-0.174533,-0.174533,-0.112461,-0.691845,-0.174209,-0.198661,5.03896,-0.352068,-0.00972161,0.723797
26,60,-0.0872665,-0.698132,-0.174533,-0.174533,-0.112461,-0.691845,-0.174209,-0.198661,5.03896,-0.352068,-0.00972161,0.723797
26,60,-0.0872665,-0.698132,-0.174533,-0.174533,-0.112461,-0.691845,-0.174209,-0.198661,5.03896,-0.352068,-0.00972161,0.723797
26,60,-0.0872665,-0.698132,-0.174533,-0.174533,-0.112461,-0.691845,-0.174209,-0.198661,5.03896,-0.352068,-0.00972161,0.723797
26,60,-0.0872665,-0.698132,-0.174533,-0.174533,-0.112461,-0.691845,-0.174209,-0.198661,5.03896,-0.352068,-0.00972161,0.723797
26,60,-0.0872665,-0.698132,-0.174533,-0.174533,-0.112461,-0.691845,-0.174209,-0.198661,5.03896,-0.352068,-0.00972161,0.723797
26,60,-0.0872665,-0.698132,-0.174533,-0.174533,-0.112461,-0.691845,-0.174209,-0.198661,5.03896,-0.352068,-0.00972161,0.723797
26,60,-0.0872665,-0.698132,-0.174533,-0.174533,-0.112461,-0.691845,-0.174209,-0.198661,5.03896,-0.352068,-0.00972161,0.723797
26,60,-0.0872665,-0.698132,-0.174533,-0.174533,-0.112461,-0.691845,-0.174209,-0.198661,5.03896,-0.352068,-0.00972161,0.723797
26,60,-0.0872665,-0.698132,-0.174533,-0.174533,-0.112461,-0.691845,-0.174209,-0.198661,5.03896,-0.352068,-0.00972161,0.723797
26,60,-0.0872665,-0.698132,-0.174533,-0.174533,-0.112461,-0.691845,-0.174209,-0.198661,5.03896,-0.352068,-0.00972161,0.723797
26,60,-0.0872665,-0.698132,-0.174533,-0.174533,-0.112461,-0.691845,-0.174209,-0.198661,5.03896,-0.352068,-0.00972161,0.723797
26,60,-0.0872665,-0.698132,-0.174533,-0.174533,-0.112461,-0.691845,-0.174209,-0.198661,5.03896,-0.352068,-0.00972161,0.723797
26,60,-0.0872665,-0.698132,-0.174533,-0.174533,-0.112461,-0.691845,-0.174209,-0.198661,5.03896,-0.352068,-0.00972161,0.723797
26,60,-0.0872665,-0.698132,-0.174533,-0.174533,-0.112461,-0.691845,-0.174209,-0.198661,5.03896,-0.352068,-0.00972161,0.723797
26,60,-0.0872665,-0.698132,-0.174533,-0.174533,-0.112461,-0.691845,-0.174209,-0.198661,5.03896,-0.352068,-0.00972161,0.723797
26,60,-0.0872665,-0.698132,-0.174533,-0.174533,-0.112461,-0.691845,-0.174209,-0.198661,5.03896,-0.352068,-0.00972161,0.723797
26,60,-0.0872665,-0.698132,-0.174533,-0.174533,-0.112461,-0.691845,-0.174209,-0.198661,5.03896,-0.352068,-0.00972161,0.723797
26,60,-0.0872665,-0.698132,-0.174533,-0.174533,-0.112461,-0.691845,-0.174209,-0.198661,5.03896,-0.352068,-0.00972161,0.723797
26,60,-0.0872665,-0.698132,-0.174533,-0.174533,-0.112461,-0.691845,-0.174209,-0.198661,5.03896,-0.352068,-0.00972161,0.723797
26,60,-0.0872665,-0.698132,-0.174533,-0.174533,-0.112461,-0.691845,-0.174209,-0.198661,5.03896,-0.352068,-0.00972161,0.723797
26,60,-0.0872665,-0.698132,-0.174533,-0.174533,-0.112461,-0.691845,-0.174209,-0.198661,5.03896,-0.352068,-0.00972161,0.723797
26,60,-0.0872665,-0.698132,-0.174533,-0.174533,-0.112461,-0.691845,-0.174209,-0.198661,5.03896,-0.352068,-0.00972161,0.723797
26,60,-0.0872665,-0.698132,-0.174533,-0.174533,-0.112461,-0.691845,-0.174209,-0.198661,5.03896,-0.352068,-0.00972161,0.723797
26,60,-0.0872665,-0.698132,-0.174533,-0.174533,-0.112461,-0.691845,-0.174209,-0.198661,5.03896,-0.352068,-0.00972161,0.723797
26,60,-0.0872665,-0.698132,-0.174533,-0.174533,-0.112461,-0.691845,-0.174209,-0.198661,5.03896,-0.352068,-0.00972161,0.723797
26,60,-0.0872665,-0.698132,-0.174533,-0.174533,-0.112461,-0.691845,-0.174209,-0.198661,5.03896,-0.352068,-0.00972161,0.723797
26,60,-0.0872665,-0.698132,-0.174533,-0.174533,-0.112461,-0.691845,-0.174209,-0.198661,5.03896,-0.352068,-0.00972161,0.723797
26,60,-0.0872665,-0.698132,-0.174533,-0.174533,-0.112461,-0.691845,-0.174209,-0.198661,5.03896,-0.352068,-0.00972161,0.723797
26,60,-0.0872665,-0.698132,-0.174533,-0.174533,-0.112461,-0.691845,-0.174209,-0.198661,5.03896,-0.352068,-0.00972161,0.723797
26,60,-0.0872665,-0.698132,-0.174533,-0.174533,-0.112461,-0.691845,-0.174271,-0.198642,5.03896,-0.352068,-0.00788458,0.723239
26,60,-0.0872665,-0.698132,-0.174533,-0.174533,-0.112461,-0.691845,-0.174271,-0.198642,5.03896,-0.352068,-0.00788458,0.723239
26,60,-0.0872665,-0.698132,-0.174533,-0.174533,-0.112461,-0.691845,-0.174271,-0.198642,5.03896,-0.352068,-0.00788458,0.723239
26,60,-0.0872665,-0.698132,-0.174533,-0.174533,-0.112461,-0.691845,-0.174271,-0.198642,5.03896,-0.352068,-0.00788458,0.723239
26,60,-0.0872665,-0.698132,-0.174533,-0.174533,-0.112461,-0.691845,-0.174271,-0.198642,5.03896,-0.352068,-0.00788458,0.723239
26,60,-0.0872665,-0.698132,-0.174533,-0.174533,-0.112461,-0.691845,-0.174271,-0.198642,5.03896,-0.352068,-0.00788458,0.723239
26,60,-0.0872665,-0.698132,-0.174533,-0.174533,-0.112461,-0.691845,-0.174271,-0.198642,5.03896,-0.352068,-0.00788458,0.723239
26,60,-0.0872665,-0.698132,-0.174533,-0.174533,-0.112461,-0.691845,-0.174271,-0.198642,5.03896,-0.352068,-0.00788458,0.723239
26,60,-0.0872665,-0.698132,-0.174533,-0.174533,-0.112461,-0.691845,-0.174271,-0.198642,5.03896,-0.352068,-0.00788458,0.723239
26,60,-0.0872665,-0.698132,-0.174533,-0.174533,-0.112461,-0.691845,-0.174271,-0.198642,5.03896,-0.352068,-0.00788458,0.723239
26,60,-0.0872665,-0.698132,-0.174533,-0.174533,-0.112461,-0.691845,-0.174271,-0.198642,5.03896,-0.352068,-0.00788458,0.723239
26,60,-0.0872665,-0.698132,-0.174533,-0.174533,-0.112461,-0.691845,-0.174271,-0.198642,5.03896,-0.352068,-0.00788458,0.723239
26,60,-0.0872665,-0.698132,-0.174533,-0.174533,-0.112461,-0.691845,-0.174271,-0.198642,5.03896,-0.352068,-0.00788458,0.723239
26,60,-0.0872665,-0.698132,-0.174533,-0.174533,-0.112461,-0.691845,-0.174271,-0.198642,5.03896,-0.352068,-0.00788458,0.723239
26,60,-0.0872665,-0.698132,-0.174533,-0.174533,-0.112461,-0.691845,-0.174271,-0.198642,5.03896,-0.352068,-0.00788458,0.723239
26,60,-0.0872665,-0.698132,-0.174533,-0.174533,-0.112461,-0.691845,-0.174271,-0.198642,5.03896,-0.352068,-0.00788458,0.723239
26,60,-0.0872665,-0.698132,-0.174533,-0.174533,-0.112461,-0.691845,-0.174271,-0.198642,5.03896,-0.352068,-0.00788458,0.723239
26,60,-0.0872665,-0.698132,-0.174533,-0.174533,-0.112461,-0.691845,-0.174271,-0.198642,5.03896,-0.352068,-0.00788458,0.723239
26,60,-0.0872665,-0.698132,-0.174533,-0.174533,-0.112461,-0.691845,-0.174271,-0.198642,5.03896,-0.352068,-0.00788458,0.723239
26,60,-0.0872665,-0.698132,-0.174533,-0.174533,-0.112461,-0.691845,-0.174271,-0.198642,5.03896,-0.352068,-0.00788458,0.723239
26,60,-0.0872665,-0.698132,-0.174533,-0.174533,-0.112461,-0.691845,-0.174271,-0.198642,5.03896,-0.352068,-0.00788458,0.723239
26,60,-0.0872665,-0.698132,-0.174533,-0.174533,-0.112461,-0.691845,-0.174271,-0.198642,5.03896,-0.352068,-0.00788458,0.723239
26,60,-0.0872665,-0.698132,-0.174533,-0.174533,-0.112461,-0.691845,-0.174271,-0.198642,5.03896,-0.352068,-0.00788458,0.723239
26,60,-0.0872665,-0.698132,-0.174533,-0.174533,-0.112461,-0.691845,-0.174271,-0.198642,5.03896,-0.352068,-0.00788458,0.723239
26,60,-0.0872665,-0.698132,-0.174533,-0.174533,-0.112461,-0.691845,-0.174271,-0.198642,5.03896,-0.352068,-0.00788458,0.723239
26,60,-0.0872665,-0.698132,-0.174533,-0.174533,-0.112461,-0.691845,-0.174271,-0.198642,5.03896,-0.352068,-0.00788458,0.723239
26,60,-0.0872665,-0.698132,-0.174533,-0.174533,-0.112461,-0.691845,-0.174202,-0.198599,5.03896,-0.352068,-0.00991857,0.721946
26,60,-0.0872665,-0.698132,-0.174533,-0.174533,-0.112461,-0.691845,-0.174202,-0.198599,5.03896,-0.352068,-0.00991857,0.721946
26,60,-0.0872665,-0.698132,-0.174533,-0.174533,-0.112461,-0.691845,-0.174202,-0.198599,5.03896,-0.352068,-0.00991857,0.721946
26,60,-0.0872665,-0.698132,-0.174533,-0.174533,-0.112461,-0.691845,-0.174202,-0.198599,5.03896,-0.352068,-0.00991857,0.721946
26,60,-0.0872665,-0.698132,-0.174533,-0.174533,-0.112461,-0.691845,-0.174202,-0.198599,5.03896,-0.352068,-0.00991857,0.721946
26,60,-0.0872665,-0.698132,-0.174533,-0.174533,-0.112461,-0.691845,-0.174202,-0.198599,5.03896,-0.352068,-0.00991857,0.721946
26,60,-0.0872665,-0.698132,-0.174533,-0.174533,-0.112461,-0.691845,-0.174202,-0.198599,5.03896,-0.352068,-0.00991857,0.721946
26,60,-0.0872665,-0.698132,-0.174533,-0.174533,-0.112461,-0.691845,-0.174202,-0.198599,5.03896,-0.352068,-0.00991857,0.721946
26,60,-0.0872665,-0.698132,-0.174533,-0.174533,-0.112461,-0.691845,-0.174202,-0.198599,5.03896,-0.352068,-0.00991857,0.721946
26,60,-0.0872665,-0.698132,-0.174533,-0.174533,-0.112461,-0.691845,-0.174202,-0.198599,5.03896,-0.352068,-0.00991857,0.721946
26,60,-0.0872665,-0.698132,-0.174533,-0.174533,-0.112461,-0.691845,-0.174202,-0.198599,5.03896,-0.352068,-0.00991857,0.721946
26,60,-0.0872665,-0.698132,-0.174533,-0.174533,-0.112461,-0.691845,-0.174202,-0.198599,5.03896,-0.352068,-0.00991857,0.721946
26,60,-0.0872665,-0.698132,-0.174533,-0.174533,-0.112461,-0.691845,-0.174202,-0.198599,5.03896,-0.352068,-0.00991857,0.721946
26,60,-0.0872665,-0.698132,-0.174533,-0.174533,-0.112461,-0.691845,-0.174202,-0.198599,5.03896,-0.352068,-0.00991857,0.721946
26,60,-0.0872665,-0.698132,-0.174533,-0.174533,-0.112461,-0.691845,-0.174202,-0.198599,5.03896,-0.352068,-0.00991857,0.721946
26,60,-0.0872665,-0.698132,-0.174533,-0.174533,-0.112461,-0.691845,-0.174202,-0.198599,5.03896,-0.352068,-0.00991857,0.721946
26,60,-0.0872665,-0.698132,-0.174533,-0.174533,-0.112461,-0.691845,-0.174202,-0.198599,5.03896,-0.352068,-0.00991857,0.721946
26,60,-0.0872665,-0.698132,-0.174533,-0.174533,-0.112461,-0.691845,-0.174202,-0.198599,5.03896,-0.352068,-0.00991857,0.721946
26,60,-0.0872665,-0.698132,-0.174533,-0.174533,-0.112461,-0.691845,-0.174202,-0.198599,5.03896,-0.352068,-0.00991857,0.721946
26,60,-0.0872665,-0.698132,-0.174533,-0.174533,-0.112461,-0.691845,-0.174202,-0.198599,5.03896,-0.352068,-0.00991857,0.721946
26,60,-0.0872665,-0.698132,-0.174533,-0.174533,-0.112461,-0.691845,-0.174202,-0.198599,5.03896,-0.352068,-0.00991857,0.721946
26,60,-0.0872665,-0.698132,-0.174533,-0.174533,-0.112461,-0.691845,-0.174202,-0.198599,5.03896,-0.352068,-0.00991857,0.721946
26,60,-0.0872665,-0.698132,-0.174533,-0.174533,-0.112461,-0.691845,-0.174202,-0.198599,5.03896,-0.352068,-0.00991857,0.721946
26,60,-0.0872665,-0.698132,-0.174533,-0.174533,-0.112461,-0.691845,-0.174202,-0.198599,5.03896,-0.352068,-0.00991857,0.721946
26,60,-0.0872665,-0.698132,-0.174533,-0.174533,-0.112461,-0.691845,-0.174202,-0.198599,5.03896,-0.352068,-0.00991857,0.721946
26,60,-0.0872665,-0.698132,-0.174533,-0.174533,-0.112461,-0.691845,-0.174202,-0.198599,5.03896,-0.352068,-0.00991857,0.721946
26,60,-0.0872665,-0.698132,-0.174533,-0.174533,-0.112461,-0.691845,-0.174202,-0.198599,5.03896,-0.352068,-0.00991857,0.721946
26,60,-0.0872665,-0.698132,-0.174533,-0.174533,-0.112461,-0.691845,-0.174202,-0.198599,5.03896,-0.352068,-0.00991857,0.721946
26,60,-0.0872665,-0.698132,-0.174533,-0.174533,-0.112461,-0.691845,-0.174202,-0.198599,5.03896,-0.352068,-0.00991857,0.721946
26,60,-0.0872665,-0.698132,-0.174533,-0.174533,-0.112461,-0.691845,-0.174202,-0.198599,5.03896,-0.352068,-0.00991857,0.721946
26,60,-0.0872665,-0.698132,-0.174533,-0.174533,-0.112461,-0.691845,-0.174202,-0.198599,5.03896,-0.352068,-0.00991857,0.721946
26,60,-0.0872665,-0.698132,-0.174533,-0.174533,-0.112461,-0.691845,-0.174202,-0.198599,5.03896,-0.352068,-0.00991857,0.721946
26,60,-0.0872665,-0.698132,-0.174533,-0.174533,-0.112461,-0.691845,-0.174202,-0.198599,5.03896,-0.352068,-0.00991857,0.721946
26,60,-0.0872665,-0.698132,-0.174533,-0.174533,-0.112461,-0.691845,-0.174202,-0.198599,5.03896,-0.352068,-0.00991857,0.721946
26,60,-0.0872665,-0.698132,-0.174533,-0.174533,-0.112461,-0.691845,-0.174202,-0.198599,5.03896,-0.352068,-0.00991857,0.721946
26,60,-0.0872665,-0.698132,-0.174533,-0.174533,-0.112461,-0.691845,-0.174202,-0.198599,5.03896,-0.352068,-0.00991857,0.721946
26,60,-0.0872665,-0.698132,-0.174533,-0.174533,-0.112461,-0.691845,-0.174202,-0.198599,5.03896,-0.352068,-0.00991857,0.721946
26,60,-0.0872665,-0.698132,-0.174533,-0.174533,-0.112461,-0.691845,-0.174202,-0.198599,5.03896,-0.352068,-0.00991857,0.721946
26,60,-0.0872665,-0.698132,-0.174533,-0.174533,-0.112461,-0.691845,-0.174202,-0.198599,5.03896,-0.352068,-0.00991857,0.721946
26,60,-0.0872665,-0.698132,-0.174533,-0.174533,-0.112461,-0.691845,-0.174202,-0.198599,5.03896,-0.352068,-0.00991857,0.721946
26,60,-0.0872665,-0.698132,-0.174533,-0.174533,-0.112461,-0.691845,-0.174202,-0.198599,5.03896,-0.352068,-0.00991857,0.721946
26,60,-0.0872665,-0.698132,-0.174533,-0.174533,-0.112461,-0.691845,-0.174202,-0.198599,5.03896,-0.352068,-0.00991857,0.721946
26,60,-0.0872665,-0.698132,-0.174533,-0.174533,-0.112461,-0.691845,-0.174202,-0.198599,5.03896,-0.352068,-0.00991857,0.721946
26,60,-0.0872665,-0.698132,-0.174533,-0.174533,-0.112461,-0.691845,-0.174202,-0.198599,5.03896,-0.352068,-0.00991857,0.721946
26,60,-0.0872665,-0.698132,-0.174533,-0.174533,-0.112461,-0.691845,-0.174202,-0.198599,5.03896,-0.352068,-0.00991857,0.721946
26,60,-0.0872665,-0.698132,-0.174533,-0.174533,-0.112461,-0.691845,-0.174202,-0.198599,5.03896,-0.352068,-0.00991857,0.721946
26,60,-0.0872665,-0.698132,-0.174533,-0.174533,-0.112461,-0.691845,-0.174202,-0.198599,5.03896,-0.352068,-0.00991857,0.721946
26,60,-0.0872665,-0.698132,-0.174533,-0.174533,-0.112461,-0.691845,-0.174202,-0.198599,5.03896,-0.352068,-0.00991857,0.721946
26,60,-0.0872665,-0.698132,-0.174533,-0.174533,-0.112461,-0.691845,-0.174202,-0.198599,5.03896,-0.352068,-0.00991857,0.721946
26,60,-0.0872665,-0.698132,-0.174533,-0.174533,-0.112461,-0.691845,-0.174202,-0.198599,5.03896,-0.352068,-0.00991857,0.721946
26,60,-0.0872665,-0.698132,-0.174533,-0.174533,-0.112461,-0.691845,-0.174202,-0.198599,5.03896,-0.352068,-0.00991857,0.721946
26,60,-0.0872665,-0.698132,-0.174533,-0.174533,-0.112461,-0.691845,-0.174202,-0.198599,5.03896,-0.352068,-0.00991857,0.721946
26,60,-0.0872665,-0.698132,-0.174533,-0.174533,-0.112461,-0.691845,-0.174202,-0.198599,5.03896,-0.352068,-0.00991857,0.721946
26,60,-0.0872665,-0.698132,-0.174533,-0.174533,-0.112461,-0.691845,-0.174202,-0.198599,5.03896,-0.352068,-0.00991857,0.721946
26,60,-0.0872665,-0.698132,-0.174533,-0.174533,-0.112461,-0.691845,-0.174202,-0.198599,5.03896,-0.352068,-0.00991857,0.721946
26,60,-0.0872665,-0.698132,-0.174533,-0.174533,-0.112461,-0.691845,-0.174202,-0.198599,5.03896,-0.352068,-0.00991857,0.721946
26,60,-0.0872665,-0.698132,-0.174533,-0.174533,-0.112461,-0.691845,-0.174202,-0.198599,5.03896,-0.352068,-0.00991857,0.721946
26,60,-0.0872665,-0.698132,-0.174533,-0.174533,-0.112461,-0.691845,-0.174202,-0.198599,5.03896,-0.352068,-0.00991857,0.721946
26,60,-0.0872665,-0.698132,-0.174533,-0.174533,-0.112461,-0.691845,-0.174202,-0.198599,5.03896,-0.352068,-0.00991857,0.721946
26,60,-0.0872665,-0.698132,-0.174533,-0.174533,-0.112461,-0.691845,-0.174202,-0.198599,5.03896,-0.352068,-0.00991857,0.721946
26,60,-0.0872665,-0.698132,-0.174533,-0.174533,-0.112461,-0.691845,-0.174202,-0.198599,5.03896,-0.352068,-0.00991857,0.721946
26,60,-0.0872665,-0.698132,-0.174533,-0.174533,-0.112461,-0.691845,-0.174202,-0.198599,5.03896,-0.352068,-0.00991857,0.721946
26,60,-0.0872665,-0.698132,-0.174533,-0.174533,-0.112461,-0.691845,-0.174202,-0.198599,5.03896,-0.352068,-0.00991857,0.721946
26,60,-0.0872665,-0.698132,-0.174533,-0.174533,-0.112461,-0.691845,-0.174202,-0.198599,5.03896,-0.352068,-0.00991857,0.721946
26,60,-0.0872665,-0.698132,-0.174533,-0.174533,-0.112461,-0.691845,-0.174264,-0.19858,5.03896,-0.352068,-0.00808222,0.721387
26,60,-0.0872665,-0.698132,-0.174533,-0.174533,-0.112461,-0.691845,-0.174264,-0.19858,5.03896,-0.352068,-0.00808222,0.721387
26,60,-0.0872665,-0.698132,-0.174533,-0.174533,-0.112461,-0.691845,-0.174264,-0.19858,5.03896,-0.352068,-0.00808222,0.721387
26,60,-0.0872665,-0.698132,-0.174533,-0.174533,-0.112461,-0.691845,-0.174264,-0.19858,5.03896,-0.352068,-0.00808222,0.721387
26,60,-0.0872665,-0.698132,-0.174533,-0.174533,-0.112461,-0.691845,-0.174264,-0.19858,5.03896,-0.352068,-0.00808222,0.721387
26,60,-0.0872665,-0.698132,-0.174533,-0.174533,-0.112461,-0.691845,-0.174264,-0.19858,5.03896,-0.352068,-0.00808222,0.721387
26,60,-0.0872665,-0.698132,-0.174533,-0.174533,-0.112461,-0.691845,-0.174264,-0.19858,5.03896,-0.352068,-0.00808222,0.721387
26,60,-0.0872665,-0.698132,-0.174533,-0.174533,-0.112461,-0.691845,-0.174264,-0.19858,5.03896,-0.352068,-0.00808222,0.721387
26,60,-0.0872665,-0.698132,-0.174533,-0.174533,-0.112461,-0.691845,-0.174264,-0.19858,5.03896,-0.352068,-0.00808222,0.721387
26,60,-0.0872665,-0.698132,-0.174533,-0.174533,-0.112461,-0.691845,-0.174264,-0.19858,5.03896,-0.352068,-0.00808222,0.721387
26,60,-0.0872665,-0.698132,-0.174533,-0.174533,-0.112461,-0.691845,-0.174264,-0.19858,5.03896,-0.352068,-0.00808222,0.721387
26,60,-0.0872665,-0.698132,-0.174533,-0.174533,-0.112461,-0.691845,-0.174264,-0.19858,5.03896,-0.352068,-0.00808222,0.721387
26,60,-0.0872665,-0.698132,-0.174533,-0.174533,-0.112461,-0.691845,-0.174264,-0.19858,5.03896,-0.352068,-0.00808222,0.721387
26,60,-0.0872665,-0.698132,-0.174533,-0.174533,-0.112461,-0.691845,-0.174264,-0.19858,5.03896,-0.352068,-0.00808222,0.721387
26,60,-0.0872665,-0.698132,-0.174533,-0.174533,-0.112461,-0.691845,-0.174264,-0.19858,5.03896,-0.352068,-0.00808222,0.721387
26,60,-0.0872665,-0.698132,-0.174533,-0.174533,-0.112461,-0.691845,-0.174264,-0.19858,5.03896,-0.352068,-0.00808222,0.721387
26,60,-0.0872665,-0.698132,-0.174533,-0.174533,-0.112461,-0.691845,-0.174264,-0.19858,5.03896,-0.352068,-0.00808222,0.721387
26,60,-0.0872665,-0.698132,-0.174533,-0.174533,-0.112461,-0.691845,-0.174264,-0.19858,5.03896,-0.352068,-0.00808222,0.721387
26,60,-0.0872665,-0.698132,-0.174533,-0.174533,-0.112461,-0.691845,-0.174264,-0.19858,5.03896,-0.352068,-0.00808222,0.721387
26,60,-0.0872665,-0.698132,-0.174533,-0.174533,-0.112461,-0.691845,-0.174264,-0.19858,5.03896,-0.352068,-0.00808222,0.721387
26,60,-0.0872665,-0.698132,-0.174533,-0.174533,-0.112461,-0.691845,-0.174264,-0.19858,5.03896,-0.352068,-0.00808222,0.721387
26,60,-0.0872665,-0.698132,-0.174533,-0.174533,-0.112461,-0.691845,-0.174264,-0.19858,5.03896,-0.352068,-0.00808222,0.721387
26,60,-0.0872665,-0.698132,-0.174533,-0.174533,-0.112461,-0.691845,-0.174264,-0.19858,5.03896,-0.352068,-0.00808222,0.721387
26,60,-0.0872665,-0.698132,-0.174533,-0.174533,-0.112461,-0.691845,-0.174264,-0.19858,5.03896,-0.352068,-0.00808222,0.721387
26,60,-0.0872665,-0.698132,-0.174533,-0.174533,-0.112461,-0.691845,-0.174264,-0.19858,5.03896,-0.352068,-0.00808222,0.721387
26,60,-0.0872665,-0.698132,-0.174533,-0.174533,-0.112461,-0.691845,-0.174264,-0.19858,5.03896,-0.352068,-0.00808222,0.721387
26,60,-0.0872665,-0.698132,-0.174533,-0.174533,-0.112461,-0.691845,-0.174264,-0.19858,5.03896,-0.352068,-0.00808222,0.721387
26,60,-0.0872665,-0.698132,-0.174533,-0.174533,-0.112461,-0.691845,-0.174264,-0.19858,5.03896,-0.352068,-0.00808222,0.721387
26,60,-0.0872665,-0.698132,-0.174533,-0.174533,-0.112461,-0.691845,-0.174264,-0.19858,5.03896,-0.352068,-0.00808222,0.721387
26,60,-0.0872665,-0.698132,-0.174533,-0.174533,-0.112461,-0.691845,-0.174264,-0.19858,5.03896,-0.352068,-0.00808222,0.721387
26,60,-0.0872665,-0.698132,-0.174533,-0.174533,-0.112461,-0.691845,-0.174264,-0.19858,5.03896,-0.352068,-0.00808222,0.721387
26,60,-0.0872665,-0.698132,-0.174533,-0.174533,-0.112461,-0.691845,-0.174264,-0.19858,5.03896,-0.352068,-0.00808222,0.721387
26,60,-0.0872665,-0.698132,-0.174533,-0.174533,-0.112461,-0.691845,-0.174264,-0.19858,5.03896,-0.352068,-0.00808222,0.721387
26,60,-0.0872665,-0.698132,-0.174533,-0.174533,-0.112461,-0.691845,-0.174264,-0.19858,5.03896,-0.352068,-0.00808222,0.721387
26,60,-0.0872665,-0.698132,-0.174533,-0.174533,-0.112461,-0.691845,-0.174264,-0.19858,5.03896,-0.352068,-0.00808222,0.721387
26,60,-0.0872665,-0.698132,-0.174533,-0.174533,-0.112461,-0.691845,-0.174264,-0.19858,5.03896,-0.352068,-0.00808222,0.721387
26,60,-0.0872665,-0.698132,-0.174533,-0.174533,-0.112461,-0.691845,-0.174264,-0.19858,5.03896,-0.352068,-0.00808222,0.721387
26,60,-0.0872665,-0.698132,-0.174533,-0.174533,-0.112461,-0.691845,-0.174264,-0.19858,5.03896,-0.352068,-0.00808222,0.721387
26,60,-0.0872665,-0.698132,-0.174533,-0.174533,-0.112461,-0.691845,-0.174264,-0.19858,5.03896,-0.352068,-0.00808222,0.721387
26,60,-0.0872665,-0.698132,-0.174533,-0.174533,-0.112461,-0.691845,-0.174264,-0.19858,5.03896,-0.352068,-0.00808222,0.721387
26,60,-0.0872665,-0.698132,-0.174533,-0.174533,-0.112461,-0.691845,-0.174264,-0.19858,5.03896,-0.352068,-0.00808222,0.721387
26,60,-0.0872665,-0.698132,-0.174533,-0.174533,-0.112461,-0.691845,-0.174264,-0.19858,5.03896,-0.352068,-0.00808222,0.721387
26,60,-0.0872665,-0.698132,-0.174533,-0.174533,-0.112461,-0.691845,-0.174264,-0.19858,5.03896,-0.352068,-0.00808222,0.721387
26,60,-0.0872665,-0.698132,-0.174533,-0.174533,-0.112461,-0.691845,-0.174264,-0.19858,5.03896,-0.352068,-0.00808222,0.721387
26,60,-0.0872665,-0.698132,-0.174533,-0.174533,-0.112461,-0.691845,-0.174264,-0.19858,5.03896,-0.352068,-0.00808222,0.721387
26,60,-0.0872665,-0.698132,-0.174533,-0.174533,-0.112461,-0.691845,-0.174264,-0.19858,5.03896,-0.352068,-0.00808222,0.721387
26,60,-0.0872665,-0.698132,-0.174533,-0.174533,-0.112461,-0.691845,-0.174264,-0.19858,5.03896,-0.352068,-0.00808222,0.721387
26,60,-0.0872665,-0.698132,-0.174533,-0.174533,-0.112461,-0.691845,-0.174264,-0.19858,5.03896,-0.352068,-0.00808222,0.721387
26,60,-0.0872665,-0.698132,-0.174533,-0.174533,-0.112461,-0.691845,-0.174264,-0.19858,5.03896,-0.352068,-0.00808222,0.721387
26,60,-0.0872665,-0.698132,-0.174533,-0.174533,-0.112461,-0.691845,-0.174264,-0.19858,5.03896,-0.352068,-0.00808222,0.721387
26,60,-0.0872665,-0.698132,-0.174533,-0.174533,-0.112461,-0.691845,-0.174264,-0.19858,5.03896,-0.352068,-0.00808222,0.721387
26,60,-0.0872665,-0.698132,-0.174533,-0.174533,-0.112461,-0.691845,-0.174264,-0.19858,5.03896,-0.352068,-0.00808222,0.721387
26,60,-0.0872665,-0.698132,-0.174533,-0.174533,-0.112461,-0.691845,-0.174264,-0.19858,5.03896,-0.352068,-0.00808222,0.721387
26,60,-0.0872665,-0.698132,-0.174533,-0.174533,-0.112461,-0.691845,-0.174267,-0.19864,5.03896,-0.352068,-0.00796776,0.723191
26,60,-0.0872665,-0.698132,-0.174533,-0.174533,-0.112461,-0.691845,-0.174267,-0.19864,5.03896,-0.352068,-0.00796776,0.723191
26,60,-0.0872665,-0.698132,-0.174533,-0.174533,-0.112461,-0.691845,-0.174267,-0.19864,5.03896,-0.352068,-0.00796776,0.723191
26,60,-0.0872665,-0.698132,-0.174533,-0.174533,-0.112461,-0.691845,-0.174267,-0.19864,5.03896,-0.352068,-0.00796776,0.723191
26,60,-0.0872665,-0.698132,-0.174533,-0.174533,-0.112461,-0.691845,-0.174267,-0.19864,5.03896,-0.352068,-0.00796776,0.723191
26,60,-0.0872665,-0.698132,-0.174533,-0.174533,-0.112461,-0.691845,-0.174267,-0.19864,5.03896,-0.352068,-0.00796776,0.723191
26,60,-0.0872665,-0.698132,-0.174533,-0.174533,-0.112461,-0.691845,-0.174267,-0.19864,5.03896,-0.352068,-0.00796776,0.723191
26,60,-0.0872665,-0.698132,-0.174533,-0.174533,-0.112461,-0.691845,-0.174267,-0.19864,5.03896,-0.352068,-0.00796776,0.723191
26,60,-0.0872665,-0.698132,-0.174533,-0.174533,-0.112461,-0.691845,-0.174267,-0.19864,5.03896,-0.352068,-0.00796776,0.723191
26,60,-0.0872665,-0.698132,-0.174533,-0.174533,-0.112461,-0.691845,-0.174267,-0.19864,5.03896,-0.352068,-0.00796776,0.723191
26,60,-0.0872665,-0.698132,-0.174533,-0.174533,-0.112461,-0.691845,-0.174267,-0.19864,5.03896,-0.352068,-0.00796776,0.723191
26,60,-0.0872665,-0.698132,-0.174533,-0.174533,-0.112461,-0.691845,-0.174267,-0.19864,5.03896,-0.352068,-0.00796776,0.723191
26,60,-0.0872665,-0.698132,-0.174533,-0.174533,-0.112461,-0.691845,-0.174267,-0.19864,5.03896,-0.352068,-0.00796776,0.723191
26,60,-0.0872665,-0.698132,-0.174533,-0.174533,-0.112461,-0.691845,-0.174267,-0.19864,5.03896,-0.352068,-0.00796776,0.723191
26,60,-0.0872665,-0.698132,-0.174533,-0.174533,-0.112461,-0.691845,-0.174267,-0.19864,5.03896,-0.352068,-0.00796776,0.723191
26,60,-0.0872665,-0.698132,-0.174533,-0.174533,-0.112461,-0.691845,-0.174267,-0.19864,5.03896,-0.352068,-0.00796776,0.723191
26,60,-0.0872665,-0.698132,-0.174533,-0.174533,-0.112461,-0.691845,-0.174267,-0.19864,5.03896,-0.352068,-0.00796776,0.723191
26,60,-0.0872665,-0.698132,-0.174533,-0.174533,-0.112461,-0.691845,-0.174267,-0.19864,5.03896,-0.352068,-0.00796776,0.723191
26,60,-0.0872665,-0.698132,-0.174533,-0.174533,-0.112461,-0.691845,-0.174329,-0.198621,5.03896,-0.352068,-0.00613133,0.722633
26,60,-0.0872665,-0.698132,-0.174533,-0.174533,-0.112461,-0.691845,-0.174329,-0.198621,5.03896,-0.352068,-0.00613133,0.722633
26,60,-0.0872665,-0.698132,-0.174533,-0.174533,-0.112461,-0.691845,-0.174329,-0.198621,5.03896,-0.352068,-0.00613133,0.722633
26,60,-0.0872665,-0.698132,-0.174533,-0.174533,-0.112461,-0.691845,-0.174329,-0.198621,5.03896,-0.352068,-0.00613133,0.722633
26,60,-0.0872665,-0.698132,-0.174533,-0.174533,-0.112461,-0.691845,-0.174329,-0.198621,5.03896,-0.352068,-0.00613133,0.722633
26,60,-0.0872665,-0.698132,-0.174533,-0.174533,-0.112461,-0.691845,-0.174329,-0.198621,5.03896,-0.352068,-0.00613133,0.722633
26,60,-0.0872665,-0.698132,-0.174533,-0.174533,-0.112461,-0.691845,-0.174329,-0.198621,5.03896,-0.352068,-0.00613133,0.722633
26,60,-0.0872665,-0.698132,-0.174533,-0.174533,-0.112461,-0.691845,-0.174329,-0.198621,5.03896,-0.352068,-0.00613133,0.722633
26,60,-0.0872665,-0.698132,-0.174533,-0.174533,-0.112461,-0.691845,-0.174329,-0.198621,5.03896,-0.352068,-0.00613133,0.722633
26,60,-0.0872665,-0.698132,-0.174533,-0.174533,-0.112461,-0.691845,-0.174329,-0.198621,5.03896,-0.352068,-0.00613133,0.722633
26,60,-0.0872665,-0.698132,-0.174533,-0.174533,-0.112461,-0.691845,-0.174329,-0.198621,5.03896,-0.352068,-0.00613133,0.722633
26,60,-0.0872665,-0.698132,-0.174533,-0.174533,-0.112461,-0.691845,-0.174329,-0.198621,5.03896,-0.352068,-0.00613133,0.722633
26,60,-0.0872665,-0.698132,-0.174533,-0.174533,-0.112461,-0.691845,-0.174329,-0.198621,5.03896,-0.352068,-0.00613133,0.722633
26,60,-0.0872665,-0.698132,-0.174533,-0.174533,-0.112461,-0.691845,-0.174329,-0.198621,5.03896,-0.352068,-0.00613133,0.722633
26,60,-0.0872665,-0.698132,-0.174533,-0.174533,-0.112461,-0.691845,-0.174329,-0.198621,5.03896,-0.352068,-0.00613133,0.722633
26,60,-0.0872665,-0.698132,-0.174533,-0.174533,-0.112461,-0.691845,-0.174329,-0.198621,5.03896,-0.352068,-0.00613133,0.722633
26,60,-0.0872665,-0.698132,-0.174533,-0.174533,-0.112461,-0.691845,-0.174329,-0.198621,5.03896,-0.352068,-0.00613133,0.722633
26,60,-0.0872665,-0.698132,-0.174533,-0.174533,-0.112461,-0.691845,-0.174329,-0.198621,5.03896,-0.352068,-0.00613133,0.722633
26,60,-0.0872665,-0.698132,-0.174533,-0.174533,-0.112461,-0.691845,-0.174329,-0.198621,5.03896,-0.352068,-0.00613133,0.722633
26,60,-0.0872665,-0.698132,-0.174533,-0.174533,-0.112461,-0.691845,-0.174329,-0.198621,5.03896,-0.352068,-0.00613133,0.722633
26,60,-0.0872665,-0.698132,-0.174533,-0.174533,-0.112461,-0.691845,-0.174329,-0.198621,5.03896,-0.352068,-0.00613133,0.722633
26,60,-0.0872665,-0.698132,-0.174533,-0.174533,-0.112461,-0.691845,-0.174329,-0.198621,5.03896,-0.352068,-0.00613133,0.722633
26,60,-0.0872665,-0.698132,-0.174533,-0.174533,-0.112461,-0.691845,-0.174329,-0.198621,5.03896,-0.352068,-0.00613133,0.722633
26,60,-0.0872665,-0.698132,-0.174533,-0.174533,-0.112461,-0.691845,-0.174329,-0.198621,5.03896,-0.352068,-0.00613133,0.722633
26,60,-0.0872665,-0.698132,-0.174533,-0.174533,-0.112461,-0.691845,-0.174329,-0.198621,5.03896,-0.352068,-0.00613133,0.722633
26,60,-0.0872665,-0.698132,-0.174533,-0.174533,-0.112461,-0.691845,-0.174329,-0.198621,5.03896,-0.352068,-0.00613133,0.722633
26,60,-0.0872665,-0.698132,-0.174533,-0.174533,-0.112461,-0.691845,-0.174329,-0.198621,5.03896,-0.352068,-0.00613133,0.722633
26,60,-0.0872665,-0.698132,-0.174533,-0.174533,-0.112461,-0.691845,-0.174329,-0.198621,5.03896,-0.352068,-0.00613133,0.722633
26,60,-0.0872665,-0.698132,-0.174533,-0.174533,-0.112461,-0.691845,-0.174329,-0.198621,5.03896,-0.352068,-0.00613133,0.722633
26,60,-0.0872665,-0.698132,-0.174533,-0.174533,-0.112461,-0.691845,-0.174329,-0.198621,5.03896,-0.352068,-0.00613133,0.722633
26,60,-0.0872665,-0.698132,-0.174533,-0.174533,-0.112461,-0.691845,-0.174329,-0.198621,5.03896,-0.352068,-0.00613133,0.722633
26,60,-0.0872665,-0.698132,-0.174533,-0.174533,-0.112461,-0.691845,-0.174329,-0.198621,5.03896,-0.352068,-0.00613133,0.722633
26,60,-0.0872665,-0.698132,-0.174533,-0.174533,-0.112461,-0.691845,-0.174329,-0.198621,5.03896,-0.352068,-0.00613133,0.722633
26,60,-0.0872665,-0.698132,-0.174533,-0.174533,-0.112461,-0.691845,-0.174329,-0.198621,5.03896,-0.352068,-0.00613133,0.722633
26,60,-0.0872665,-0.698132,-0.174533,-0.174533,-0.112461,-0.691845,-0.174329,-0.198621,5.03896,-0.352068,-0.00613133,0.722633
26,60,-0.0872665,-0.698132,-0.174533,-0.174533,-0.112461,-0.691845,-0.174329,-0.198621,5.03896,-0.352068,-0.00613133,0.722633
26,60,-0.0872665,-0.698132,-0.174533,-0.174533,-0.112461,-0.691845,-0.174329,-0.198621,5.03896,-0.352068,-0.00613133,0.722633
26,60,-0.0872665,-0.698132,-0.174533,-0.174533,-0.112461,-0.691845,-0.174329,-0.198621,5.03896,-0.352068,-0.00613133,0.722633
26,60,-0.0872665,-0.698132,-0.174533,-0.174533,-0.112461,-0.691845,-0.174329,-0.198621,5.03896,-0.352068,-0.00613133,0.722633
26,60,-0.0872665,-0.698132,-0.174533,-0.174533,-0.112461,-0.691845,-0.174329,-0.198621,5.03896,-0.352068,-0.00613133,0.722633
26,60,-0.0872665,-0.698132,-0.174533,-0.174533,-0.112461,-0.691845,-0.174329,-0.198621,5.03896,-0.352068,-0.00613133,0.722633
26,60,-0.0872665,-0.698132,-0.174533,-0.174533,-0.112461,-0.691845,-0.174329,-0.198621,5.03896,-0.352068,-0.00613133,0.722633
26,60,-0.0872665,-0.698132,-0.174533,-0.174533,-0.112461,-0.691845,-0.174329,-0.198621,5.03896,-0.352068,-0.00613133,0.722633
26,60,-0.0872665,-0.698132,-0.174533,-0.174533,-0.112461,-0.691845,-0.174329,-0.198621,5.03896,-0.352068,-0.00613133,0.722633
26,60,-0.0872665,-0.698132,-0.174533,-0.174533,-0.112461,-0.691845,-0.174329,-0.198621,5.03896,-0.352068,-0.00613133,0.722633
26,60,-0.0872665,-0.698132,-0.174533,-0.174533,-0.112461,-0.691845,-0.174329,-0.198621,5.03896,-0.352068,-0.00613133,0.722633
26,60,-0.0872665,-0.698132,-0.174533,-0.174533,-0.112461,-0.691845,-0.174329,-0.198621,5.03896,-0.352068,-0.00613133,0.722633
26,60,-0.0872665,-0.698132,-0.174533,-0.174533,-0.112461,-0.691845,-0.174329,-0.198621,5.03896,-0.352068,-0.00613133,0.722633
26,60,-0.0872665,-0.698132,-0.174533,-0.174533,-0.112461,-0.691845,-0.174329,-0.198621,5.03896,-0.352068,-0.00613133,0.722633
26,60,-0.0872665,-0.698132,-0.174533,-0.174533,-0.112461,-0.691845,-0.174329,-0.198621,5.03896,-0.352068,-0.00613133,0.722633
26,60,-0.0872665,-0.698132,-0.174533,-0.174533,-0.112461,-0.691845,-0.174329,-0.198621,5.03896,-0.352068,-0.00613133,0.722633
26,60,-0.0872665,-0.698132,-0.174533,-0.174533,-0.112461,-0.691845,-0.174329,-0.198621,5.03896,-0.352068,-0.00613133,0.722633
26,60,-0.0872665,-0.698132,-0.174533,-0.174533,-0.112461,-0.691845,-0.174329,-0.198621,5.03896,-0.352068,-0.00613133,0.722633
26,60,-0.0872665,-0.698132,-0.174533,-0.174533,-0.112461,-0.691845,-0.174329,-0.198621,5.03896,-0.352068,-0.00613133,0.722633
26,60,-0.0872665,-0.698132,-0.174533,-0.174533,-0.112461,-0.691845,-0.174329,-0.198621,5.03896,-0.352068,-0.00613133,0.722633
26,60,-0.0872665,-0.698132,-0.174533,-0.174533,-0.112461,-0.691845,-0.174329,-0.198621,5.03896,-0.352068,-0.00613133,0.722633
26,60,-0.0872665,-0.698132,-0.174533,-0.174533,-0.112461,-0.691845,-0.174329,-0.198621,5.03896,-0.352068,-0.00613133,0.722633
26,60,-0.0872665,-0.698132,-0.174533,-0.174533,-0.112461,-0.691845,-0.174329,-0.198621,5.03896,-0.352068,-0.00613133,0.722633
26,60,-0.0872665,-0.698132,-0.174533,-0.174533,-0.112461,-0.691845,-0.174329,-0.198621,5.03896,-0.352068,-0.00613133,0.722633
26,60,-0.0872665,-0.698132,-0.174533,-0.174533,-0.112461,-0.691845,-0.174329,-0.198621,5.03896,-0.352068,-0.00613133,0.722633
26,60,-0.0872665,-0.698132,-0.174533,-0.174533,-0.112461,-0.691845,-0.174329,-0.198621,5.03896,-0.352068,-0.00613133,0.722633
26,60,-0.0872665,-0.698132,-0.174533,-0.174533,-0.112461,-0.691845,-0.17439,-0.198602,5.03896,-0.352068,-0.00429345,0.722074
26,60,-0.0872665,-0.698132,-0.174533,-0.174533,-0.112461,-0.691845,-0.17439,-0.198602,5.03896,-0.352068,-0.00429345,0.722074
26,60,-0.0872665,-0.698132,-0.174533,-0.174533,-0.112461,-0.691845,-0.17439,-0.198602,5.03896,-0.352068,-0.00429345,0.722074
26,60,-0.0872665,-0.698132,-0.174533,-0.174533,-0.112461,-0.691845,-0.17439,-0.198602,5.03896,-0.352068,-0.00429345,0.722074
26,60,-0.0872665,-0.698132,-0.174533,-0.174533,-0.112461,-0.691845,-0.17439,-0.198602,5.03896,-0.352068,-0.00429345,0.722074
26,60,-0.0872665,-0.698132,-0.174533,-0.174533,-0.112461,-0.691845,-0.174322,-0.198559,5.03896,-0.352068,-0.00633713,0.720775
26,60,-0.0872665,-0.698132,-0.174533,-0.174533,-0.112461,-0.691845,-0.174322,-0.198559,5.03896,-0.352068,-0.00633713,0.720775
26,60,-0.0872665,-0.698132,-0.174533,-0.174533,-0.112461,-0.691845,-0.174322,-0.198559,5.03896,-0.352068,-0.00633713,0.720775
26,60,-0.0872665,-0.698132,-0.174533,-0.174533,-0.112461,-0.691845,-0.174322,-0.198559,5.03896,-0.352068,-0.00633713,0.720775
26,60,-0.0872665,-0.698132,-0.174533,-0.174533,-0.112461,-0.691845,-0.174322,-0.198559,5.03896,-0.352068,-0.00633713,0.720775
26,60,-0.0872665,-0.698132,-0.174533,-0.174533,-0.112461,-0.691845,-0.174322,-0.198559,5.03896,-0.352068,-0.00633713,0.720775
26,60,-0.0872665,-0.698132,-0.174533,-0.174533,-0.112461,-0.691845,-0.174322,-0.198559,5.03896,-0.352068,-0.00633713,0.720775
26,60,-0.0872665,-0.698132,-0.174533,-0.174533,-0.112461,-0.691845,-0.174322,-0.198559,5.03896,-0.352068,-0.00633713,0.720775
26,60,-0.0872665,-0.698132,-0.174533,-0.174533,-0.112461,-0.691845,-0.174322,-0.198559,5.03896,-0.352068,-0.00633713,0.720775
26,60,-0.0872665,-0.698132,-0.174533,-0.174533,-0.112461,-0.691845,-0.174322,-0.198559,5.03896,-0.352068,-0.00633713,0.720775
26,60,-0.0872665,-0.698132,-0.174533,-0.174533,-0.112461,-0.691845,-0.174322,-0.198559,5.03896,-0.352068,-0.00633713,0.720775
26,60,-0.0872665,-0.698132,-0.174533,-0.174533,-0.112461,-0.691845,-0.174322,-0.198559,5.03896,-0.352068,-0.00633713,0.720775
26,60,-0.0872665,-0.698132,-0.174533,-0.174533,-0.112461,-0.691845,-0.174322,-0.198559,5.03896,-0.352068,-0.00633713,0.720775
26,60,-0.0872665,-0.698132,-0.174533,-0.174533,-0.112461,-0.691845,-0.174322,-0.198559,5.03896,-0.352068,-0.00633713,0.720775
26,60,-0.0872665,-0.698132,-0.174533,-0.174533,-0.112461,-0.691845,-0.174322,-0.198559,5.03896,-0.352068,-0.00633713,0.720775
26,60,-0.0872665,-0.698132,-0.174533,-0.174533,-0.112461,-0.691845,-0.174322,-0.198559,5.03896,-0.352068,-0.00633713,0.720775
26,60,-0.0872665,-0.698132,-0.174533,-0.174533,-0.112461,-0.691845,-0.174322,-0.198559,5.03896,-0.352068,-0.00633713,0.720775
26,60,-0.0872665,-0.698132,-0.174533,-0.174533,-0.112461,-0.691845,-0.174322,-0.198559,5.03896,-0.352068,-0.00633713,0.720775
26,60,-0.0872665,-0.698132,-0.174533,-0.174533,-0.112461,-0.691845,-0.174322,-0.198559,5.03896,-0.352068,-0.00633713,0.720775
26,60,-0.0872665,-0.698132,-0.174533,-0.174533,-0.112461,-0.691845,-0.174322,-0.198559,5.03896,-0.352068,-0.00633713,0.720775
26,60,-0.0872665,-0.698132,-0.174533,-0.174533,-0.112461,-0.691845,-0.174322,-0.198559,5.03896,-0.352068,-0.00633713,0.720775
26,60,-0.0872665,-0.698132,-0.174533,-0.174533,-0.112461,-0.691845,-0.174322,-0.198559,5.03896,-0.352068,-0.00633713,0.720775
26,60,-0.0872665,-0.698132,-0.174533,-0.174533,-0.112461,-0.691845,-0.174322,-0.198559,5.03896,-0.352068,-0.00633713,0.720775
26,60,-0.0872665,-0.698132,-0.174533,-0.174533,-0.112461,-0.691845,-0.174322,-0.198559,5.03896,-0.352068,-0.00633713,0.720775
26,60,-0.0872665,-0.698132,-0.174533,-0.174533,-0.112461,-0.691845,-0.174322,-0.198559,5.03896,-0.352068,-0.00633713,0.720775
26,60,-0.0872665,-0.698132,-0.174533,-0.174533,-0.112461,-0.691845,-0.174322,-0.198559,5.03896,-0.352068,-0.00633713,0.720775
26,60,-0.0872665,-0.698132,-0.174533,-0.174533,-0.112461,-0.691845,-0.174322,-0.198559,5.03896,-0.352068,-0.00633713,0.720775
26,60,-0.0872665,-0.698132,-0.174533,-0.174533,-0.112461,-0.691845,-0.174322,-0.198559,5.03896,-0.352068,-0.00633713,0.720775
26,60,-0.0872665,-0.698132,-0.174533,-0.174533,-0.112461,-0.691845,-0.174322,-0.198559,5.03896,-0.352068,-0.00633713,0.720775
26,60,-0.0872665,-0.698132,-0.174533,-0.174533,-0.112461,-0.691845,-0.174322,-0.198559,5.03896,-0.352068,-0.00633713,0.720775
26,60,-0.0872665,-0.698132,-0.174533,-0.174533,-0.112461,-0.691845,-0.174322,-0.198559,5.03896,-0.352068,-0.00633713,0.720775
26,60,-0.0872665,-0.698132,-0.174533,-0.174533,-0.112461,-0.691845,-0.174322,-0.198559,5.03896,-0.352068,-0.00633713,0.720775
26,60,-0.0872665,-0.698132,-0.174533,-0.174533,-0.112461,-0.691845,-0.174322,-0.198559,5.03896,-0.352068,-0.00633713,0.720775
26,60,-0.0872665,-0.698132,-0.174533,-0.174533,-0.112461,-0.691845,-0.174322,-0.198559,5.03896,-0.352068,-0.00633713,0.720775
26,60,-0.0872665,-0.698132,-0.174533,-0.174533,-0.112461,-0.691845,-0.174322,-0.198559,5.03896,-0.352068,-0.00633713,0.720775
26,60,-0.0872665,-0.698132,-0.174533,-0.174533,-0.112461,-0.691845,-0.174322,-0.198559,5.03896,-0.352068,-0.00633713,0.720775
26,60,-0.0872665,-0.698132,-0.174533,-0.174533,-0.112461,-0.691845,-0.174322,-0.198559,5.03896,-0.352068,-0.00633713,0.720775
26,60,-0.0872665,-0.698132,-0.174533,-0.174533,-0.112461,-0.691845,-0.174322,-0.198559,5.03896,-0.352068,-0.00633713,0.720775
26,60,-0.0872665,-0.698132,-0.174533,-0.174533,-0.112461,-0.691845,-0.174322,-0.198559,5.03896,-0.352068,-0.00633713,0.720775
26,60,-0.0872665,-0.698132,-0.174533,-0.174533,-0.112461,-0.691845,-0.174322,-0.198559,5.03896,-0.352068,-0.00633713,0.720775
26,60,-0.0872665,-0.698132,-0.174533,-0.174533,-0.112461,-0.691845,-0.174322,-0.198559,5.03896,-0.352068,-0.00633713,0.720775
26,60,-0.0872665,-0.698132,-0.174533,-0.174533,-0.112461,-0.691845,-0.174322,-0.198559,5.03896,-0.352068,-0.00633713,0.720775
26,60,-0.0872665,-0.698132,-0.174533,-0.174533,-0.112461,-0.691845,-0.174322,-0.198559,5.03896,-0.352068,-0.00633713,0.720775
26,60,-0.0872665,-0.698132,-0.174533,-0.174533,-0.112461,-0.691845,-0.174322,-0.198559,5.03896,-0.352068,-0.00633713,0.720775
26,60,-0.0872665,-0.698132,-0.174533,-0.174533,-0.112461,-0.691845,-0.174322,-0.198559,5.03896,-0.352068,-0.00633713,0.720775
26,60,-0.0872665,-0.698132,-0.174533,-0.174533,-0.112461,-0.691845,-0.174322,-0.198559,5.03896,-0.352068,-0.00633713,0.720775
26,60,-0.0872665,-0.698132,-0.174533,-0.174533,-0.112461,-0.691845,-0.174322,-0.198559,5.03896,-0.352068,-0.00633713,0.720775
26,60,-0.0872665,-0.698132,-0.174533,-0.174533,-0.112461,-0.691845,-0.174253,-0.198515,5.03896,-0.352068,-0.00838362,0.719474
26,60,-0.0872665,-0.698132,-0.174533,-0.174533,-0.112461,-0.691845,-0.174253,-0.198515,5.03896,-0.352068,-0.00838362,0.719474
26,60,-0.0872665,-0.698132,-0.174533,-0.174533,-0.112461,-0.691845,-0.174253,-0.198515,5.03896,-0.352068,-0.00838362,0.719474
26,60,-0.0872665,-0.698132,-0.174533,-0.174533,-0.112461,-0.691845,-0.174253,-0.198515,5.03896,-0.352068,-0.00838362,0.719474
26,60,-0.0872665,-0.698132,-0.174533,-0.174533,-0.112461,-0.691845,-0.174253,-0.198515,5.03896,-0.352068,-0.00838362,0.719474
26,60,-0.0872665,-0.698132,-0.174533,-0.174533,-0.112461,-0.691845,-0.174253,-0.198515,5.03896,-0.352068,-0.00838362,0.719474
26,60,-0.0872665,-0.698132,-0.174533,-0.174533,-0.112461,-0.691845,-0.174253,-0.198515,5.03896,-0.352068,-0.00838362,0.719474
26,60,-0.0872665,-0.698132,-0.174533,-0.174533,-0.112461,-0.691845,-0.174253,-0.198515,5.03896,-0.352068,-0.00838362,0.719474
26,60,-0.0872665,-0.698132,-0.174533,-0.174533,-0.112461,-0.691845,-0.174253,-0.198515,5.03896,-0.352068,-0.00838362,0.719474
26,60,-0.0872665,-0.698132,-0.174533,-0.174533,-0.112461,-0.691845,-0.174253,-0.198515,5.03896,-0.352068,-0.00838362,0.719474
26,60,-0.0872665,-0.698132,-0.174533,-0.174533,-0.112461,-0.691845,-0.174253,-0.198515,5.03896,-0.352068,-0.00838362,0.719474
26,60,-0.0872665,-0.698132,-0.174533,-0.174533,-0.112461,-0.691845,-0.174253,-0.198515,5.03896,-0.352068,-0.00838362,0.719474
26,60,-0.0872665,-0.698132,-0.174533,-0.174533,-0.112461,-0.691845,-0.174253,-0.198515,5.03896,-0.352068,-0.00838362,0.719474
26,60,-0.0872665,-0.698132,-0.174533,-0.174533,-0.112461,-0.691845,-0.174253,-0.198515,5.03896,-0.352068,-0.00838362,0.719474
26,60,-0.0872665,-0.698132,-0.174533,-0.174533,-0.112461,-0.691845,-0.174253,-0.198515,5.03896,-0.352068,-0.00838362,0.719474
26,60,-0.0872665,-0.698132,-0.174533,-0.174533,-0.112461,-0.691845,-0.174253,-0.198515,5.03896,-0.352068,-0.00838362,0.719474
26,60,-0.0872665,-0.698132,-0.174533,-0.174533,-0.112461,-0.691845,-0.174253,-0.198515,5.03896,-0.352068,-0.00838362,0.719474
26,60,-0.0872665,-0.698132,-0.174533,-0.174533,-0.112461,-0.691845,-0.174253,-0.198515,5.03896,-0.352068,-0.00838362,0.719474
26,60,-0.0872665,-0.698132,-0.174533,-0.174533,-0.112461,-0.691845,-0.174253,-0.198515,5.03896,-0.352068,-0.00838362,0.719474
26,60,-0.0872665,-0.698132,-0.174533,-0.174533,-0.112461,-0.691845,-0.174253,-0.198515,5.03896,-0.352068,-0.00838362,0.719474
26,60,-0.0872665,-0.698132,-0.174533,-0.174533,-0.112461,-0.691845,-0.174253,-0.198515,5.03896,-0.352068,-0.00838362,0.719474
26,60,-0.0872665,-0.698132,-0.174533,-0.174533,-0.112461,-0.691845,-0.174253,-0.198515,5.03896,-0.352068,-0.00838362,0.719474
26,60,-0.0872665,-0.698132,-0.174533,-0.174533,-0.112461,-0.691845,-0.174253,-0.198515,5.03896,-0.352068,-0.00838362,0.719474
26,60,-0.0872665,-0.698132,-0.174533,-0.174533,-0.112461,-0.691845,-0.174253,-0.198515,5.03896,-0.352068,-0.00838362,0.719474
26,60,-0.0872665,-0.698132,-0.174533,-0.174533,-0.112461,-0.691845,-0.174315,-0.198497,5.03896,-0.352068,-0.0065428,0.718914
26,60,-0.0872665,-0.698132,-0.174533,-0.174533,-0.112461,-0.691845,-0.174315,-0.198497,5.03896,-0.352068,-0.0065428,0.718914
26,60,-0.0872665,-0.698132,-0.174533,-0.174533,-0.112461,-0.691845,-0.174315,-0.198497,5.03896,-0.352068,-0.0065428,0.718914
26,60,-0.0872665,-0.698132,-0.174533,-0.174533,-0.112461,-0.691845,-0.174315,-0.198497,5.03896,-0.352068,-0.0065428,0.718914
26,60,-0.0872665,-0.698132,-0.174533,-0.174533,-0.112461,-0.691845,-0.174315,-0.198497,5.03896,-0.352068,-0.0065428,0.718914
26,60,-0.0872665,-0.698132,-0.174533,-0.174533,-0.112461,-0.691845,-0.174315,-0.198497,5.03896,-0.352068,-0.0065428,0.718914
26,60,-0.0872665,-0.698132,-0.174533,-0.174533,-0.112461,-0.691845,-0.174315,-0.198497,5.03896,-0.352068,-0.0065428,0.718914
26,60,-0.0872665,-0.698132,-0.174533,-0.174533,-0.112461,-0.691845,-0.174315,-0.198497,5.03896,-0.352068,-0.0065428,0.718914
26,60,-0.0872665,-0.698132,-0.174533,-0.174533,-0.112461,-0.691845,-0.174315,-0.198497,5.03896,-0.352068,-0.0065428,0.718914
26,60,-0.0872665,-0.698132,-0.174533,-0.174533,-0.112461,-0.691845,-0.174315,-0.198497,5.03896,-0.352068,-0.0065428,0.718914
26,60,-0.0872665,-0.698132,-0.174533,-0.174533,-0.112461,-0.691845,-0.174315,-0.198497,5.03896,-0.352068,-0.0065428,0.718914
26,60,-0.0872665,-0.698132,-0.174533,-0.174533,-0.112461,-0.691845,-0.174315,-0.198497,5.03896,-0.352068,-0.0065428,0.718914
26,60,-0.0872665,-0.698132,-0.174533,-0.174533,-0.112461,-0.691845,-0.174315,-0.198497,5.03896,-0.352068,-0.0065428,0.718914
26,60,-0.0872665,-0.698132,-0.174533,-0.174533,-0.112461,-0.691845,-0.174315,-0.198497,5.03896,-0.352068,-0.0065428,0.718914
26,60,-0.0872665,-0.698132,-0.174533,-0.174533,-0.112461,-0.691845,-0.174315,-0.198497,5.03896,-0.352068,-0.0065428,0.718914
26,60,-0.0872665,-0.698132,-0.174533,-0.174533,-0.112461,-0.691845,-0.174315,-0.198497,5.03896,-0.352068,-0.0065428,0.718914
26,60,-0.0872665,-0.698132,-0.174533,-0.174533,-0.112461,-0.691845,-0.174315,-0.198497,5.03896,-0.352068,-0.0065428,0.718914
26,60,-0.0872665,-0.698132,-0.174533,-0.174533,-0.112461,-0.691845,-0.174315,-0.198497,5.03896,-0.352068,-0.0065428,0.718914
26,60,-0.0872665,-0.698132,-0.174533,-0.174533,-0.112461,-0.691845,-0.174315,-0.198497,5.03896,-0.352068,-0.0065428,0.718914
26,60,-0.0872665,-0.698132,-0.174533,-0.174533,-0.112461,-0.691845,-0.174315,-0.198497,5.03896,-0.352068,-0.0065428,0.718914
26,60,-0.0872665,-0.698132,-0.174533,-0.174533,-0.112461,-0.691845,-0.174315,-0.198497,5.03896,-0.352068,-0.0065428,0.718914
26,60,-0.0872665,-0.698132,-0.174533,-0.174533,-0.112461,-0.691845,-0.174315,-0.198497,5.03896,-0.352068,-0.0065428,0.718914
26,60,-0.0872665,-0.698132,-0.174533,-0.174533,-0.112461,-0.691845,-0.174315,-0.198497,5.03896,-0.352068,-0.0065428,0.718914
26,60,-0.0872665,-0.698132,-0.174533,-0.174533,-0.112461,-0.691845,-0.174315,-0.198497,5.03896,-0.352068,-0.0065428,0.718914
26,60,-0.0872665,-0.698132,-0.174533,-0.174533,-0.112461,-0.691845,-0.174315,-0.198497,5.03896,-0.352068,-0.0065428,0.718914
26,60,-0.0872665,-0.698132,-0.174533,-0.174533,-0.112461,-0.691845,-0.174315,-0.198497,5.03896,-0.352068,-0.0065428,0.718914
26,60,-0.0872665,-0.698132,-0.174533,-0.174533,-0.112461,-0.691845,-0.174315,-0.198497,5.03896,-0.352068,-0.0065428,0.718914
26,60,-0.0872665,-0.698132,-0.174533,-0.174533,-0.112461,-0.691845,-0.174315,-0.198497,5.03896,-0.352068,-0.0065428,0.718914
26,60,-0.0872665,-0.698132,-0.174533,-0.174533,-0.112461,-0.691845,-0.174315,-0.198497,5.03896,-0.352068,-0.0065428,0.718914
26,60,-0.0872665,-0.698132,-0.174533,-0.174533,-0.112461,-0.691845,-0.174315,-0.198497,5.03896,-0.352068,-0.0065428,0.718914
26,60,-0.0872665,-0.698132,-0.174533,-0.174533,-0.112461,-0.691845,-0.174315,-0.198497,5.03896,-0.352068,-0.0065428,0.718914
26,60,-0.0872665,-0.698132,-0.174533,-0.174533,-0.112461,-0.691845,-0.174315,-0.198497,5.03896,-0.352068,-0.0065428,0.718914
26,60,-0.0872665,-0.698132,-0.174533,-0.174533,-0.112461,-0.691845,-0.174315,-0.198497,5.03896,-0.352068,-0.0065428,0.718914
26,60,-0.0872665,-0.698132,-0.174533,-0.174533,-0.112461,-0.691845,-0.174315,-0.198497,5.03896,-0.352068,-0.0065428,0.718914
26,60,-0.0872665,-0.698132,-0.174533,-0.174533,-0.112461,-0.691845,-0.174315,-0.198497,5.03896,-0.352068,-0.0065428,0.718914
26,60,-0.0872665,-0.698132,-0.174533,-0.174533,-0.112461,-0.691845,-0.174315,-0.198497,5.03896,-0.352068,-0.0065428,0.718914
26,60,-0.0872665,-0.698132,-0.174533,-0.174533,-0.112461,-0.691845,-0.174315,-0.198497,5.03896,-0.352068,-0.0065428,0.718914
26,60,-0.0872665,-0.698132,-0.174533,-0.174533,-0.112461,-0.691845,-0.174315,-0.198497,5.03896,-0.352068,-0.0065428,0.718914
26,60,-0.0872665,-0.698132,-0.174533,-0.174533,-0.112461,-0.691845,-0.174315,-0.198497,5.03896,-0.352068,-0.0065428,0.718914
26,60,-0.0872665,-0.698132,-0.174533,-0.174533,-0.112461,-0.691845,-0.174315,-0.198497,5.03896,-0.352068,-0.0065428,0.718914
26,60,-0.0872665,-0.698132,-0.174533,-0.174533,-0.112461,-0.691845,-0.174315,-0.198497,5.03896,-0.352068,-0.0065428,0.718914
26,60,-0.0872665,-0.698132,-0.174533,-0.174533,-0.112461,-0.691845,-0.174315,-0.198497,5.03896,-0.352068,-0.0065428,0.718914
26,60,-0.0872665,-0.698132,-0.174533,-0.174533,-0.112461,-0.691845,-0.174315,-0.198497,5.03896,-0.352068,-0.0065428,0.718914
26,60,-0.0872665,-0.698132,-0.174533,-0.174533,-0.112461,-0.691845,-0.174315,-0.198497,5.03896,-0.352068,-0.0065428,0.718914
26,60,-0.0872665,-0.698132,-0.174533,-0.174533,-0.112461,-0.691845,-0.174315,-0.198497,5.03896,-0.352068,-0.0065428,0.718914
26,60,-0.0872665,-0.698132,-0.174533,-0.174533,-0.112461,-0.691845,-0.174246,-0.198453,5.03896,-0.352068,-0.00859501,0.71761
26,60,-0.0872665,-0.698132,-0.174533,-0.174533,-0.112461,-0.691845,-0.174246,-0.198453,5.03896,-0.352068,-0.00859501,0.71761
26,60,-0.0872665,-0.698132,-0.174533,-0.174533,-0.112461,-0.691845,-0.174246,-0.198453,5.03896,-0.352068,-0.00859501,0.71761
26,60,-0.0872665,-0.698132,-0.174533,-0.174533,-0.112461,-0.691845,-0.174246,-0.198453,5.03896,-0.352068,-0.00859501,0.71761
26,60,-0.0872665,-0.698132,-0.174533,-0.174533,-0.112461,-0.691845,-0.174246,-0.198453,5.03896,-0.352068,-0.00859501,0.71761
26,60,-0.0872665,-0.698132,-0.174533,-0.174533,-0.112461,-0.691845,-0.174246,-0.198453,5.03896,-0.352068,-0.00859501,0.71761
26,60,-0.0872665,-0.698132,-0.174533,-0.174533,-0.112461,-0.691845,-0.174246,-0.198453,5.03896,-0.352068,-0.00859501,0.71761
26,60,-0.0872665,-0.698132,-0.174533,-0.174533,-0.112461,-0.691845,-0.174246,-0.198453,5.03896,-0.352068,-0.00859501,0.71761
26,60,-0.0872665,-0.698132,-0.174533,-0.174533,-0.112461,-0.691845,-0.174246,-0.198453,5.03896,-0.352068,-0.00859501,0.71761
26,60,-0.0872665,-0.698132,-0.174533,-0.174533,-0.112461,-0.691845,-0.174246,-0.198453,5.03896,-0.352068,-0.00859501,0.71761
26,60,-0.0872665,-0.698132,-0.174533,-0.174533,-0.112461,-0.691845,-0.174246,-0.198453,5.03896,-0.352068,-0.00859564,0.7176
26,60,-0.0872665,-0.698132,-0.174533,-0.174533,-0.112461,-0.691845,-0.174308,-0.198435,5.03896,-0.352068,-0.00675698,0.71704
26,60,-0.0872665,-0.698132,-0.174533,-0.174533,-0.112461,-0.691845,-0.174308,-0.198435,5.03896,-0.352068,-0.00675698,0.71704
26,60,-0.0872665,-0.698132,-0.174533,-0.174533,-0.112461,-0.691845,-0.174308,-0.198435,5.03896,-0.352068,-0.00675698,0.71704
26,60,-0.0872665,-0.698132,-0.174533,-0.174533,-0.112461,-0.691845,-0.174308,-0.198435,5.03896,-0.352068,-0.00675698,0.71704
26,60,-0.0872665,-0.698132,-0.174533,-0.174533,-0.112461,-0.691845,-0.174308,-0.198435,5.03896,-0.352068,-0.00675698,0.71704
26,60,-0.0872665,-0.698132,-0.174533,-0.174533,-0.112461,-0.691845,-0.174308,-0.198435,5.03896,-0.352068,-0.00675698,0.71704
26,60,-0.0872665,-0.698132,-0.174533,-0.174533,-0.112461,-0.691845,-0.174308,-0.198435,5.03896,-0.352068,-0.00675698,0.71704
26,60,-0.0872665,-0.698132,-0.174533,-0.174533,-0.112461,-0.691845,-0.174308,-0.198435,5.03896,-0.352068,-0.00675698,0.71704
26,60,-0.0872665,-0.698132,-0.174533,-0.174533,-0.112461,-0.691845,-0.174308,-0.198435,5.03896,-0.352068,-0.00675698,0.71704
26,60,-0.0872665,-0.698132,-0.174533,-0.174533,-0.112461,-0.691845,-0.174308,-0.198435,5.03896,-0.352068,-0.00675698,0.71704
26,60,-0.0872665,-0.698132,-0.174533,-0.174533,-0.112461,-0.691845,-0.174308,-0.198435,5.03896,-0.352068,-0.00675698,0.71704
26,60,-0.0872665,-0.698132,-0.174533,-0.174533,-0.112461,-0.691845,-0.174308,-0.198435,5.03896,-0.352068,-0.00675698,0.71704
26,60,-0.0872665,-0.698132,-0.174533,-0.174533,-0.112461,-0.691845,-0.174308,-0.198435,5.03896,-0.352068,-0.00675698,0.71704
26,60,-0.0872665,-0.698132,-0.174533,-0.174533,-0.112461,-0.691845,-0.174308,-0.198435,5.03896,-0.352068,-0.00675698,0.71704
26,60,-0.0872665,-0.698132,-0.174533,-0.174533,-0.112461,-0.691845,-0.174308,-0.198435,5.03896,-0.352068,-0.00675698,0.71704
26,60,-0.0872665,-0.698132,-0.174533,-0.174533,-0.112461,-0.691845,-0.174308,-0.198435,5.03896,-0.352068,-0.00675698,0.71704
26,60,-0.0872665,-0.698132,-0.174533,-0.174533,-0.112461,-0.691845,-0.174308,-0.198435,5.03896,-0.352068,-0.00675698,0.71704
26,60,-0.0872665,-0.698132,-0.174533,-0.174533,-0.112461,-0.691845,-0.174308,-0.198435,5.03896,-0.352068,-0.00675698,0.71704
26,60,-0.0872665,-0.698132,-0.174533,-0.174533,-0.112461,-0.691845,-0.174308,-0.198435,5.03896,-0.352068,-0.00675698,0.71704
26,60,-0.0872665,-0.698132,-0.174533,-0.174533,-0.112461,-0.691845,-0.174308,-0.198435,5.03896,-0.352068,-0.00675698,0.71704
26,60,-0.0872665,-0.698132,-0.174533,-0.174533,-0.112461,-0.691845,-0.174308,-0.198435,5.03896,-0.352068,-0.00675698,0.71704
26,60,-0.0872665,-0.698132,-0.174533,-0.174533,-0.112461,-0.691845,-0.174308,-0.198435,5.03896,-0.352068,-0.00675698,0.71704
26,60,-0.0872665,-0.698132,-0.174533,-0.174533,-0.112461,-0.691845,-0.174308,-0.198435,5.03896,-0.352068,-0.00675698,0.71704
26,60,-0.0872665,-0.698132,-0.174533,-0.174533,-0.112461,-0.691845,-0.174308,-0.198435,5.03896,-0.352068,-0.00675698,0.71704
26,60,-0.0872665,-0.698132,-0.174533,-0.174533,-0.112461,-0.691845,-0.174308,-0.198435,5.03896,-0.352068,-0.00675698,0.71704
26,60,-0.0872665,-0.698132,-0.174533,-0.174533,-0.112461,-0.691845,-0.174308,-0.198435,5.03896,-0.352068,-0.00675698,0.71704
26,60,-0.0872665,-0.698132,-0.174533,-0.174533,-0.112461,-0.691845,-0.174308,-0.198435,5.03896,-0.352068,-0.00675698,0.71704
26,60,-0.0872665,-0.698132,-0.174533,-0.174533,-0.112461,-0.691845,-0.174308,-0.198435,5.03896,-0.352068,-0.00675698,0.71704
26,60,-0.0872665,-0.698132,-0.174533,-0.174533,-0.112461,-0.691845,-0.174308,-0.198435,5.03896,-0.352068,-0.00675698,0.71704
26,60,-0.0872665,-0.698132,-0.174533,-0.174533,-0.112461,-0.691845,-0.174308,-0.198435,5.03896,-0.352068,-0.00675698,0.71704
26,60,-0.0872665,-0.698132,-0.174533,-0.174533,-0.112461,-0.691845,-0.174308,-0.198435,5.03896,-0.352068,-0.00675698,0.71704
26,60,-0.0872665,-0.698132,-0.174533,-0.174533,-0.112461,-0.691845,-0.174308,-0.198435,5.03896,-0.352068,-0.00675698,0.71704
26,60,-0.0872665,-0.698132,-0.174533,-0.174533,-0.112461,-0.691845,-0.174308,-0.198435,5.03896,-0.352068,-0.00675698,0.71704
26,60,-0.0872665,-0.698132,-0.174533,-0.174533,-0.112461,-0.691845,-0.174239,-0.198391,5.03896,-0.352068,-0.00881015,0.715735
26,60,-0.0872665,-0.698132,-0.174533,-0.174533,-0.112461,-0.691845,-0.174239,-0.198391,5.03896,-0.352068,-0.00881015,0.715735
26,60,-0.0872665,-0.698132,-0.174533,-0.174533,-0.112461,-0.691845,-0.174239,-0.198391,5.03896,-0.352068,-0.00881015,0.715735
26,60,-0.0872665,-0.698132,-0.174533,-0.174533,-0.112461,-0.691845,-0.174239,-0.198391,5.03896,-0.352068,-0.00881015,0.715735
26,60,-0.0872665,-0.698132,-0.174533,-0.174533,-0.112461,-0.691845,-0.174239,-0.198391,5.03896,-0.352068,-0.00881015,0.715735
26,60,-0.0872665,-0.698132,-0.174533,-0.174533,-0.112461,-0.691845,-0.174239,-0.198391,5.03896,-0.352068,-0.00881015,0.715735
26,60,-0.0872665,-0.698132,-0.174533,-0.174533,-0.112461,-0.691845,-0.174239,-0.198391,5.03896,-0.352068,-0.00881015,0.715735
26,60,-0.0872665,-0.698132,-0.174533,-0.174533,-0.112461,-0.691845,-0.174239,-0.198391,5.03896,-0.352068,-0.00881015,0.715735
26,60,-0.0872665,-0.698132,-0.174533,-0.174533,-0.112461,-0.691845,-0.174239,-0.198391,5.03896,-0.352068,-0.00881015,0.715735
26,60,-0.0872665,-0.698132,-0.174533,-0.174533,-0.112461,-0.691845,-0.174239,-0.198391,5.03896,-0.352068,-0.00881015,0.715735
26,60,-0.0872665,-0.698132,-0.174533,-0.174533,-0.112461,-0.691845,-0.174239,-0.198391,5.03896,-0.352068,-0.00881015,0.715735
26,60,-0.0872665,-0.698132,-0.174533,-0.174533,-0.112461,-0.691845,-0.174239,-0.198391,5.03896,-0.352068,-0.00881015,0.715735
26,60,-0.0872665,-0.698132,-0.174533,-0.174533,-0.112461,-0.691845,-0.174239,-0.198391,5.03896,-0.352068,-0.00881015,0.715735
26,60,-0.0872665,-0.698132,-0.174533,-0.174533,-0.112461,-0.691845,-0.174239,-0.198391,5.03896,-0.352068,-0.00881015,0.715735
26,60,-0.0872665,-0.698132,-0.174533,-0.174533,-0.112461,-0.691845,-0.174239,-0.198391,5.03896,-0.352068,-0.00881015,0.715735
26,60,-0.0872665,-0.698132,-0.174533,-0.174533,-0.112461,-0.691845,-0.174239,-0.198391,5.03896,-0.352068,-0.00881015,0.715735
26,60,-0.0872665,-0.698132,-0.174533,-0.174533,-0.112461,-0.691845,-0.174239,-0.198391,5.03896,-0.352068,-0.00881015,0.715735
26,60,-0.0872665,-0.698132,-0.174533,-0.174533,-0.112461,-0.691845,-0.174239,-0.198391,5.03896,-0.352068,-0.00881015,0.715735
26,60,-0.0872665,-0.698132,-0.174533,-0.174533,-0.112461,-0.691845,-0.174239,-0.198391,5.03896,-0.352068,-0.00881015,0.715735
26,60,-0.0872665,-0.698132,-0.174533,-0.174533,-0.112461,-0.691845,-0.174239,-0.198391,5.03896,-0.352068,-0.00881015,0.715735
26,60,-0.0872665,-0.698132,-0.174533,-0.174533,-0.112461,-0.691845,-0.174239,-0.198391,5.03896,-0.352068,-0.00881015,0.715735
26,60,-0.0872665,-0.698132,-0.174533,-0.174533,-0.112461,-0.691845,-0.174239,-0.198391,5.03896,-0.352068,-0.00881015,0.715735
26,60,-0.0872665,-0.698132,-0.174533,-0.174533,-0.112461,-0.691845,-0.174239,-0.198391,5.03896,-0.352068,-0.00881015,0.715735
26,60,-0.0872665,-0.698132,-0.174533,-0.174533,-0.112461,-0.691845,-0.1743,-0.198373,5.03896,-0.352068,-0.00696879,0.715175
26,60,-0.0872665,-0.698132,-0.174533,-0.174533,-0.112461,-0.691845,-0.1743,-0.198373,5.03896,-0.352068,-0.00696879,0.715175
26,60,-0.0872665,-0.698132,-0.174533,-0.174533,-0.112461,-0.691845,-0.1743,-0.198373,5.03896,-0.352068,-0.00696879,0.715175
26,60,-0.0872665,-0.698132,-0.174533,-0.174533,-0.112461,-0.691845,-0.1743,-0.198373,5.03896,-0.352068,-0.00696879,0.715175
26,60,-0.0872665,-0.698132,-0.174533,-0.174533,-0.112461,-0.691845,-0.1743,-0.198373,5.03896,-0.352068,-0.00696879,0.715175
26,60,-0.0872665,-0.698132,-0.174533,-0.174533,-0.112461,-0.691845,-0.1743,-0.198373,5.03896,-0.352068,-0.00696879,0.715175
26,60,-0.0872665,-0.698132,-0.174533,-0.174533,-0.112461,-0.691845,-0.1743,-0.198373,5.03896,-0.352068,-0.00696879,0.715175
26,60,-0.0872665,-0.698132,-0.174533,-0.174533,-0.112461,-0.691845,-0.1743,-0.198373,5.03896,-0.352068,-0.00696879,0.715175
26,60,-0.0872665,-0.698132,-0.174533,-0.174533,-0.112461,-0.691845,-0.1743,-0.198373,5.03896,-0.352068,-0.00696879,0.715175
26,60,-0.0872665,-0.698132,-0.174533,-0.174533,-0.112461,-0.691845,-0.1743,-0.198373,5.03896,-0.352068,-0.00696879,0.715175
26,60,-0.0872665,-0.698132,-0.174533,-0.174533,-0.112461,-0.691845,-0.1743,-0.198373,5.03896,-0.352068,-0.00696879,0.715175
26,60,-0.0872665,-0.698132,-0.174533,-0.174533,-0.112461,-0.691845,-0.1743,-0.198373,5.03896,-0.352068,-0.00696879,0.715175
26,60,-0.0872665,-0.698132,-0.174533,-0.174533,-0.112461,-0.691845,-0.1743,-0.198373,5.03896,-0.352068,-0.00696879,0.715175
26,60,-0.0872665,-0.698132,-0.174533,-0.174533,-0.112461,-0.691845,-0.1743,-0.198373,5.03896,-0.352068,-0.00696879,0.715175
26,60,-0.0872665,-0.698132,-0.174533,-0.174533,-0.112461,-0.691845,-0.1743,-0.198373,5.03896,-0.352068,-0.00696879,0.715175
26,60,-0.0872665,-0.698132,-0.174533,-0.174533,-0.112461,-0.691845,-0.1743,-0.198373,5.03896,-0.352068,-0.00696879,0.715175
26,60,-0.0872665,-0.698132,-0.174533,-0.174533,-0.112461,-0.691845,-0.1743,-0.198373,5.03896,-0.352068,-0.00696879,0.715175
26,60,-0.0872665,-0.698132,-0.174533,-0.174533,-0.112461,-0.691845,-0.1743,-0.198373,5.03896,-0.352068,-0.00696879,0.715175
26,60,-0.0872665,-0.698132,-0.174533,-0.174533,-0.112461,-0.691845,-0.1743,-0.198373,5.03896,-0.352068,-0.00696879,0.715175
26,60,-0.0872665,-0.698132,-0.174533,-0.174533,-0.112461,-0.691845,-0.1743,-0.198373,5.03896,-0.352068,-0.00696879,0.715175
26,60,-0.0872665,-0.698132,-0.174533,-0.174533,-0.112461,-0.691845,-0.1743,-0.198373,5.03896,-0.352068,-0.00696879,0.715175
26,60,-0.0872665,-0.698132,-0.174533,-0.174533,-0.112461,-0.691845,-0.1743,-0.198373,5.03896,-0.352068,-0.00696879,0.715175
26,60,-0.0872665,-0.698132,-0.174533,-0.174533,-0.112461,-0.691845,-0.1743,-0.198373,5.03896,-0.352068,-0.00696879,0.715175
26,60,-0.0872665,-0.698132,-0.174533,-0.174533,-0.112461,-0.691845,-0.1743,-0.198373,5.03896,-0.352068,-0.00696879,0.715175
26,60,-0.0872665,-0.698132,-0.174533,-0.174533,-0.112461,-0.691845,-0.1743,-0.198373,5.03896,-0.352068,-0.00696879,0.715175
26,60,-0.0872665,-0.698132,-0.174533,-0.174533,-0.112461,-0.691845,-0.1743,-0.198373,5.03896,-0.352068,-0.00696879,0.715175
26,60,-0.0872665,-0.698132,-0.174533,-0.174533,-0.112461,-0.691845,-0.1743,-0.198373,5.03896,-0.352068,-0.00696879,0.715175
26,60,-0.0872665,-0.698132,-0.174533,-0.174533,-0.112461,-0.691845,-0.1743,-0.198373,5.03896,-0.352068,-0.00696879,0.715175
26,60,-0.0872665,-0.698132,-0.174533,-0.174533,-0.112461,-0.691845,-0.1743,-0.198373,5.03896,-0.352068,-0.00696879,0.715175
26,60,-0.0872665,-0.698132,-0.174533,-0.174533,-0.112461,-0.691845,-0.1743,-0.198373,5.03896,-0.352068,-0.00696879,0.715175
26,60,-0.0872665,-0.698132,-0.174533,-0.174533,-0.112461,-0.691845,-0.1743,-0.198373,5.03896,-0.352068,-0.00696879,0.715175
26,60,-0.0872665,-0.698132,-0.174533,-0.174533,-0.112461,-0.691845,-0.1743,-0.198373,5.03896,-0.352068,-0.00696879,0.715175
26,60,-0.0872665,-0.698132,-0.174533,-0.174533,-0.112461,-0.691845,-0.1743,-0.198373,5.03896,-0.352068,-0.00696879,0.715175
26,60,-0.0872665,-0.698132,-0.174533,-0.174533,-0.112461,-0.691845,-0.1743,-0.198373,5.03896,-0.352068,-0.00696879,0.715175
26,60,-0.0872665,-0.698132,-0.174533,-0.174533,-0.112461,-0.691845,-0.1743,-0.198373,5.03896,-0.352068,-0.00696879,0.715175
26,60,-0.0872665,-0.698132,-0.174533,-0.174533,-0.112461,-0.691845,-0.1743,-0.198373,5.03896,-0.352068,-0.00696879,0.715175
26,60,-0.0872665,-0.698132,-0.174533,-0.174533,-0.112461,-0.691845,-0.1743,-0.198373,5.03896,-0.352068,-0.00696879,0.715175
26,60,-0.0872665,-0.698132,-0.174533,-0.174533,-0.112461,-0.691845,-0.1743,-0.198373,5.03896,-0.352068,-0.00696879,0.715175
26,60,-0.0872665,-0.698132,-0.174533,-0.174533,-0.112461,-0.691845,-0.1743,-0.198373,5.03896,-0.352068,-0.00696879,0.715175
26,60,-0.0872665,-0.698132,-0.174533,-0.174533,-0.112461,-0.691845,-0.1743,-0.198373,5.03896,-0.352068,-0.00696879,0.715175
26,60,-0.0872665,-0.698132,-0.174533,-0.174533,-0.112461,-0.691845,-0.1743,-0.198373,5.03896,-0.352068,-0.00696879,0.715175
26,60,-0.0872665,-0.698132,-0.174533,-0.174533,-0.112461,-0.691845,-0.1743,-0.198373,5.03896,-0.352068,-0.00696879,0.715175
26,60,-0.0872665,-0.698132,-0.174533,-0.174533,-0.112461,-0.691845,-0.1743,-0.198373,5.03896,-0.352068,-0.00696879,0.715175
26,60,-0.0872665,-0.698132,-0.174533,-0.174533,-0.112461,-0.691845,-0.1743,-0.198373,5.03896,-0.352068,-0.00696879,0.715175
26,60,-0.0872665,-0.698132,-0.174533,-0.174533,-0.112461,-0.691845,-0.174362,-0.198354,5.03896,-0.352068,-0.00512832,0.714615
26,60,-0.0872665,-0.698132,-0.174533,-0.174533,-0.112461,-0.691845,-0.174362,-0.198354,5.03896,-0.352068,-0.00512832,0.714615
26,60,-0.0872665,-0.698132,-0.174533,-0.174533,-0.112461,-0.691845,-0.174362,-0.198354,5.03896,-0.352068,-0.00512832,0.714615
26,60,-0.0872665,-0.698132,-0.174533,-0.174533,-0.112461,-0.691845,-0.174362,-0.198354,5.03896,-0.352068,-0.00512832,0.714615
26,60,-0.0872665,-0.698132,-0.174533,-0.174533,-0.112461,-0.691845,-0.174362,-0.198354,5.03896,-0.352068,-0.00512832,0.714615
26,60,-0.0872665,-0.698132,-0.174533,-0.174533,-0.112461,-0.691845,-0.174362,-0.198354,5.03896,-0.352068,-0.00512832,0.714615
26,60,-0.0872665,-0.698132,-0.174533,-0.174533,-0.112461,-0.691845,-0.174362,-0.198354,5.03896,-0.352068,-0.00512832,0.714615
26,60,-0.0872665,-0.698132,-0.174533,-0.174533,-0.112461,-0.691845,-0.174362,-0.198354,5.03896,-0.352068,-0.00512832,0.714615
26,60,-0.0872665,-0.698132,-0.174533,-0.174533,-0.112461,-0.691845,-0.174362,-0.198354,5.03896,-0.352068,-0.00512832,0.714615
26,60,-0.0872665,-0.698132,-0.174533,-0.174533,-0.112461,-0.691845,-0.174362,-0.198354,5.03896,-0.352068,-0.00512832,0.714615
26,60,-0.0872665,-0.698132,-0.174533,-0.174533,-0.112461,-0.691845,-0.174362,-0.198354,5.03896,-0.352068,-0.00512832,0.714615
26,60,-0.0872665,-0.698132,-0.174533,-0.174533,-0.112461,-0.691845,-0.174362,-0.198354,5.03896,-0.352068,-0.00512832,0.714615
26,60,-0.0872665,-0.698132,-0.174533,-0.174533,-0.112461,-0.691845,-0.174362,-0.198354,5.03896,-0.352068,-0.00512832,0.714615
26,60,-0.0872665,-0.698132,-0.174533,-0.174533,-0.112461,-0.691845,-0.174362,-0.198354,5.03896,-0.352068,-0.00512832,0.714615
26,60,-0.0872665,-0.698132,-0.174533,-0.174533,-0.112461,-0.691845,-0.174362,-0.198354,5.03896,-0.352068,-0.00512832,0.714615
26,60,-0.0872665,-0.698132,-0.174533,-0.174533,-0.112461,-0.691845,-0.174362,-0.198354,5.03896,-0.352068,-0.00512832,0.714615
26,60,-0.0872665,-0.698132,-0.174533,-0.174533,-0.112461,-0.691845,-0.174362,-0.198354,5.03896,-0.352068,-0.00512832,0.714615
26,60,-0.0872665,-0.698132,-0.174533,-0.174533,-0.112461,-0.691845,-0.174362,-0.198354,5.03896,-0.352068,-0.00512832,0.714615
26,60,-0.0872665,-0.698132,-0.174533,-0.174533,-0.112461,-0.691845,-0.174362,-0.198354,5.03896,-0.352068,-0.00512832,0.714615
26,60,-0.0872665,-0.698132,-0.174533,-0.174533,-0.112461,-0.691845,-0.174362,-0.198354,5.03896,-0.352068,-0.00512832,0.714615
26,60,-0.0872665,-0.698132,-0.174533,-0.174533,-0.112461,-0.691845,-0.174362,-0.198354,5.03896,-0.352068,-0.00512832,0.714615
26,60,-0.0872665,-0.698132,-0.174533,-0.174533,-0.112461,-0.691845,-0.174362,-0.198354,5.03896,-0.352068,-0.00512832,0.714615
26,60,-0.0872665,-0.698132,-0.174533,-0.174533,-0.112461,-0.691845,-0.174362,-0.198354,5.03896,-0.352068,-0.00512832,0.714615
26,60,-0.0872665,-0.698132,-0.174533,-0.174533,-0.112461,-0.691845,-0.174362,-0.198354,5.03896,-0.352068,-0.00512832,0.714615
26,60,-0.0872665,-0.698132,-0.174533,-0.174533,-0.112461,-0.691845,-0.174362,-0.198354,5.03896,-0.352068,-0.00512832,0.714615
26,60,-0.0872665,-0.698132,-0.174533,-0.174533,-0.112461,-0.691845,-0.174293,-0.19831,5.03896,-0.352068,-0.00718326,0.713309
26,60,-0.0872665,-0.698132,-0.174533,-0.174533,-0.112461,-0.691845,-0.174293,-0.19831,5.03896,-0.352068,-0.00718326,0.713309
26,60,-0.0872665,-0.698132,-0.174533,-0.174533,-0.112461,-0.691845,-0.174293,-0.19831,5.03896,-0.352068,-0.00718326,0.713309
26,60,-0.0872665,-0.698132,-0.174533,-0.174533,-0.112461,-0.691845,-0.174293,-0.19831,5.03896,-0.352068,-0.00718326,0.713309
26,60,-0.0872665,-0.698132,-0.174533,-0.174533,-0.112461,-0.691845,-0.174293,-0.19831,5.03896,-0.352068,-0.00718326,0.713309
