stim_pw [us],stim_amp [mA],com_elbow_fe [rad],com_forearm_ps [rad],com_wrist_fe [rad],com_wrist_ru [rad],act_elbow_fe [rad],act_forearm_ps [rad],act_wrist_fe [rad],act_wrist_ru [rad],elbow_fe_trq [Nm],forearm_ps_trq [Nm],wrist_fe_trq [Nm],wrist_ru_trq [Nm]
26,40,-0.0872665,-0.698132,-0.174533,-0.174533,-0.103155,-0.692557,-0.15326,-0.193693,3.17773,-0.312416,-0.638319,0.574724
26,40,-0.0872665,-0.698132,-0.174533,-0.174533,-0.103155,-0.692557,-0.15326,-0.193693,3.17773,-0.312416,-0.638319,0.574724
26,40,-0.0872665,-0.698132,-0.174533,-0.174533,-0.103155,-0.692557,-0.15326,-0.193693,3.17773,-0.312416,-0.638319,0.574724
26,40,-0.0872665,-0.698132,-0.174533,-0.174533,-0.103155,-0.692557,-0.15326,-0.193693,3.17773,-0.312416,-0.638319,0.574724
26,40,-0.0872665,-0.698132,-0.174533,-0.174533,-0.103155,-0.692557,-0.15326,-0.193693,3.17773,-0.312416,-0.638319,0.574724
26,40,-0.0872665,-0.698132,-0.174533,-0.174533,-0.103155,-0.692557,-0.15326,-0.193693,3.17773,-0.312416,-0.638319,0.574724
26,40,-0.0872665,-0.698132,-0.174533,-0.174533,-0.103155,-0.692557,-0.15326,-0.193693,3.17773,-0.312416,-0.638319,0.574724
26,40,-0.0872665,-0.698132,-0.174533,-0.174533,-0.103155,-0.692557,-0.153321,-0.193674,3.17773,-0.312416,-0.636486,0.574145
26,40,-0.0872665,-0.698132,-0.174533,-0.174533,-0.103155,-0.692557,-0.153321,-0.193674,3.17773,-0.312416,-0.636486,0.574145
26,40,-0.0872665,-0.698132,-0.174533,-0.174533,-0.103155,-0.692557,-0.153321,-0.193674,3.17773,-0.312416,-0.636486,0.574145
26,40,-0.0872665,-0.698132,-0.174533,-0.174533,-0.103155,-0.692557,-0.153321,-0.193674,3.17773,-0.312416,-0.636486,0.574145
26,40,-0.0872665,-0.698132,-0.174533,-0.174533,-0.103155,-0.692557,-0.153321,-0.193674,3.17773,-0.312416,-0.636486,0.574145
26,40,-0.0872665,-0.698132,-0.174533,-0.174533,-0.103155,-0.692557,-0.153321,-0.193674,3.17773,-0.312416,-0.636486,0.574145
26,40,-0.0872665,-0.698132,-0.174533,-0.174533,-0.103155,-0.692557,-0.153321,-0.193674,3.17773,-0.312416,-0.636486,0.574145
26,40,-0.0872665,-0.698132,-0.174533,-0.174533,-0.103155,-0.692557,-0.153321,-0.193674,3.17773,-0.312416,-0.636486,0.574145
26,40,-0.0872665,-0.698132,-0.174533,-0.174533,-0.103155,-0.692557,-0.153321,-0.193674,3.17773,-0.312416,-0.636486,0.574145
26,40,-0.0872665,-0.698132,-0.174533,-0.174533,-0.103155,-0.692557,-0.153255,-0.193631,3.17773,-0.312416,-0.638346,0.572964
26,40,-0.0872665,-0.698132,-0.174533,-0.174533,-0.103155,-0.692557,-0.153255,-0.193631,3.17773,-0.312416,-0.638346,0.572964
26,40,-0.0872665,-0.698132,-0.174533,-0.174533,-0.103155,-0.692557,-0.153255,-0.193631,3.17773,-0.312416,-0.638346,0.572964
26,40,-0.0872665,-0.698132,-0.174533,-0.174533,-0.103155,-0.692557,-0.153255,-0.193631,3.17773,-0.312416,-0.638346,0.572964
26,40,-0.0872665,-0.698132,-0.174533,-0.174533,-0.103155,-0.692557,-0.153255,-0.193631,3.17773,-0.312416,-0.638346,0.572964
26,40,-0.0872665,-0.698132,-0.174533,-0.174533,-0.103155,-0.692557,-0.153255,-0.193631,3.17773,-0.312416,-0.638346,0.572964
26,40,-0.0872665,-0.698132,-0.174533,-0.174533,-0.103155,-0.692557,-0.153255,-0.193631,3.17773,-0.312416,-0.638346,0.572964
26,40,-0.0872665,-0.698132,-0.174533,-0.174533,-0.103155,-0.692557,-0.153255,-0.193631,3.17773,-0.312416,-0.638346,0.572964
26,40,-0.0872665,-0.698132,-0.174533,-0.174533,-0.103155,-0.692557,-0.153316,-0.193612,3.17773,-0.312416,-0.636493,0.572378
26,40,-0.0872665,-0.698132,-0.174533,-0.174533,-0.103155,-0.692557,-0.153316,-0.193612,3.17773,-0.312416,-0.636493,0.572378
26,40,-0.0872665,-0.698132,-0.174533,-0.174533,-0.103155,-0.692557,-0.153316,-0.193612,3.17773,-0.312416,-0.636493,0.572378
26,40,-0.0872665,-0.698132,-0.174533,-0.174533,-0.103155,-0.692557,-0.153316,-0.193612,3.17773,-0.312416,-0.636493,0.572378
26,40,-0.0872665,-0.698132,-0.174533,-0.174533,-0.103155,-0.692557,-0.153316,-0.193612,3.17773,-0.312416,-0.636493,0.572378
26,40,-0.0872665,-0.698132,-0.174533,-0.174533,-0.103155,-0.692557,-0.153316,-0.193612,3.17773,-0.312416,-0.636493,0.572378
26,40,-0.0872665,-0.698132,-0.174533,-0.174533,-0.103155,-0.692557,-0.153316,-0.193612,3.17773,-0.312416,-0.636493,0.572378
26,40,-0.0872665,-0.698132,-0.174533,-0.174533,-0.103155,-0.692557,-0.153316,-0.193612,3.17773,-0.312416,-0.636493,0.572378
26,40,-0.0872665,-0.698132,-0.174533,-0.174533,-0.103155,-0.692506,-0.153318,-0.193672,3.17773,-0.315248,-0.636414,0.574159
26,40,-0.0872665,-0.698132,-0.174533,-0.174533,-0.103155,-0.692506,-0.153318,-0.193672,3.17773,-0.315248,-0.636414,0.574159
26,40,-0.0872665,-0.698132,-0.174533,-0.174533,-0.103155,-0.692506,-0.153318,-0.193672,3.17773,-0.315248,-0.636414,0.574159
26,40,-0.0872665,-0.698132,-0.174533,-0.174533,-0.103155,-0.692506,-0.153318,-0.193672,3.17773,-0.315248,-0.636414,0.574159
26,40,-0.0872665,-0.698132,-0.174533,-0.174533,-0.103155,-0.692506,-0.153318,-0.193672,3.17773,-0.315248,-0.636414,0.574159
26,40,-0.0872665,-0.698132,-0.174533,-0.174533,-0.103155,-0.692506,-0.153318,-0.193672,3.17773,-0.315248,-0.636414,0.574159
26,40,-0.0872665,-0.698132,-0.174533,-0.174533,-0.103155,-0.692506,-0.153379,-0.193652,3.17773,-0.315248,-0.634572,0.573577
26,40,-0.0872665,-0.698132,-0.174533,-0.174533,-0.103155,-0.692506,-0.153379,-0.193652,3.17773,-0.315248,-0.634572,0.573577
26,40,-0.0872665,-0.698132,-0.174533,-0.174533,-0.103155,-0.692506,-0.153379,-0.193652,3.17773,-0.315248,-0.634572,0.573577
26,40,-0.0872665,-0.698132,-0.174533,-0.174533,-0.103155,-0.692506,-0.153379,-0.193652,3.17773,-0.315248,-0.634572,0.573577
26,40,-0.0872665,-0.698132,-0.174533,-0.174533,-0.103155,-0.692506,-0.153379,-0.193652,3.17773,-0.315248,-0.634572,0.573577
26,40,-0.0872665,-0.698132,-0.174533,-0.174533,-0.103155,-0.692506,-0.153379,-0.193652,3.17773,-0.315248,-0.634572,0.573577
26,40,-0.0872665,-0.698132,-0.174533,-0.174533,-0.103155,-0.692506,-0.153379,-0.193652,3.17773,-0.315248,-0.634572,0.573577
26,40,-0.0872665,-0.698132,-0.174533,-0.174533,-0.103155,-0.692506,-0.153379,-0.193652,3.17773,-0.315248,-0.634572,0.573577
26,40,-0.0872665,-0.698132,-0.174533,-0.174533,-0.103155,-0.692506,-0.153379,-0.193652,3.17773,-0.315248,-0.634572,0.573577
26,40,-0.0872665,-0.698132,-0.174533,-0.174533,-0.103155,-0.692506,-0.153379,-0.193652,3.17773,-0.315248,-0.634572,0.573577
26,40,-0.0872665,-0.698132,-0.174533,-0.174533,-0.103155,-0.692506,-0.153379,-0.193652,3.17773,-0.315248,-0.634572,0.573577
26,40,-0.0872665,-0.698132,-0.174533,-0.174533,-0.103155,-0.692506,-0.153379,-0.193652,3.17773,-0.315248,-0.634572,0.573577
26,40,-0.0872665,-0.698132,-0.174533,-0.174533,-0.103155,-0.692506,-0.153374,-0.193591,3.17773,-0.315248,-0.634719,0.571746
26,40,-0.0872665,-0.698132,-0.174533,-0.174533,-0.103155,-0.692506,-0.153374,-0.193591,3.17773,-0.315248,-0.634719,0.571746
26,40,-0.0872665,-0.698132,-0.174533,-0.174533,-0.103155,-0.692506,-0.153374,-0.193591,3.17773,-0.315248,-0.634719,0.571746
26,40,-0.0872665,-0.698132,-0.174533,-0.174533,-0.103155,-0.692506,-0.153374,-0.193591,3.17773,-0.315248,-0.634719,0.571746
26,40,-0.0872665,-0.698132,-0.174533,-0.174533,-0.103155,-0.692506,-0.153374,-0.193591,3.17773,-0.315248,-0.634719,0.571746
26,40,-0.0872665,-0.698132,-0.174533,-0.174533,-0.103155,-0.692506,-0.153374,-0.193591,3.17773,-0.315248,-0.634719,0.571746
26,40,-0.0872665,-0.698132,-0.174533,-0.174533,-0.103155,-0.692506,-0.153374,-0.193591,3.17773,-0.315248,-0.634719,0.571746
26,40,-0.0872665,-0.698132,-0.174533,-0.174533,-0.103155,-0.692506,-0.153374,-0.193591,3.17773,-0.315248,-0.634719,0.571746
26,40,-0.0872665,-0.698132,-0.174533,-0.174533,-0.103155,-0.692506,-0.153374,-0.193591,3.17773,-0.315248,-0.634719,0.571746
26,40,-0.0872665,-0.698132,-0.174533,-0.174533,-0.103155,-0.692506,-0.15331,-0.193608,3.17773,-0.315248,-0.636631,0.572256
26,40,-0.0872665,-0.698132,-0.174533,-0.174533,-0.103155,-0.692506,-0.15331,-0.193608,3.17773,-0.315248,-0.636631,0.572256
26,40,-0.0872665,-0.698132,-0.174533,-0.174533,-0.103155,-0.692506,-0.15331,-0.193608,3.17773,-0.315248,-0.636631,0.572256
26,40,-0.0872665,-0.698132,-0.174533,-0.174533,-0.103155,-0.692506,-0.15331,-0.193608,3.17773,-0.315248,-0.636631,0.572256
26,40,-0.0872665,-0.698132,-0.174533,-0.174533,-0.103155,-0.692506,-0.15331,-0.193608,3.17773,-0.315248,-0.636631,0.572256
26,40,-0.0872665,-0.698132,-0.174533,-0.174533,-0.103155,-0.692506,-0.153371,-0.193589,3.17773,-0.315248,-0.634789,0.571674
26,40,-0.0872665,-0.698132,-0.174533,-0.174533,-0.103155,-0.692506,-0.153371,-0.193589,3.17773,-0.315248,-0.634789,0.571674
26,40,-0.0872665,-0.698132,-0.174533,-0.174533,-0.103155,-0.692506,-0.153371,-0.193589,3.17773,-0.315248,-0.634789,0.571674
26,40,-0.0872665,-0.698132,-0.174533,-0.174533,-0.103155,-0.692506,-0.153371,-0.193589,3.17773,-0.315248,-0.634789,0.571674
26,40,-0.0872665,-0.698132,-0.174533,-0.174533,-0.103155,-0.692506,-0.153371,-0.193589,3.17773,-0.315248,-0.634789,0.571674
26,40,-0.0872665,-0.698132,-0.174533,-0.174533,-0.103155,-0.692506,-0.153305,-0.193546,3.17773,-0.315248,-0.636788,0.570404
26,40,-0.0872665,-0.698132,-0.174533,-0.174533,-0.103155,-0.692506,-0.153305,-0.193546,3.17773,-0.315248,-0.636788,0.570404
26,40,-0.0872665,-0.698132,-0.174533,-0.174533,-0.103155,-0.692506,-0.153305,-0.193546,3.17773,-0.315248,-0.636788,0.570404
26,40,-0.0872665,-0.698132,-0.174533,-0.174533,-0.103155,-0.692506,-0.153305,-0.193546,3.17773,-0.315248,-0.636788,0.570404
26,40,-0.0872665,-0.698132,-0.174533,-0.174533,-0.103155,-0.692506,-0.153305,-0.193546,3.17773,-0.315248,-0.636788,0.570404
26,40,-0.0872665,-0.698132,-0.174533,-0.174533,-0.103155,-0.692506,-0.153305,-0.193546,3.17773,-0.315248,-0.636788,0.570404
26,40,-0.0872665,-0.698132,-0.174533,-0.174533,-0.103155,-0.692506,-0.153305,-0.193546,3.17773,-0.315248,-0.636788,0.570404
26,40,-0.0872665,-0.698132,-0.174533,-0.174533,-0.103155,-0.692506,-0.153305,-0.193546,3.17773,-0.315248,-0.636788,0.570404
26,40,-0.0872665,-0.698132,-0.174533,-0.174533,-0.103155,-0.692506,-0.153366,-0.193527,3.17773,-0.315248,-0.634961,0.569827
26,40,-0.0872665,-0.698132,-0.174533,-0.174533,-0.103155,-0.692506,-0.153368,-0.193586,3.17773,-0.315248,-0.634883,0.571606
26,40,-0.0872665,-0.698132,-0.174533,-0.174533,-0.103155,-0.692506,-0.153368,-0.193586,3.17773,-0.315248,-0.634883,0.571606
26,40,-0.0872665,-0.698132,-0.174533,-0.174533,-0.103155,-0.692506,-0.153368,-0.193586,3.17773,-0.315248,-0.634883,0.571606
26,40,-0.0872665,-0.698132,-0.174533,-0.174533,-0.103155,-0.692506,-0.153368,-0.193586,3.17773,-0.315248,-0.634883,0.571606
26,40,-0.0872665,-0.698132,-0.174533,-0.174533,-0.103155,-0.692506,-0.153368,-0.193586,3.17773,-0.315248,-0.634883,0.571606
26,40,-0.0872665,-0.698132,-0.174533,-0.174533,-0.103155,-0.692506,-0.153368,-0.193586,3.17773,-0.315248,-0.634883,0.571606
26,40,-0.0872665,-0.698132,-0.174533,-0.174533,-0.103155,-0.692506,-0.153368,-0.193586,3.17773,-0.315248,-0.634883,0.571606
26,40,-0.0872665,-0.698132,-0.174533,-0.174533,-0.103155,-0.692506,-0.153368,-0.193586,3.17773,-0.315248,-0.634883,0.571606
26,40,-0.0872665,-0.698132,-0.174533,-0.174533,-0.103155,-0.692506,-0.153368,-0.193586,3.17773,-0.315248,-0.634883,0.571606
26,40,-0.0872665,-0.698132,-0.174533,-0.174533,-0.103155,-0.692506,-0.153368,-0.193586,3.17773,-0.315248,-0.634883,0.571606
26,40,-0.0872665,-0.698132,-0.174533,-0.174533,-0.103155,-0.692506,-0.153368,-0.193586,3.17773,-0.315248,-0.634883,0.571606
26,40,-0.0872665,-0.698132,-0.174533,-0.174533,-0.103155,-0.692506,-0.153368,-0.193586,3.17773,-0.315248,-0.634883,0.571606
26,40,-0.0872665,-0.698132,-0.174533,-0.174533,-0.103155,-0.692506,-0.153368,-0.193586,3.17773,-0.315248,-0.634883,0.571606
26,40,-0.0872665,-0.698132,-0.174533,-0.174533,-0.103155,-0.692506,-0.153368,-0.193586,3.17773,-0.315248,-0.634883,0.571606
26,40,-0.0872665,-0.698132,-0.174533,-0.174533,-0.103155,-0.692506,-0.153368,-0.193586,3.17773,-0.315248,-0.634883,0.571606
26,40,-0.0872665,-0.698132,-0.174533,-0.174533,-0.103155,-0.692506,-0.153368,-0.193586,3.17773,-0.315248,-0.634883,0.571606
26,40,-0.0872665,-0.698132,-0.174533,-0.174533,-0.103155,-0.692506,-0.153368,-0.193586,3.17773,-0.315248,-0.634883,0.571606
26,40,-0.0872665,-0.698132,-0.174533,-0.174533,-0.103155,-0.692506,-0.153368,-0.193586,3.17773,-0.315248,-0.634883,0.571606
26,40,-0.0872665,-0.698132,-0.174533,-0.174533,-0.103155,-0.692506,-0.153368,-0.193586,3.17773,-0.315248,-0.634883,0.571606
26,40,-0.0872665,-0.698132,-0.174533,-0.174533,-0.103155,-0.692506,-0.153368,-0.193586,3.17773,-0.315248,-0.634883,0.571606
26,40,-0.0872665,-0.698132,-0.174533,-0.174533,-0.103155,-0.692506,-0.153368,-0.193586,3.17773,-0.315248,-0.634883,0.571606
26,40,-0.0872665,-0.698132,-0.174533,-0.174533,-0.103155,-0.692506,-0.153368,-0.193586,3.17773,-0.315248,-0.634883,0.571606
26,40,-0.0872665,-0.698132,-0.174533,-0.174533,-0.103155,-0.692506,-0.153368,-0.193586,3.17773,-0.315248,-0.634883,0.571606
26,40,-0.0872665,-0.698132,-0.174533,-0.174533,-0.103155,-0.692506,-0.153368,-0.193586,3.17773,-0.315248,-0.634883,0.571606
26,40,-0.0872665,-0.698132,-0.174533,-0.174533,-0.103155,-0.692506,-0.153371,-0.193646,3.17773,-0.315248,-0.634804,0.57339
26,40,-0.0872665,-0.698132,-0.174533,-0.174533,-0.103155,-0.692506,-0.153371,-0.193646,3.17773,-0.315248,-0.634804,0.57339
26,40,-0.0872665,-0.698132,-0.174533,-0.174533,-0.103155,-0.692506,-0.153371,-0.193646,3.17773,-0.315248,-0.634805,0.57339
26,40,-0.0872665,-0.698132,-0.174533,-0.174533,-0.103155,-0.692506,-0.153371,-0.193646,3.17773,-0.315248,-0.634808,0.573391
26,40,-0.0872665,-0.698132,-0.174533,-0.174533,-0.103155,-0.692506,-0.153371,-0.193646,3.17773,-0.315248,-0.63481,0.573392
26,40,-0.0872665,-0.698132,-0.174533,-0.174533,-0.103155,-0.692506,-0.153371,-0.193646,3.17773,-0.315248,-0.634813,0.573392
26,40,-0.0872665,-0.698132,-0.174533,-0.174533,-0.103155,-0.692506,-0.153371,-0.193646,3.17773,-0.315248,-0.634815,0.573393
26,40,-0.0872665,-0.698132,-0.174533,-0.174533,-0.103155,-0.692506,-0.153371,-0.193646,3.17773,-0.315248,-0.634818,0.573394
26,40,-0.0872665,-0.698132,-0.174533,-0.174533,-0.103155,-0.692506,-0.153371,-0.193646,3.17773,-0.315248,-0.63482,0.573395
26,40,-0.0872665,-0.698132,-0.174533,-0.174533,-0.103155,-0.692506,-0.153371,-0.193646,3.17773,-0.315248,-0.634822,0.573395
26,40,-0.0872665,-0.698132,-0.174533,-0.174533,-0.103155,-0.692506,-0.153371,-0.193646,3.17773,-0.315248,-0.634824,0.573396
26,40,-0.0872665,-0.698132,-0.174533,-0.174533,-0.103155,-0.692506,-0.153371,-0.193646,3.17773,-0.315248,-0.634826,0.573396
26,40,-0.0872665,-0.698132,-0.174533,-0.174533,-0.103155,-0.692506,-0.153371,-0.193646,3.17773,-0.315248,-0.634827,0.573397
26,40,-0.0872665,-0.698132,-0.174533,-0.174533,-0.103155,-0.692506,-0.153371,-0.193646,3.17773,-0.315248,-0.634829,0.573397
26,40,-0.0872665,-0.698132,-0.174533,-0.174533,-0.103155,-0.692506,-0.153371,-0.193646,3.17773,-0.315248,-0.63483,0.573398
26,40,-0.0872665,-0.698132,-0.174533,-0.174533,-0.103155,-0.692506,-0.153371,-0.193646,3.17773,-0.315248,-0.634832,0.573398
26,40,-0.0872665,-0.698132,-0.174533,-0.174533,-0.103155,-0.692506,-0.153432,-0.193627,3.17773,-0.315248,-0.632963,0.572808
26,40,-0.0872665,-0.698132,-0.174533,-0.174533,-0.103155,-0.692506,-0.153432,-0.193627,3.17773,-0.315248,-0.632963,0.572808
26,40,-0.0872665,-0.698132,-0.174533,-0.174533,-0.103155,-0.692506,-0.153432,-0.193627,3.17773,-0.315248,-0.632963,0.572808
26,40,-0.0872665,-0.698132,-0.174533,-0.174533,-0.103155,-0.692506,-0.153432,-0.193627,3.17773,-0.315248,-0.632963,0.572808
26,40,-0.0872665,-0.698132,-0.174533,-0.174533,-0.103155,-0.692506,-0.153432,-0.193627,3.17773,-0.315248,-0.632963,0.572808
26,40,-0.0872665,-0.698132,-0.174533,-0.174533,-0.103155,-0.692506,-0.153432,-0.193627,3.17773,-0.315248,-0.632963,0.572808
26,40,-0.0872665,-0.698132,-0.174533,-0.174533,-0.103155,-0.692506,-0.153432,-0.193627,3.17773,-0.315248,-0.632963,0.572808
26,40,-0.0872665,-0.698132,-0.174533,-0.174533,-0.103155,-0.692506,-0.153432,-0.193627,3.17773,-0.315248,-0.632963,0.572808
26,40,-0.0872665,-0.698132,-0.174533,-0.174533,-0.103155,-0.692506,-0.153366,-0.193584,3.17773,-0.315248,-0.634977,0.571528
26,40,-0.0872665,-0.698132,-0.174533,-0.174533,-0.103155,-0.692506,-0.153366,-0.193584,3.17773,-0.315248,-0.634977,0.571528
26,40,-0.0872665,-0.698132,-0.174533,-0.174533,-0.103155,-0.692506,-0.153366,-0.193584,3.17773,-0.315248,-0.634977,0.571528
26,40,-0.0872665,-0.698132,-0.174533,-0.174533,-0.103155,-0.692506,-0.153366,-0.193584,3.17773,-0.315248,-0.634977,0.571528
26,40,-0.0872665,-0.698132,-0.174533,-0.174533,-0.103155,-0.692506,-0.153366,-0.193584,3.17773,-0.315248,-0.634977,0.571528
26,40,-0.0872665,-0.698132,-0.174533,-0.174533,-0.103155,-0.692506,-0.153366,-0.193584,3.17773,-0.315248,-0.634977,0.571528
26,40,-0.0872665,-0.698132,-0.174533,-0.174533,-0.103155,-0.692506,-0.153366,-0.193584,3.17773,-0.315248,-0.634977,0.571528
26,40,-0.0872665,-0.698132,-0.174533,-0.174533,-0.103155,-0.692506,-0.153366,-0.193584,3.17773,-0.315248,-0.634977,0.571528
26,40,-0.0872665,-0.698132,-0.174533,-0.174533,-0.103155,-0.692506,-0.153366,-0.193584,3.17773,-0.315248,-0.634977,0.571528
26,40,-0.0872665,-0.698132,-0.174533,-0.174533,-0.103155,-0.692506,-0.153366,-0.193584,3.17773,-0.315248,-0.634977,0.571528
26,40,-0.0872665,-0.698132,-0.174533,-0.174533,-0.103155,-0.692506,-0.153366,-0.193584,3.17773,-0.315248,-0.634977,0.571528
26,40,-0.0872665,-0.698132,-0.174533,-0.174533,-0.103155,-0.692506,-0.153366,-0.193584,3.17773,-0.315248,-0.634977,0.571528
26,40,-0.0872665,-0.698132,-0.174533,-0.174533,-0.103155,-0.692506,-0.153366,-0.193584,3.17773,-0.315248,-0.634977,0.571528
26,40,-0.0872665,-0.698132,-0.174533,-0.174533,-0.103155,-0.692455,-0.153366,-0.193584,3.17773,-0.318075,-0.634977,0.571528
26,40,-0.0872665,-0.698132,-0.174533,-0.174533,-0.103155,-0.692455,-0.153368,-0.193644,3.17773,-0.318075,-0.634899,0.573311
26,40,-0.0872665,-0.698132,-0.174533,-0.174533,-0.103155,-0.692455,-0.153368,-0.193644,3.17773,-0.318075,-0.634899,0.573311
26,40,-0.0872665,-0.698132,-0.174533,-0.174533,-0.103155,-0.692455,-0.153368,-0.193644,3.17773,-0.318075,-0.634899,0.573311
26,40,-0.0872665,-0.698132,-0.174533,-0.174533,-0.103155,-0.692455,-0.153368,-0.193644,3.17773,-0.318075,-0.634899,0.573311
26,40,-0.0872665,-0.698132,-0.174533,-0.174533,-0.103155,-0.692455,-0.153368,-0.193644,3.17773,-0.318075,-0.634899,0.573312
26,40,-0.0872665,-0.698132,-0.174533,-0.174533,-0.103155,-0.692455,-0.153368,-0.193644,3.17773,-0.318075,-0.634902,0.573313
26,40,-0.0872665,-0.698132,-0.174533,-0.174533,-0.103155,-0.692455,-0.153368,-0.193644,3.17773,-0.318075,-0.634905,0.573314
26,40,-0.0872665,-0.698132,-0.174533,-0.174533,-0.103155,-0.692455,-0.153368,-0.193644,3.17773,-0.318075,-0.634908,0.573315
26,40,-0.0872665,-0.698132,-0.174533,-0.174533,-0.103155,-0.692455,-0.153368,-0.193644,3.17773,-0.318075,-0.634911,0.573315
26,40,-0.0872665,-0.698132,-0.174533,-0.174533,-0.103155,-0.692455,-0.153368,-0.193644,3.17773,-0.318075,-0.634913,0.573316
26,40,-0.0872665,-0.698132,-0.174533,-0.174533,-0.103155,-0.692455,-0.153368,-0.193644,3.17773,-0.318075,-0.634916,0.573317
26,40,-0.0872665,-0.698132,-0.174533,-0.174533,-0.103155,-0.692455,-0.153368,-0.193644,3.17773,-0.318075,-0.634918,0.573318
26,40,-0.0872665,-0.698132,-0.174533,-0.174533,-0.103155,-0.692455,-0.153368,-0.193644,3.17773,-0.318075,-0.63492,0.573318
26,40,-0.0872665,-0.698132,-0.174533,-0.174533,-0.103155,-0.692455,-0.153368,-0.193644,3.17773,-0.318075,-0.634922,0.573319
26,40,-0.0872665,-0.698132,-0.174533,-0.174533,-0.103155,-0.692455,-0.153368,-0.193644,3.17773,-0.318075,-0.634924,0.57332
26,40,-0.0872665,-0.698132,-0.174533,-0.174533,-0.103155,-0.692455,-0.153368,-0.193644,3.17773,-0.318075,-0.634926,0.57332
26,40,-0.0872665,-0.698132,-0.174533,-0.174533,-0.103155,-0.692455,-0.153368,-0.193644,3.17773,-0.318075,-0.634927,0.573321
26,40,-0.0872665,-0.698132,-0.174533,-0.174533,-0.103155,-0.692455,-0.153368,-0.193644,3.17773,-0.318075,-0.634929,0.573321
26,40,-0.0872665,-0.698132,-0.174533,-0.174533,-0.103155,-0.692455,-0.153368,-0.193644,3.17773,-0.318075,-0.634931,0.573322
26,40,-0.0872665,-0.698132,-0.174533,-0.174533,-0.103155,-0.692455,-0.153368,-0.193644,3.17773,-0.318075,-0.634932,0.573322
26,40,-0.0872665,-0.698132,-0.174533,-0.174533,-0.103155,-0.692455,-0.153368,-0.193644,3.17773,-0.318075,-0.634933,0.573322
26,40,-0.0872665,-0.698132,-0.174533,-0.174533,-0.103155,-0.692455,-0.153368,-0.193644,3.17773,-0.318075,-0.634935,0.573323
26,40,-0.0872665,-0.698132,-0.174533,-0.174533,-0.103155,-0.692455,-0.153368,-0.193644,3.17773,-0.318075,-0.634936,0.573323
26,40,-0.0872665,-0.698132,-0.174533,-0.174533,-0.103155,-0.692455,-0.153368,-0.193644,3.17773,-0.318075,-0.634937,0.573324
26,40,-0.0872665,-0.698132,-0.174533,-0.174533,-0.103155,-0.692455,-0.153368,-0.193644,3.17773,-0.318075,-0.634938,0.573324
26,40,-0.0872665,-0.698132,-0.174533,-0.174533,-0.103155,-0.692455,-0.153371,-0.193703,3.17773,-0.318075,-0.634861,0.575109
26,40,-0.0872665,-0.698132,-0.174533,-0.174533,-0.103155,-0.692455,-0.153371,-0.193703,3.17773,-0.318075,-0.634862,0.57511
26,40,-0.0872665,-0.698132,-0.174533,-0.174533,-0.103155,-0.692455,-0.153371,-0.193703,3.17773,-0.318075,-0.634863,0.57511
26,40,-0.0872665,-0.698132,-0.174533,-0.174533,-0.103155,-0.692455,-0.153371,-0.193703,3.17773,-0.318075,-0.634864,0.57511
26,40,-0.0872665,-0.698132,-0.174533,-0.174533,-0.103155,-0.692455,-0.153371,-0.193703,3.17773,-0.318075,-0.634865,0.575111
26,40,-0.0872665,-0.698132,-0.174533,-0.174533,-0.103155,-0.692455,-0.153371,-0.193703,3.17773,-0.318075,-0.634866,0.575111
26,40,-0.0872665,-0.698132,-0.174533,-0.174533,-0.103155,-0.692455,-0.153371,-0.193703,3.17773,-0.318075,-0.634867,0.575111
26,40,-0.0872665,-0.698132,-0.174533,-0.174533,-0.103155,-0.692455,-0.153371,-0.193703,3.17773,-0.318075,-0.634867,0.575111
26,40,-0.0872665,-0.698132,-0.174533,-0.174533,-0.103155,-0.692455,-0.153371,-0.193703,3.17773,-0.318075,-0.634868,0.575112
26,40,-0.0872665,-0.698132,-0.174533,-0.174533,-0.103155,-0.692455,-0.153371,-0.193703,3.17773,-0.318075,-0.634869,0.575112
26,40,-0.0872665,-0.698132,-0.174533,-0.174533,-0.103155,-0.692455,-0.153371,-0.193703,3.17773,-0.318075,-0.63487,0.575112
26,40,-0.0872665,-0.698132,-0.174533,-0.174533,-0.103155,-0.692455,-0.153371,-0.193703,3.17773,-0.318075,-0.634871,0.575112
26,40,-0.0872665,-0.698132,-0.174533,-0.174533,-0.103155,-0.692455,-0.153371,-0.193703,3.17773,-0.318075,-0.634871,0.575113
26,40,-0.0872665,-0.698132,-0.174533,-0.174533,-0.103155,-0.692455,-0.153371,-0.193703,3.17773,-0.318075,-0.634872,0.575113
26,40,-0.0872665,-0.698132,-0.174533,-0.174533,-0.103155,-0.692455,-0.153371,-0.193703,3.17773,-0.318075,-0.634873,0.575113
26,40,-0.0872665,-0.698132,-0.174533,-0.174533,-0.103155,-0.692455,-0.153371,-0.193703,3.17773,-0.318075,-0.634873,0.575113
26,40,-0.0872665,-0.698132,-0.174533,-0.174533,-0.103155,-0.692455,-0.153371,-0.193703,3.17773,-0.318075,-0.634874,0.575113
26,40,-0.0872665,-0.698132,-0.174533,-0.174533,-0.103155,-0.692455,-0.153371,-0.193703,3.17773,-0.318075,-0.634874,0.575114
26,40,-0.0872665,-0.698132,-0.174533,-0.174533,-0.103155,-0.692455,-0.153371,-0.193703,3.17773,-0.318075,-0.634875,0.575114
26,40,-0.0872665,-0.698132,-0.174533,-0.174533,-0.103155,-0.692455,-0.153371,-0.193703,3.17773,-0.318075,-0.634876,0.575114
26,40,-0.0872665,-0.698132,-0.174533,-0.174533,-0.103155,-0.692455,-0.153371,-0.193703,3.17773,-0.318075,-0.634876,0.575114
26,40,-0.0872665,-0.698132,-0.174533,-0.174533,-0.103155,-0.692455,-0.153371,-0.193703,3.17773,-0.318075,-0.634877,0.575114
26,40,-0.0872665,-0.698132,-0.174533,-0.174533,-0.103155,-0.692455,-0.153371,-0.193703,3.17773,-0.318075,-0.634877,0.575114
26,40,-0.0872665,-0.698132,-0.174533,-0.174533,-0.103155,-0.692455,-0.153371,-0.193703,3.17773,-0.318075,-0.634878,0.575115
26,40,-0.0872665,-0.698132,-0.174533,-0.174533,-0.103155,-0.692455,-0.153371,-0.193703,3.17773,-0.318075,-0.634878,0.575115
26,40,-0.0872665,-0.698132,-0.174533,-0.174533,-0.103155,-0.692455,-0.153371,-0.193703,3.17773,-0.318075,-0.634879,0.575115
26,40,-0.0872665,-0.698132,-0.174533,-0.174533,-0.103155,-0.692455,-0.153371,-0.193703,3.17773,-0.318075,-0.634879,0.575115
26,40,-0.0872665,-0.698132,-0.174533,-0.174533,-0.103155,-0.692455,-0.153371,-0.193703,3.17773,-0.318075,-0.63488,0.575115
26,40,-0.0872665,-0.698132,-0.174533,-0.174533,-0.103155,-0.692455,-0.153371,-0.193703,3.17773,-0.318075,-0.63488,0.575115
26,40,-0.0872665,-0.698132,-0.174533,-0.174533,-0.103155,-0.692455,-0.153371,-0.193703,3.17773,-0.318075,-0.63488,0.575116
26,40,-0.0872665,-0.698132,-0.174533,-0.174533,-0.103155,-0.692455,-0.153304,-0.193661,3.17773,-0.318075,-0.636876,0.573847
26,40,-0.0872665,-0.698132,-0.174533,-0.174533,-0.103155,-0.692455,-0.153304,-0.193661,3.17773,-0.318075,-0.636876,0.573848
26,40,-0.0872665,-0.698132,-0.174533,-0.174533,-0.103155,-0.692455,-0.153304,-0.193661,3.17773,-0.318075,-0.636877,0.573848
26,40,-0.0872665,-0.698132,-0.174533,-0.174533,-0.103155,-0.692455,-0.153304,-0.193661,3.17773,-0.318075,-0.636877,0.573848
26,40,-0.0872665,-0.698132,-0.174533,-0.174533,-0.103155,-0.692455,-0.153304,-0.193661,3.17773,-0.318075,-0.636878,0.573848
26,40,-0.0872665,-0.698132,-0.174533,-0.174533,-0.103155,-0.692455,-0.153304,-0.193661,3.17773,-0.318075,-0.636878,0.573848
26,40,-0.0872665,-0.698132,-0.174533,-0.174533,-0.103155,-0.692455,-0.153365,-0.193642,3.17773,-0.318075,-0.635013,0.573258
26,40,-0.0872665,-0.698132,-0.174533,-0.174533,-0.103155,-0.692455,-0.153365,-0.193642,3.17773,-0.318075,-0.635013,0.573258
26,40,-0.0872665,-0.698132,-0.174533,-0.174533,-0.103155,-0.692455,-0.153365,-0.193642,3.17773,-0.318075,-0.635013,0.573258
26,40,-0.0872665,-0.698132,-0.174533,-0.174533,-0.103155,-0.692455,-0.153365,-0.193642,3.17773,-0.318075,-0.635013,0.573258
26,40,-0.0872665,-0.698132,-0.174533,-0.174533,-0.103155,-0.692455,-0.153368,-0.193701,3.17773,-0.318075,-0.634934,0.575046
26,40,-0.0872665,-0.698132,-0.174533,-0.174533,-0.103155,-0.692455,-0.153368,-0.193701,3.17773,-0.318075,-0.634934,0.575046
26,40,-0.0872665,-0.698132,-0.174533,-0.174533,-0.103155,-0.692455,-0.153368,-0.193701,3.17773,-0.318075,-0.634934,0.575046
26,40,-0.0872665,-0.698132,-0.174533,-0.174533,-0.103155,-0.692455,-0.153368,-0.193701,3.17773,-0.318075,-0.634934,0.575046
26,40,-0.0872665,-0.698132,-0.174533,-0.174533,-0.103155,-0.692455,-0.153368,-0.193701,3.17773,-0.318075,-0.634934,0.575046
26,40,-0.0872665,-0.698132,-0.174533,-0.174533,-0.103155,-0.692455,-0.153368,-0.193701,3.17773,-0.318075,-0.634934,0.575046
26,40,-0.0872665,-0.698132,-0.174533,-0.174533,-0.103155,-0.692455,-0.153368,-0.193701,3.17773,-0.318075,-0.634934,0.575046
26,40,-0.0872665,-0.698132,-0.174533,-0.174533,-0.103155,-0.692455,-0.153368,-0.193701,3.17773,-0.318075,-0.634934,0.575046
26,40,-0.0872665,-0.698132,-0.174533,-0.174533,-0.103155,-0.692455,-0.153368,-0.193701,3.17773,-0.318075,-0.634934,0.575046
26,40,-0.0872665,-0.698132,-0.174533,-0.174533,-0.103155,-0.692455,-0.153368,-0.193701,3.17773,-0.318075,-0.634934,0.575046
26,40,-0.0872665,-0.698132,-0.174533,-0.174533,-0.103155,-0.692455,-0.153368,-0.193701,3.17773,-0.318075,-0.634934,0.575046
26,40,-0.0872665,-0.698132,-0.174533,-0.174533,-0.103155,-0.692455,-0.153368,-0.193701,3.17773,-0.318075,-0.634934,0.575046
26,40,-0.0872665,-0.698132,-0.174533,-0.174533,-0.103155,-0.692455,-0.153368,-0.193701,3.17773,-0.318075,-0.634934,0.575046
26,40,-0.0872665,-0.698132,-0.174533,-0.174533,-0.103155,-0.692455,-0.153368,-0.193701,3.17773,-0.318075,-0.634934,0.575046
26,40,-0.0872665,-0.698132,-0.174533,-0.174533,-0.103155,-0.692455,-0.153368,-0.193701,3.17773,-0.318075,-0.634934,0.575046
26,40,-0.0872665,-0.698132,-0.174533,-0.174533,-0.103155,-0.692455,-0.153368,-0.193701,3.17773,-0.318075,-0.634934,0.575046
26,40,-0.0872665,-0.698132,-0.174533,-0.174533,-0.103155,-0.692455,-0.153368,-0.193701,3.17773,-0.318075,-0.634934,0.575046
26,40,-0.0872665,-0.698132,-0.174533,-0.174533,-0.103155,-0.692455,-0.153368,-0.193701,3.17773,-0.318075,-0.634934,0.575046
26,40,-0.0872665,-0.698132,-0.174533,-0.174533,-0.103155,-0.692455,-0.153368,-0.193701,3.17773,-0.318075,-0.634934,0.575046
26,40,-0.0872665,-0.698132,-0.174533,-0.174533,-0.103155,-0.692455,-0.153368,-0.193701,3.17773,-0.318075,-0.634934,0.575046
26,40,-0.0872665,-0.698132,-0.174533,-0.174533,-0.103155,-0.692455,-0.153368,-0.193701,3.17773,-0.318075,-0.634934,0.575046
26,40,-0.0872665,-0.698132,-0.174533,-0.174533,-0.103155,-0.692455,-0.153368,-0.193701,3.17773,-0.318075,-0.634934,0.575046
26,40,-0.0872665,-0.698132,-0.174533,-0.174533,-0.103155,-0.692455,-0.153368,-0.193701,3.17773,-0.318075,-0.634934,0.575046
26,40,-0.0872665,-0.698132,-0.174533,-0.174533,-0.103155,-0.692455,-0.153368,-0.193701,3.17773,-0.318075,-0.634934,0.575046
26,40,-0.0872665,-0.698132,-0.174533,-0.174533,-0.103155,-0.692455,-0.153368,-0.193701,3.17773,-0.318075,-0.634934,0.575046
26,40,-0.0872665,-0.698132,-0.174533,-0.174533,-0.103155,-0.692455,-0.153368,-0.193701,3.17773,-0.318075,-0.634934,0.575046
26,40,-0.0872665,-0.698132,-0.174533,-0.174533,-0.103155,-0.692455,-0.153368,-0.193701,3.17773,-0.318075,-0.634934,0.575046
26,40,-0.0872665,-0.698132,-0.174533,-0.174533,-0.103155,-0.692455,-0.153368,-0.193701,3.17773,-0.318075,-0.634934,0.575046
26,40,-0.0872665,-0.698132,-0.174533,-0.174533,-0.103155,-0.692455,-0.153368,-0.193701,3.17773,-0.318075,-0.634934,0.575046
26,40,-0.0872665,-0.698132,-0.174533,-0.174533,-0.103155,-0.692455,-0.153368,-0.193701,3.17773,-0.318075,-0.634934,0.575046
26,40,-0.0872665,-0.698132,-0.174533,-0.174533,-0.103155,-0.692455,-0.153368,-0.193701,3.17773,-0.318075,-0.634934,0.575046
26,40,-0.0872665,-0.698132,-0.174533,-0.174533,-0.103155,-0.692455,-0.153368,-0.193701,3.17773,-0.318075,-0.634934,0.575046
26,40,-0.0872665,-0.698132,-0.174533,-0.174533,-0.103155,-0.692455,-0.153368,-0.193701,3.17773,-0.318075,-0.634934,0.575046
26,40,-0.0872665,-0.698132,-0.174533,-0.174533,-0.103155,-0.692455,-0.153368,-0.193701,3.17773,-0.318075,-0.634934,0.575046
26,40,-0.0872665,-0.698132,-0.174533,-0.174533,-0.103155,-0.692455,-0.153368,-0.193701,3.17773,-0.318075,-0.634934,0.575046
26,40,-0.0872665,-0.698132,-0.174533,-0.174533,-0.103155,-0.692455,-0.153368,-0.193701,3.17773,-0.318075,-0.634934,0.575046
26,40,-0.0872665,-0.698132,-0.174533,-0.174533,-0.103155,-0.692455,-0.153368,-0.193701,3.17773,-0.318075,-0.634934,0.575046
26,40,-0.0872665,-0.698132,-0.174533,-0.174533,-0.103155,-0.692455,-0.153368,-0.193701,3.17773,-0.318075,-0.634934,0.575046
26,40,-0.0872665,-0.698132,-0.174533,-0.174533,-0.103155,-0.692455,-0.153368,-0.193701,3.17773,-0.318075,-0.634936,0.575046
26,40,-0.0872665,-0.698132,-0.174533,-0.174533,-0.103155,-0.692455,-0.153368,-0.193701,3.17773,-0.318075,-0.634937,0.575047
26,40,-0.0872665,-0.698132,-0.174533,-0.174533,-0.103155,-0.692455,-0.153368,-0.193701,3.17773,-0.318075,-0.634938,0.575047
26,40,-0.0872665,-0.698132,-0.174533,-0.174533,-0.103155,-0.692455,-0.153371,-0.193761,3.17773,-0.318075,-0.634861,0.576825
26,40,-0.0872665,-0.698132,-0.174533,-0.174533,-0.103155,-0.692455,-0.153371,-0.193761,3.17773,-0.318075,-0.634863,0.576826
26,40,-0.0872665,-0.698132,-0.174533,-0.174533,-0.103155,-0.692455,-0.153371,-0.193761,3.17773,-0.318075,-0.634864,0.576826
26,40,-0.0872665,-0.698132,-0.174533,-0.174533,-0.103155,-0.692455,-0.153371,-0.193761,3.17773,-0.318075,-0.634865,0.576827
26,40,-0.0872665,-0.698132,-0.174533,-0.174533,-0.103155,-0.692455,-0.153371,-0.193761,3.17773,-0.318075,-0.634866,0.576827
26,40,-0.0872665,-0.698132,-0.174533,-0.174533,-0.103155,-0.692455,-0.153432,-0.193741,3.17773,-0.318075,-0.633051,0.576253
26,40,-0.0872665,-0.698132,-0.174533,-0.174533,-0.103155,-0.692455,-0.153432,-0.193741,3.17773,-0.318075,-0.633051,0.576253
26,40,-0.0872665,-0.698132,-0.174533,-0.174533,-0.103155,-0.692455,-0.153432,-0.193741,3.17773,-0.318075,-0.633051,0.576253
26,40,-0.0872665,-0.698132,-0.174533,-0.174533,-0.103155,-0.692455,-0.153432,-0.193741,3.17773,-0.318075,-0.633051,0.576253
26,40,-0.0872665,-0.698132,-0.174533,-0.174533,-0.103155,-0.692455,-0.153432,-0.193741,3.17773,-0.318075,-0.633051,0.576253
26,40,-0.0872665,-0.698132,-0.174533,-0.174533,-0.103155,-0.692455,-0.153432,-0.193741,3.17773,-0.318075,-0.633051,0.576253
26,40,-0.0872665,-0.698132,-0.174533,-0.174533,-0.103155,-0.692455,-0.153432,-0.193741,3.17773,-0.318075,-0.633051,0.576253
26,40,-0.0872665,-0.698132,-0.174533,-0.174533,-0.103155,-0.692455,-0.153432,-0.193741,3.17773,-0.318075,-0.633051,0.576253
26,40,-0.0872665,-0.698132,-0.174533,-0.174533,-0.103155,-0.692455,-0.153432,-0.193741,3.17773,-0.318075,-0.633051,0.576253
26,40,-0.0872665,-0.698132,-0.174533,-0.174533,-0.103155,-0.692455,-0.153432,-0.193741,3.17773,-0.318075,-0.633051,0.576253
26,40,-0.0872665,-0.698132,-0.174533,-0.174533,-0.103155,-0.692455,-0.153432,-0.193741,3.17773,-0.318075,-0.633051,0.576253
26,40,-0.0872665,-0.698132,-0.174533,-0.174533,-0.103155,-0.692455,-0.153432,-0.193741,3.17773,-0.318075,-0.633051,0.576253
26,40,-0.0872665,-0.698132,-0.174533,-0.174533,-0.103155,-0.692455,-0.153432,-0.193741,3.17773,-0.318075,-0.633051,0.576253
26,40,-0.0872665,-0.698132,-0.174533,-0.174533,-0.103155,-0.692455,-0.153432,-0.193741,3.17773,-0.318075,-0.633051,0.576253
26,40,-0.0872665,-0.698132,-0.174533,-0.174533,-0.103155,-0.692455,-0.153432,-0.193741,3.17773,-0.318075,-0.633051,0.576253
26,40,-0.0872665,-0.698132,-0.174533,-0.174533,-0.103155,-0.692455,-0.153432,-0.193741,3.17773,-0.318075,-0.633051,0.576253
26,40,-0.0872665,-0.698132,-0.174533,-0.174533,-0.103155,-0.692455,-0.153432,-0.193741,3.17773,-0.318075,-0.633051,0.576253
26,40,-0.0872665,-0.698132,-0.174533,-0.174533,-0.103155,-0.692455,-0.153434,-0.193801,3.17773,-0.318075,-0.632973,0.578035
26,40,-0.0872665,-0.698132,-0.174533,-0.174533,-0.103155,-0.692455,-0.153434,-0.193801,3.17773,-0.318075,-0.632973,0.578035
26,40,-0.0872665,-0.698132,-0.174533,-0.174533,-0.103155,-0.692455,-0.153434,-0.193801,3.17773,-0.318075,-0.632973,0.578035
26,40,-0.0872665,-0.698132,-0.174533,-0.174533,-0.103155,-0.692455,-0.153434,-0.193801,3.17773,-0.318075,-0.632973,0.578035
26,40,-0.0872665,-0.698132,-0.174533,-0.174533,-0.103155,-0.692455,-0.153434,-0.193801,3.17773,-0.318075,-0.632973,0.578035
26,40,-0.0872665,-0.698132,-0.174533,-0.174533,-0.103155,-0.692455,-0.153434,-0.193801,3.17773,-0.318075,-0.632973,0.578035
26,40,-0.0872665,-0.698132,-0.174533,-0.174533,-0.103155,-0.692455,-0.153434,-0.193801,3.17773,-0.318075,-0.632973,0.578035
26,40,-0.0872665,-0.698132,-0.174533,-0.174533,-0.103155,-0.692455,-0.153434,-0.193801,3.17773,-0.318075,-0.632973,0.578035
26,40,-0.0872665,-0.698132,-0.174533,-0.174533,-0.103155,-0.692455,-0.153434,-0.193801,3.17773,-0.318075,-0.632973,0.578035
26,40,-0.0872665,-0.698132,-0.174533,-0.174533,-0.103155,-0.692455,-0.153434,-0.193801,3.17773,-0.318075,-0.632973,0.578035
26,40,-0.0872665,-0.698132,-0.174533,-0.174533,-0.103155,-0.692455,-0.153434,-0.193801,3.17773,-0.318075,-0.632973,0.578035
26,40,-0.0872665,-0.698132,-0.174533,-0.174533,-0.103155,-0.692455,-0.153434,-0.193801,3.17773,-0.318075,-0.632973,0.578035
26,40,-0.0872665,-0.698132,-0.174533,-0.174533,-0.103155,-0.692455,-0.153434,-0.193801,3.17773,-0.318075,-0.632973,0.578035
26,40,-0.0872665,-0.698132,-0.174533,-0.174533,-0.103155,-0.692455,-0.153434,-0.193801,3.17773,-0.318075,-0.632973,0.578035
26,40,-0.0872665,-0.698132,-0.174533,-0.174533,-0.103155,-0.692455,-0.153434,-0.193801,3.17773,-0.318075,-0.632973,0.578035
26,40,-0.0872665,-0.698132,-0.174533,-0.174533,-0.103155,-0.692455,-0.153434,-0.193801,3.17773,-0.318075,-0.632973,0.578035
26,40,-0.0872665,-0.698132,-0.174533,-0.174533,-0.103155,-0.692455,-0.153434,-0.193801,3.17773,-0.318075,-0.632973,0.578035
26,40,-0.0872665,-0.698132,-0.174533,-0.174533,-0.103155,-0.692455,-0.153434,-0.193801,3.17773,-0.318075,-0.632973,0.578035
26,40,-0.0872665,-0.698132,-0.174533,-0.174533,-0.103155,-0.692455,-0.153434,-0.193801,3.17773,-0.318075,-0.632973,0.578035
26,40,-0.0872665,-0.698132,-0.174533,-0.174533,-0.103155,-0.692455,-0.153434,-0.193801,3.17773,-0.318075,-0.632973,0.578035
26,40,-0.0872665,-0.698132,-0.174533,-0.174533,-0.103155,-0.692455,-0.153434,-0.193801,3.17773,-0.318075,-0.632973,0.578035
26,40,-0.0872665,-0.698132,-0.174533,-0.174533,-0.103155,-0.692455,-0.153434,-0.193801,3.17773,-0.318075,-0.632973,0.578035
26,40,-0.0872665,-0.698132,-0.174533,-0.174533,-0.103155,-0.692455,-0.153429,-0.193739,3.17773,-0.318075,-0.63313,0.576196
26,40,-0.0872665,-0.698132,-0.174533,-0.174533,-0.103155,-0.692455,-0.153429,-0.193739,3.17773,-0.318075,-0.63313,0.576196
26,40,-0.0872665,-0.698132,-0.174533,-0.174533,-0.103155,-0.692455,-0.153429,-0.193739,3.17773,-0.318075,-0.63313,0.576196
26,40,-0.0872665,-0.698132,-0.174533,-0.174533,-0.103155,-0.692455,-0.153429,-0.193739,3.17773,-0.318075,-0.63313,0.576196
26,40,-0.0872665,-0.698132,-0.174533,-0.174533,-0.103155,-0.692455,-0.153429,-0.193739,3.17773,-0.318075,-0.63313,0.576196
26,40,-0.0872665,-0.698132,-0.174533,-0.174533,-0.103155,-0.692455,-0.153429,-0.193739,3.17773,-0.318075,-0.63313,0.576196
26,40,-0.0872665,-0.698132,-0.174533,-0.174533,-0.103155,-0.692455,-0.153429,-0.193739,3.17773,-0.318075,-0.63313,0.576196
26,40,-0.0872665,-0.698132,-0.174533,-0.174533,-0.103155,-0.692455,-0.153429,-0.193739,3.17773,-0.318075,-0.63313,0.576196
26,40,-0.0872665,-0.698132,-0.174533,-0.174533,-0.103155,-0.692455,-0.153429,-0.193739,3.17773,-0.318075,-0.63313,0.576196
26,40,-0.0872665,-0.698132,-0.174533,-0.174533,-0.103155,-0.692455,-0.153429,-0.193739,3.17773,-0.318075,-0.63313,0.576196
26,40,-0.0872665,-0.698132,-0.174533,-0.174533,-0.103155,-0.692455,-0.153429,-0.193739,3.17773,-0.318075,-0.63313,0.576196
26,40,-0.0872665,-0.698132,-0.174533,-0.174533,-0.103155,-0.692455,-0.153429,-0.193739,3.17773,-0.318075,-0.63313,0.576196
26,40,-0.0872665,-0.698132,-0.174533,-0.174533,-0.103155,-0.692455,-0.153429,-0.193739,3.17773,-0.318075,-0.63313,0.576196
26,40,-0.0872665,-0.698132,-0.174533,-0.174533,-0.103155,-0.692455,-0.153429,-0.193739,3.17773,-0.318075,-0.63313,0.576196
26,40,-0.0872665,-0.698132,-0.174533,-0.174533,-0.103155,-0.692455,-0.153429,-0.193739,3.17773,-0.318075,-0.63313,0.576196
26,40,-0.0872665,-0.698132,-0.174533,-0.174533,-0.103155,-0.692455,-0.153429,-0.193739,3.17773,-0.318075,-0.63313,0.576196
26,40,-0.0872665,-0.698132,-0.174533,-0.174533,-0.103155,-0.692455,-0.153429,-0.193739,3.17773,-0.318075,-0.63313,0.576196
26,40,-0.0872665,-0.698132,-0.174533,-0.174533,-0.103155,-0.692455,-0.153429,-0.193739,3.17773,-0.318075,-0.63313,0.576196
26,40,-0.0872665,-0.698132,-0.174533,-0.174533,-0.103155,-0.692455,-0.153429,-0.193739,3.17773,-0.318075,-0.63313,0.576196
26,40,-0.0872665,-0.698132,-0.174533,-0.174533,-0.103155,-0.692455,-0.153429,-0.193739,3.17773,-0.318075,-0.63313,0.576196
26,40,-0.0872665,-0.698132,-0.174533,-0.174533,-0.103155,-0.692455,-0.153429,-0.193739,3.17773,-0.318075,-0.63313,0.576196
26,40,-0.0872665,-0.698132,-0.174533,-0.174533,-0.103155,-0.692455,-0.153432,-0.193799,3.17773,-0.318075,-0.633052,0.577986
26,40,-0.0872665,-0.698132,-0.174533,-0.174533,-0.103155,-0.692455,-0.153432,-0.193799,3.17773,-0.318075,-0.633052,0.577986
26,40,-0.0872665,-0.698132,-0.174533,-0.174533,-0.103155,-0.692455,-0.153432,-0.193799,3.17773,-0.318075,-0.633052,0.577986
26,40,-0.0872665,-0.698132,-0.174533,-0.174533,-0.103155,-0.692455,-0.153432,-0.193799,3.17773,-0.318075,-0.633052,0.577986
26,40,-0.0872665,-0.698132,-0.174533,-0.174533,-0.103155,-0.692455,-0.153432,-0.193799,3.17773,-0.318075,-0.633052,0.577986
26,40,-0.0872665,-0.698132,-0.174533,-0.174533,-0.103155,-0.692455,-0.153493,-0.19378,3.17773,-0.318075,-0.631221,0.577407
26,40,-0.0872665,-0.698132,-0.174533,-0.174533,-0.103155,-0.692455,-0.153493,-0.19378,3.17773,-0.318075,-0.631221,0.577407
26,40,-0.0872665,-0.698132,-0.174533,-0.174533,-0.103155,-0.692455,-0.153493,-0.19378,3.17773,-0.318075,-0.631221,0.577407
26,40,-0.0872665,-0.698132,-0.174533,-0.174533,-0.103155,-0.692455,-0.153493,-0.19378,3.17773,-0.318075,-0.631221,0.577407
26,40,-0.0872665,-0.698132,-0.174533,-0.174533,-0.103155,-0.692455,-0.153493,-0.19378,3.17773,-0.318075,-0.631221,0.577407
26,40,-0.0872665,-0.698132,-0.174533,-0.174533,-0.103155,-0.692455,-0.153493,-0.19378,3.17773,-0.318075,-0.631221,0.577407
26,40,-0.0872665,-0.698132,-0.174533,-0.174533,-0.103155,-0.692455,-0.153493,-0.19378,3.17773,-0.318075,-0.631221,0.577407
26,40,-0.0872665,-0.698132,-0.174533,-0.174533,-0.103155,-0.692455,-0.153493,-0.19378,3.17773,-0.318075,-0.631221,0.577407
26,40,-0.0872665,-0.698132,-0.174533,-0.174533,-0.103155,-0.692455,-0.153426,-0.193737,3.17773,-0.318075,-0.633205,0.576147
26,40,-0.0872665,-0.698132,-0.174533,-0.174533,-0.103155,-0.692455,-0.153426,-0.193737,3.17773,-0.318075,-0.633205,0.576147
26,40,-0.0872665,-0.698132,-0.174533,-0.174533,-0.103155,-0.692455,-0.153426,-0.193737,3.17773,-0.318075,-0.633205,0.576147
26,40,-0.0872665,-0.698132,-0.174533,-0.174533,-0.103155,-0.692455,-0.153426,-0.193737,3.17773,-0.318075,-0.633205,0.576147
26,40,-0.0872665,-0.698132,-0.174533,-0.174533,-0.103155,-0.692455,-0.153426,-0.193737,3.17773,-0.318075,-0.633205,0.576147
26,40,-0.0872665,-0.698132,-0.174533,-0.174533,-0.103155,-0.692455,-0.153359,-0.193695,3.17773,-0.318075,-0.6352,0.574879
26,40,-0.0872665,-0.698132,-0.174533,-0.174533,-0.103155,-0.692455,-0.153359,-0.193695,3.17773,-0.318075,-0.6352,0.574879
26,40,-0.0872665,-0.698132,-0.174533,-0.174533,-0.103155,-0.692455,-0.153359,-0.193695,3.17773,-0.318075,-0.6352,0.574879
26,40,-0.0872665,-0.698132,-0.174533,-0.174533,-0.103155,-0.692455,-0.153359,-0.193695,3.17773,-0.318075,-0.6352,0.574879
26,40,-0.0872665,-0.698132,-0.174533,-0.174533,-0.103155,-0.692455,-0.153359,-0.193695,3.17773,-0.318075,-0.6352,0.574879
26,40,-0.0872665,-0.698132,-0.174533,-0.174533,-0.103155,-0.692455,-0.153359,-0.193695,3.17773,-0.318075,-0.6352,0.574879
26,40,-0.0872665,-0.698132,-0.174533,-0.174533,-0.103155,-0.692404,-0.153359,-0.193695,3.17773,-0.320924,-0.6352,0.574879
26,40,-0.0872665,-0.698132,-0.174533,-0.174533,-0.103155,-0.692404,-0.153359,-0.193695,3.17773,-0.320924,-0.6352,0.574879
26,40,-0.0872665,-0.698132,-0.174533,-0.174533,-0.103155,-0.692404,-0.153293,-0.193653,3.17773,-0.320924,-0.637203,0.573607
26,40,-0.0872665,-0.698132,-0.174533,-0.174533,-0.103155,-0.692404,-0.153354,-0.193633,3.17773,-0.320924,-0.635367,0.573027
26,40,-0.0872665,-0.698132,-0.174533,-0.174533,-0.103155,-0.692404,-0.153354,-0.193633,3.17773,-0.320924,-0.635367,0.573027
26,40,-0.0872665,-0.698132,-0.174533,-0.174533,-0.103155,-0.692404,-0.153354,-0.193633,3.17773,-0.320924,-0.635367,0.573027
26,40,-0.0872665,-0.698132,-0.174533,-0.174533,-0.103155,-0.692404,-0.153354,-0.193633,3.17773,-0.320924,-0.635367,0.573027
26,40,-0.0872665,-0.698132,-0.174533,-0.174533,-0.103155,-0.692404,-0.153354,-0.193633,3.17773,-0.320924,-0.635367,0.573027
26,40,-0.0872665,-0.698132,-0.174533,-0.174533,-0.103155,-0.692404,-0.153357,-0.193693,3.17773,-0.320924,-0.635289,0.574808
26,40,-0.0872665,-0.698132,-0.174533,-0.174533,-0.103155,-0.692404,-0.153357,-0.193693,3.17773,-0.320924,-0.635289,0.574808
26,40,-0.0872665,-0.698132,-0.174533,-0.174533,-0.103155,-0.692404,-0.153357,-0.193693,3.17773,-0.320924,-0.635289,0.574808
26,40,-0.0872665,-0.698132,-0.174533,-0.174533,-0.103155,-0.692404,-0.153357,-0.193693,3.17773,-0.320924,-0.635289,0.574808
26,40,-0.0872665,-0.698132,-0.174533,-0.174533,-0.103155,-0.692404,-0.153357,-0.193693,3.17773,-0.320924,-0.635289,0.574808
26,40,-0.0872665,-0.698132,-0.174533,-0.174533,-0.103155,-0.692404,-0.15329,-0.193651,3.17773,-0.320924,-0.637298,0.573532
26,40,-0.0872665,-0.698132,-0.174533,-0.174533,-0.103155,-0.692404,-0.15329,-0.193651,3.17773,-0.320924,-0.637298,0.573532
26,40,-0.0872665,-0.698132,-0.174533,-0.174533,-0.103155,-0.692404,-0.15329,-0.193651,3.17773,-0.320924,-0.637298,0.573532
26,40,-0.0872665,-0.698132,-0.174533,-0.174533,-0.103155,-0.692404,-0.15329,-0.193651,3.17773,-0.320924,-0.637298,0.573532
26,40,-0.0872665,-0.698132,-0.174533,-0.174533,-0.103155,-0.692404,-0.153223,-0.193608,3.17773,-0.320924,-0.63935,0.572228
26,40,-0.0872665,-0.698132,-0.174533,-0.174533,-0.103155,-0.692404,-0.153223,-0.193608,3.17773,-0.320924,-0.63935,0.572228
26,40,-0.0872665,-0.698132,-0.174533,-0.174533,-0.103155,-0.692404,-0.153223,-0.193608,3.17773,-0.320924,-0.63935,0.572228
26,40,-0.0872665,-0.698132,-0.174533,-0.174533,-0.103155,-0.692404,-0.153157,-0.193566,3.17773,-0.320924,-0.641442,0.570899
26,40,-0.0872665,-0.698132,-0.174533,-0.174533,-0.103155,-0.692404,-0.153157,-0.193566,3.17773,-0.320924,-0.641442,0.570899
26,40,-0.0872665,-0.698132,-0.174533,-0.174533,-0.103155,-0.692404,-0.153157,-0.193566,3.17773,-0.320924,-0.641442,0.570899
26,40,-0.0872665,-0.698132,-0.174533,-0.174533,-0.103155,-0.692404,-0.153157,-0.193566,3.17773,-0.320924,-0.641442,0.570899
26,40,-0.0872665,-0.698132,-0.174533,-0.174533,-0.103155,-0.692404,-0.153157,-0.193566,3.17773,-0.320924,-0.641442,0.570899
26,40,-0.0872665,-0.698132,-0.174533,-0.174533,-0.103155,-0.692404,-0.153157,-0.193566,3.17773,-0.320924,-0.641442,0.570899
26,40,-0.0872665,-0.698132,-0.174533,-0.174533,-0.103155,-0.692404,-0.15309,-0.193524,3.17773,-0.320924,-0.643456,0.56962
26,40,-0.0872665,-0.698132,-0.174533,-0.174533,-0.103155,-0.692404,-0.153154,-0.193564,3.17773,-0.320924,-0.641533,0.570824
26,40,-0.0872665,-0.698132,-0.174533,-0.174533,-0.103155,-0.692404,-0.153154,-0.193564,3.17773,-0.320924,-0.641533,0.570824
26,40,-0.0872665,-0.698132,-0.174533,-0.174533,-0.103155,-0.692404,-0.153154,-0.193564,3.17773,-0.320924,-0.641533,0.570824
26,40,-0.0872665,-0.698132,-0.174533,-0.174533,-0.103155,-0.692404,-0.153154,-0.193564,3.17773,-0.320924,-0.641533,0.570824
26,40,-0.0872665,-0.698132,-0.174533,-0.174533,-0.103155,-0.692404,-0.153154,-0.193564,3.17773,-0.320924,-0.641533,0.570824
26,40,-0.0872665,-0.698132,-0.174533,-0.174533,-0.103155,-0.692404,-0.153154,-0.193564,3.17773,-0.320924,-0.641533,0.570824
26,40,-0.0872665,-0.698132,-0.174533,-0.174533,-0.103155,-0.692404,-0.153154,-0.193564,3.17773,-0.320924,-0.641533,0.570824
26,40,-0.0872665,-0.698132,-0.174533,-0.174533,-0.103155,-0.692404,-0.153154,-0.193564,3.17773,-0.320924,-0.641533,0.570824
26,40,-0.0872665,-0.698132,-0.174533,-0.174533,-0.103155,-0.692404,-0.153154,-0.193564,3.17773,-0.320924,-0.641533,0.570824
26,40,-0.0872665,-0.698132,-0.174533,-0.174533,-0.103155,-0.692404,-0.153154,-0.193564,3.17773,-0.320924,-0.641533,0.570824
26,40,-0.0872665,-0.698132,-0.174533,-0.174533,-0.103155,-0.692404,-0.153088,-0.193522,3.17773,-0.320924,-0.643543,0.569547
26,40,-0.0872665,-0.698132,-0.174533,-0.174533,-0.103155,-0.692404,-0.153088,-0.193522,3.17773,-0.320924,-0.643543,0.569547
26,40,-0.0872665,-0.698132,-0.174533,-0.174533,-0.103155,-0.692404,-0.153088,-0.193522,3.17773,-0.320924,-0.643543,0.569547
26,40,-0.0872665,-0.698132,-0.174533,-0.174533,-0.103155,-0.692404,-0.153088,-0.193522,3.17773,-0.320924,-0.643543,0.569547
26,40,-0.0872665,-0.698132,-0.174533,-0.174533,-0.103155,-0.692404,-0.153088,-0.193522,3.17773,-0.320924,-0.643543,0.569547
26,40,-0.0872665,-0.698132,-0.174533,-0.174533,-0.103155,-0.692404,-0.153088,-0.193522,3.17773,-0.320924,-0.643543,0.569547
26,40,-0.0872665,-0.698132,-0.174533,-0.174533,-0.103155,-0.692404,-0.153149,-0.193502,3.17773,-0.320924,-0.641701,0.568965
26,40,-0.0872665,-0.698132,-0.174533,-0.174533,-0.103155,-0.692404,-0.153149,-0.193502,3.17773,-0.320924,-0.641701,0.568965
26,40,-0.0872665,-0.698132,-0.174533,-0.174533,-0.103155,-0.692404,-0.153149,-0.193502,3.17773,-0.320924,-0.641701,0.568965
26,40,-0.0872665,-0.698132,-0.174533,-0.174533,-0.103155,-0.692404,-0.153149,-0.193502,3.17773,-0.320924,-0.641701,0.568965
26,40,-0.0872665,-0.698132,-0.174533,-0.174533,-0.103155,-0.692404,-0.153149,-0.193502,3.17773,-0.320924,-0.641701,0.568965
26,40,-0.0872665,-0.698132,-0.174533,-0.174533,-0.103155,-0.692404,-0.153149,-0.193502,3.17773,-0.320924,-0.641701,0.568965
26,40,-0.0872665,-0.698132,-0.174533,-0.174533,-0.103155,-0.692404,-0.153149,-0.193502,3.17773,-0.320924,-0.641701,0.568965
26,40,-0.0872665,-0.698132,-0.174533,-0.174533,-0.103155,-0.692404,-0.153151,-0.193562,3.17773,-0.320924,-0.641622,0.570757
26,40,-0.0872665,-0.698132,-0.174533,-0.174533,-0.103155,-0.692404,-0.153151,-0.193562,3.17773,-0.320924,-0.641622,0.570757
26,40,-0.0872665,-0.698132,-0.174533,-0.174533,-0.103155,-0.692404,-0.153151,-0.193562,3.17773,-0.320924,-0.641622,0.570757
26,40,-0.0872665,-0.698132,-0.174533,-0.174533,-0.103155,-0.692404,-0.153212,-0.193543,3.17773,-0.320924,-0.639777,0.570173
26,40,-0.0872665,-0.698132,-0.174533,-0.174533,-0.103155,-0.692404,-0.153212,-0.193543,3.17773,-0.320924,-0.639777,0.570173
26,40,-0.0872665,-0.698132,-0.174533,-0.174533,-0.103155,-0.692404,-0.153212,-0.193543,3.17773,-0.320924,-0.639777,0.570173
26,40,-0.0872665,-0.698132,-0.174533,-0.174533,-0.103155,-0.692404,-0.153212,-0.193543,3.17773,-0.320924,-0.639777,0.570173
26,40,-0.0872665,-0.698132,-0.174533,-0.174533,-0.103155,-0.692404,-0.153212,-0.193543,3.17773,-0.320924,-0.639777,0.570173
26,40,-0.0872665,-0.698132,-0.174533,-0.174533,-0.103155,-0.692404,-0.153212,-0.193543,3.17773,-0.320924,-0.639777,0.570173
26,40,-0.0872665,-0.698132,-0.174533,-0.174533,-0.103155,-0.692404,-0.153212,-0.193543,3.17773,-0.320924,-0.639777,0.570173
26,40,-0.0872665,-0.698132,-0.174533,-0.174533,-0.103155,-0.692404,-0.153212,-0.193543,3.17773,-0.320924,-0.639777,0.570173
26,40,-0.0872665,-0.698132,-0.174533,-0.174533,-0.103155,-0.692404,-0.153212,-0.193543,3.17773,-0.320924,-0.639777,0.570173
26,40,-0.0872665,-0.698132,-0.174533,-0.174533,-0.103155,-0.692404,-0.153212,-0.193543,3.17773,-0.320924,-0.639777,0.570173
26,40,-0.0872665,-0.698132,-0.174533,-0.174533,-0.103155,-0.692404,-0.153212,-0.193543,3.17773,-0.320924,-0.639777,0.570173
26,40,-0.0872665,-0.698132,-0.174533,-0.174533,-0.103155,-0.692404,-0.153274,-0.193523,3.17773,-0.320924,-0.637931,0.569589
26,40,-0.0872665,-0.698132,-0.174533,-0.174533,-0.103155,-0.692404,-0.153274,-0.193523,3.17773,-0.320924,-0.637931,0.569589
26,40,-0.0872665,-0.698132,-0.174533,-0.174533,-0.103155,-0.692404,-0.153276,-0.193583,3.17773,-0.320924,-0.637853,0.571375
26,40,-0.0872665,-0.698132,-0.174533,-0.174533,-0.103155,-0.692404,-0.153276,-0.193583,3.17773,-0.320924,-0.637853,0.571375
26,40,-0.0872665,-0.698132,-0.174533,-0.174533,-0.103155,-0.692404,-0.153276,-0.193583,3.17773,-0.320924,-0.637853,0.571375
26,40,-0.0872665,-0.698132,-0.174533,-0.174533,-0.103155,-0.692404,-0.153276,-0.193583,3.17773,-0.320924,-0.637853,0.571375
26,40,-0.0872665,-0.698132,-0.174533,-0.174533,-0.103155,-0.692404,-0.153276,-0.193583,3.17773,-0.320924,-0.637853,0.571375
26,40,-0.0872665,-0.698132,-0.174533,-0.174533,-0.103155,-0.692404,-0.153276,-0.193583,3.17773,-0.320924,-0.637853,0.571375
26,40,-0.0872665,-0.698132,-0.174533,-0.174533,-0.103155,-0.692404,-0.153276,-0.193583,3.17773,-0.320924,-0.637853,0.571375
26,40,-0.0872665,-0.698132,-0.174533,-0.174533,-0.103155,-0.692404,-0.153276,-0.193583,3.17773,-0.320924,-0.637853,0.571375
26,40,-0.0872665,-0.698132,-0.174533,-0.174533,-0.103155,-0.692404,-0.153276,-0.193583,3.17773,-0.320924,-0.637853,0.571375
26,40,-0.0872665,-0.698132,-0.174533,-0.174533,-0.103155,-0.692404,-0.153337,-0.193563,3.17773,-0.320924,-0.636008,0.570791
26,40,-0.0872665,-0.698132,-0.174533,-0.174533,-0.103155,-0.692404,-0.153337,-0.193563,3.17773,-0.320924,-0.636008,0.570791
26,40,-0.0872665,-0.698132,-0.174533,-0.174533,-0.103155,-0.692404,-0.153337,-0.193563,3.17773,-0.320924,-0.636008,0.570791
26,40,-0.0872665,-0.698132,-0.174533,-0.174533,-0.103155,-0.692404,-0.153337,-0.193563,3.17773,-0.320924,-0.636008,0.570791
26,40,-0.0872665,-0.698132,-0.174533,-0.174533,-0.103155,-0.692404,-0.153337,-0.193563,3.17773,-0.320924,-0.636008,0.570791
26,40,-0.0872665,-0.698132,-0.174533,-0.174533,-0.103155,-0.692404,-0.153337,-0.193563,3.17773,-0.320924,-0.636008,0.570791
26,40,-0.0872665,-0.698132,-0.174533,-0.174533,-0.103155,-0.692404,-0.153337,-0.193563,3.17773,-0.320924,-0.636008,0.570791
26,40,-0.0872665,-0.698132,-0.174533,-0.174533,-0.103155,-0.692404,-0.153337,-0.193563,3.17773,-0.320924,-0.636008,0.570791
26,40,-0.0872665,-0.698132,-0.174533,-0.174533,-0.103155,-0.692404,-0.153337,-0.193563,3.17773,-0.320924,-0.636008,0.570791
26,40,-0.0872665,-0.698132,-0.174533,-0.174533,-0.103155,-0.692404,-0.153398,-0.193544,3.17773,-0.320924,-0.634151,0.570204
26,40,-0.0872665,-0.698132,-0.174533,-0.174533,-0.103155,-0.692404,-0.153398,-0.193544,3.17773,-0.320924,-0.634151,0.570204
26,40,-0.0872665,-0.698132,-0.174533,-0.174533,-0.103155,-0.692404,-0.153398,-0.193544,3.17773,-0.320924,-0.634151,0.570204
26,40,-0.0872665,-0.698132,-0.174533,-0.174533,-0.103155,-0.692404,-0.153398,-0.193544,3.17773,-0.320924,-0.634151,0.570204
26,40,-0.0872665,-0.698132,-0.174533,-0.174533,-0.103155,-0.692404,-0.153398,-0.193544,3.17773,-0.320924,-0.634151,0.570204
26,40,-0.0872665,-0.698132,-0.174533,-0.174533,-0.103155,-0.692404,-0.153398,-0.193544,3.17773,-0.320924,-0.634151,0.570204
26,40,-0.0872665,-0.698132,-0.174533,-0.174533,-0.103155,-0.692404,-0.153398,-0.193544,3.17773,-0.320924,-0.634151,0.570204
26,40,-0.0872665,-0.698132,-0.174533,-0.174533,-0.103155,-0.692404,-0.153398,-0.193544,3.17773,-0.320924,-0.634151,0.570204
26,40,-0.0872665,-0.698132,-0.174533,-0.174533,-0.103155,-0.692404,-0.153398,-0.193544,3.17773,-0.320924,-0.634151,0.570204
26,40,-0.0872665,-0.698132,-0.174533,-0.174533,-0.103155,-0.692404,-0.153401,-0.193604,3.17773,-0.320924,-0.634071,0.572002
26,40,-0.0872665,-0.698132,-0.174533,-0.174533,-0.103155,-0.692404,-0.153401,-0.193604,3.17773,-0.320924,-0.634071,0.572002
26,40,-0.0872665,-0.698132,-0.174533,-0.174533,-0.103155,-0.692404,-0.153401,-0.193604,3.17773,-0.320924,-0.634071,0.572002
26,40,-0.0872665,-0.698132,-0.174533,-0.174533,-0.103155,-0.692404,-0.153462,-0.193584,3.17773,-0.320924,-0.632221,0.571417
26,40,-0.0872665,-0.698132,-0.174533,-0.174533,-0.103155,-0.692404,-0.153462,-0.193584,3.17773,-0.320924,-0.632221,0.571417
26,40,-0.0872665,-0.698132,-0.174533,-0.174533,-0.103155,-0.692404,-0.153462,-0.193584,3.17773,-0.320924,-0.632221,0.571417
26,40,-0.0872665,-0.698132,-0.174533,-0.174533,-0.103155,-0.692404,-0.153462,-0.193584,3.17773,-0.320924,-0.632221,0.571417
26,40,-0.0872665,-0.698132,-0.174533,-0.174533,-0.103155,-0.692404,-0.153462,-0.193584,3.17773,-0.320924,-0.632221,0.571417
26,40,-0.0872665,-0.698132,-0.174533,-0.174533,-0.103155,-0.692404,-0.153462,-0.193584,3.17773,-0.320924,-0.632221,0.571417
26,40,-0.0872665,-0.698132,-0.174533,-0.174533,-0.103155,-0.692404,-0.153462,-0.193584,3.17773,-0.320924,-0.632221,0.571417
26,40,-0.0872665,-0.698132,-0.174533,-0.174533,-0.103155,-0.692404,-0.153462,-0.193584,3.17773,-0.320924,-0.632221,0.571417
26,40,-0.0872665,-0.698132,-0.174533,-0.174533,-0.103155,-0.692404,-0.153462,-0.193584,3.17773,-0.320924,-0.632221,0.571417
26,40,-0.0872665,-0.698132,-0.174533,-0.174533,-0.103155,-0.692404,-0.153462,-0.193584,3.17773,-0.320924,-0.632221,0.571417
26,40,-0.0872665,-0.698132,-0.174533,-0.174533,-0.103155,-0.692404,-0.153523,-0.193565,3.17773,-0.320924,-0.630394,0.570839
26,40,-0.0872665,-0.698132,-0.174533,-0.174533,-0.103155,-0.692404,-0.153523,-0.193565,3.17773,-0.320924,-0.630394,0.570839
26,40,-0.0872665,-0.698132,-0.174533,-0.174533,-0.103155,-0.692404,-0.153523,-0.193565,3.17773,-0.320924,-0.630394,0.570839
26,40,-0.0872665,-0.698132,-0.174533,-0.174533,-0.103155,-0.692404,-0.153523,-0.193565,3.17773,-0.320924,-0.630394,0.570839
26,40,-0.0872665,-0.698132,-0.174533,-0.174533,-0.103155,-0.692404,-0.153523,-0.193565,3.17773,-0.320924,-0.630394,0.570839
26,40,-0.0872665,-0.698132,-0.174533,-0.174533,-0.103155,-0.692404,-0.153523,-0.193565,3.17773,-0.320924,-0.630394,0.570839
26,40,-0.0872665,-0.698132,-0.174533,-0.174533,-0.103155,-0.692404,-0.153523,-0.193565,3.17773,-0.320924,-0.630394,0.570839
26,40,-0.0872665,-0.698132,-0.174533,-0.174533,-0.103155,-0.692404,-0.153584,-0.193546,3.17773,-0.320924,-0.628554,0.570258
26,40,-0.0872665,-0.698132,-0.174533,-0.174533,-0.103155,-0.692404,-0.153584,-0.193546,3.17773,-0.320924,-0.628554,0.570258
26,40,-0.0872665,-0.698132,-0.174533,-0.174533,-0.103155,-0.692404,-0.153584,-0.193546,3.17773,-0.320924,-0.628554,0.570258
26,40,-0.0872665,-0.698132,-0.174533,-0.174533,-0.103155,-0.692404,-0.153584,-0.193546,3.17773,-0.320924,-0.628554,0.570258
26,40,-0.0872665,-0.698132,-0.174533,-0.174533,-0.103155,-0.692404,-0.153584,-0.193546,3.17773,-0.320924,-0.628554,0.570258
26,40,-0.0872665,-0.698132,-0.174533,-0.174533,-0.103155,-0.692404,-0.153584,-0.193546,3.17773,-0.320924,-0.628554,0.570258
26,40,-0.0872665,-0.698132,-0.174533,-0.174533,-0.103155,-0.692404,-0.153587,-0.193605,3.17773,-0.320924,-0.628476,0.572047
26,40,-0.0872665,-0.698132,-0.174533,-0.174533,-0.103155,-0.692404,-0.153587,-0.193605,3.17773,-0.320924,-0.628476,0.572047
26,40,-0.0872665,-0.698132,-0.174533,-0.174533,-0.103155,-0.692404,-0.153587,-0.193605,3.17773,-0.320924,-0.628476,0.572047
26,40,-0.0872665,-0.698132,-0.174533,-0.174533,-0.103155,-0.692404,-0.153648,-0.193586,3.17773,-0.320924,-0.626633,0.571465
26,40,-0.0872665,-0.698132,-0.174533,-0.174533,-0.103155,-0.692404,-0.153648,-0.193586,3.17773,-0.320924,-0.626633,0.571465
26,40,-0.0872665,-0.698132,-0.174533,-0.174533,-0.103155,-0.692404,-0.153648,-0.193586,3.17773,-0.320924,-0.626633,0.571465
26,40,-0.0872665,-0.698132,-0.174533,-0.174533,-0.103155,-0.692404,-0.153648,-0.193586,3.17773,-0.320924,-0.626633,0.571465
26,40,-0.0872665,-0.698132,-0.174533,-0.174533,-0.103155,-0.692404,-0.153648,-0.193586,3.17773,-0.320924,-0.626633,0.571465
26,40,-0.0872665,-0.698132,-0.174533,-0.174533,-0.103155,-0.692404,-0.153648,-0.193586,3.17773,-0.320924,-0.626633,0.571465
26,40,-0.0872665,-0.698132,-0.174533,-0.174533,-0.103155,-0.692404,-0.153648,-0.193586,3.17773,-0.320924,-0.626633,0.571465
26,40,-0.0872665,-0.698132,-0.174533,-0.174533,-0.103155,-0.692404,-0.153648,-0.193586,3.17773,-0.320924,-0.626633,0.571465
26,40,-0.0872665,-0.698132,-0.174533,-0.174533,-0.103155,-0.692404,-0.153709,-0.193567,3.17773,-0.320924,-0.624797,0.570885
26,40,-0.0872665,-0.698132,-0.174533,-0.174533,-0.103155,-0.692404,-0.153709,-0.193567,3.17773,-0.320924,-0.624797,0.570885
26,40,-0.0872665,-0.698132,-0.174533,-0.174533,-0.103155,-0.692404,-0.153709,-0.193567,3.17773,-0.320924,-0.624797,0.570885
26,40,-0.0872665,-0.698132,-0.174533,-0.174533,-0.103155,-0.692404,-0.153709,-0.193567,3.17773,-0.320924,-0.624797,0.570885
26,40,-0.0872665,-0.698132,-0.174533,-0.174533,-0.103155,-0.692404,-0.153709,-0.193567,3.17773,-0.320924,-0.624797,0.570885
26,40,-0.0872665,-0.698132,-0.174533,-0.174533,-0.103155,-0.692404,-0.153709,-0.193567,3.17773,-0.320924,-0.624797,0.570885
26,40,-0.0872665,-0.698132,-0.174533,-0.174533,-0.103155,-0.692404,-0.153709,-0.193567,3.17773,-0.320924,-0.624797,0.570885
26,40,-0.0872665,-0.698132,-0.174533,-0.174533,-0.103155,-0.692404,-0.153709,-0.193567,3.17773,-0.320924,-0.624797,0.570885
26,40,-0.0872665,-0.698132,-0.174533,-0.174533,-0.103155,-0.692404,-0.153709,-0.193567,3.17773,-0.320924,-0.624797,0.570885
26,40,-0.0872665,-0.698132,-0.174533,-0.174533,-0.103155,-0.692404,-0.153709,-0.193567,3.17773,-0.320924,-0.624797,0.570885
26,40,-0.0872665,-0.698132,-0.174533,-0.174533,-0.103155,-0.692404,-0.153709,-0.193567,3.17773,-0.320924,-0.624797,0.570885
26,40,-0.0872665,-0.698132,-0.174533,-0.174533,-0.103155,-0.692404,-0.153709,-0.193567,3.17773,-0.320924,-0.624797,0.570885
26,40,-0.0872665,-0.698132,-0.174533,-0.174533,-0.103155,-0.692404,-0.153709,-0.193567,3.17773,-0.320924,-0.624797,0.570885
26,40,-0.0872665,-0.698132,-0.174533,-0.174533,-0.103155,-0.692404,-0.153709,-0.193567,3.17773,-0.320924,-0.624797,0.570885
26,40,-0.0872665,-0.698132,-0.174533,-0.174533,-0.103155,-0.692404,-0.15377,-0.193547,3.17773,-0.320924,-0.622949,0.5703
26,40,-0.0872665,-0.698132,-0.174533,-0.174533,-0.103155,-0.692404,-0.15377,-0.193547,3.17773,-0.320924,-0.622949,0.5703
26,40,-0.0872665,-0.698132,-0.174533,-0.174533,-0.103155,-0.692404,-0.15377,-0.193547,3.17773,-0.320924,-0.622949,0.5703
26,40,-0.0872665,-0.698132,-0.174533,-0.174533,-0.103155,-0.692404,-0.15377,-0.193547,3.17773,-0.320924,-0.622949,0.5703
26,40,-0.0872665,-0.698132,-0.174533,-0.174533,-0.103155,-0.692404,-0.15377,-0.193547,3.17773,-0.320924,-0.622949,0.5703
26,40,-0.0872665,-0.698132,-0.174533,-0.174533,-0.103155,-0.692404,-0.153765,-0.193486,3.17773,-0.320924,-0.623129,0.568456
26,40,-0.0872665,-0.698132,-0.174533,-0.174533,-0.103155,-0.692404,-0.153765,-0.193486,3.17773,-0.320924,-0.623129,0.568456
26,40,-0.0872665,-0.698132,-0.174533,-0.174533,-0.103155,-0.692404,-0.153826,-0.193466,3.17773,-0.320924,-0.621289,0.567874
26,40,-0.0872665,-0.698132,-0.174533,-0.174533,-0.103155,-0.692404,-0.153829,-0.193526,3.17773,-0.320924,-0.62121,0.569655
26,40,-0.0872665,-0.698132,-0.174533,-0.174533,-0.103155,-0.692404,-0.153829,-0.193526,3.17773,-0.320924,-0.62121,0.569655
26,40,-0.0872665,-0.698132,-0.174533,-0.174533,-0.103155,-0.692404,-0.153829,-0.193526,3.17773,-0.320924,-0.62121,0.569655
26,40,-0.0872665,-0.698132,-0.174533,-0.174533,-0.103155,-0.692404,-0.153829,-0.193526,3.17773,-0.320924,-0.62121,0.569655
26,40,-0.0872665,-0.698132,-0.174533,-0.174533,-0.103155,-0.692404,-0.15389,-0.193506,3.17773,-0.320924,-0.619338,0.569064
26,40,-0.0872665,-0.698132,-0.174533,-0.174533,-0.103155,-0.692404,-0.15389,-0.193506,3.17773,-0.320924,-0.619338,0.569064
26,40,-0.0872665,-0.698132,-0.174533,-0.174533,-0.103155,-0.692404,-0.15389,-0.193506,3.17773,-0.320924,-0.619338,0.569064
26,40,-0.0872665,-0.698132,-0.174533,-0.174533,-0.103155,-0.692404,-0.15389,-0.193506,3.17773,-0.320924,-0.619338,0.569064
26,40,-0.0872665,-0.698132,-0.174533,-0.174533,-0.103155,-0.692404,-0.15389,-0.193506,3.17773,-0.320924,-0.619338,0.569064
26,40,-0.0872665,-0.698132,-0.174533,-0.174533,-0.103155,-0.692404,-0.15389,-0.193506,3.17773,-0.320924,-0.619338,0.569064
26,40,-0.0872665,-0.698132,-0.174533,-0.174533,-0.103155,-0.692404,-0.153951,-0.193487,3.17773,-0.320924,-0.617491,0.56848
26,40,-0.0872665,-0.698132,-0.174533,-0.174533,-0.103155,-0.692404,-0.153951,-0.193487,3.17773,-0.320924,-0.617491,0.56848
26,40,-0.0872665,-0.698132,-0.174533,-0.174533,-0.103155,-0.692404,-0.153951,-0.193487,3.17773,-0.320924,-0.617491,0.56848
26,40,-0.0872665,-0.698132,-0.174533,-0.174533,-0.103155,-0.692404,-0.153951,-0.193487,3.17773,-0.320924,-0.617491,0.56848
26,40,-0.0872665,-0.698132,-0.174533,-0.174533,-0.103155,-0.692404,-0.153951,-0.193487,3.17773,-0.320924,-0.617491,0.56848
26,40,-0.0872665,-0.698132,-0.174533,-0.174533,-0.103155,-0.692353,-0.153951,-0.193487,3.17773,-0.323751,-0.617491,0.56848
26,40,-0.0872665,-0.698132,-0.174533,-0.174533,-0.103155,-0.692353,-0.154012,-0.193468,3.17773,-0.323751,-0.61557,0.567873
26,40,-0.0872665,-0.698132,-0.174533,-0.174533,-0.103155,-0.692353,-0.154012,-0.193468,3.17773,-0.323751,-0.61557,0.567873
26,40,-0.0872665,-0.698132,-0.174533,-0.174533,-0.103155,-0.692353,-0.154012,-0.193468,3.17773,-0.323751,-0.61557,0.567873
26,40,-0.0872665,-0.698132,-0.174533,-0.174533,-0.103155,-0.692353,-0.154012,-0.193468,3.17773,-0.323751,-0.61557,0.567873
26,40,-0.0872665,-0.698132,-0.174533,-0.174533,-0.103155,-0.692353,-0.154012,-0.193468,3.17773,-0.323751,-0.61557,0.567873
26,40,-0.0872665,-0.698132,-0.174533,-0.174533,-0.103155,-0.692353,-0.154012,-0.193468,3.17773,-0.323751,-0.61557,0.567873
26,40,-0.0872665,-0.698132,-0.174533,-0.174533,-0.103155,-0.692353,-0.154012,-0.193468,3.17773,-0.323751,-0.61557,0.567873
26,40,-0.0872665,-0.698132,-0.174533,-0.174533,-0.103155,-0.692353,-0.154012,-0.193468,3.17773,-0.323751,-0.61557,0.567873
26,40,-0.0872665,-0.698132,-0.174533,-0.174533,-0.103155,-0.692353,-0.154073,-0.193449,3.17773,-0.323751,-0.613757,0.567299
26,40,-0.0872665,-0.698132,-0.174533,-0.174533,-0.103155,-0.692353,-0.154073,-0.193449,3.17773,-0.323751,-0.613757,0.567299
26,40,-0.0872665,-0.698132,-0.174533,-0.174533,-0.103155,-0.692353,-0.154073,-0.193449,3.17773,-0.323751,-0.613757,0.567299
26,40,-0.0872665,-0.698132,-0.174533,-0.174533,-0.103155,-0.692353,-0.154073,-0.193449,3.17773,-0.323751,-0.613757,0.567299
26,40,-0.0872665,-0.698132,-0.174533,-0.174533,-0.103155,-0.692353,-0.154073,-0.193449,3.17773,-0.323751,-0.613757,0.567299
26,40,-0.0872665,-0.698132,-0.174533,-0.174533,-0.103155,-0.692353,-0.154073,-0.193449,3.17773,-0.323751,-0.613757,0.567299
26,40,-0.0872665,-0.698132,-0.174533,-0.174533,-0.103155,-0.692353,-0.154076,-0.193508,3.17773,-0.323751,-0.613678,0.56908
26,40,-0.0872665,-0.698132,-0.174533,-0.174533,-0.103155,-0.692353,-0.154009,-0.193466,3.17773,-0.323751,-0.615496,0.567925
26,40,-0.0872665,-0.698132,-0.174533,-0.174533,-0.103155,-0.692353,-0.154009,-0.193466,3.17773,-0.323751,-0.615496,0.567925
26,40,-0.0872665,-0.698132,-0.174533,-0.174533,-0.103155,-0.692353,-0.154009,-0.193466,3.17773,-0.323751,-0.615496,0.567925
26,40,-0.0872665,-0.698132,-0.174533,-0.174533,-0.103155,-0.692353,-0.154009,-0.193466,3.17773,-0.323751,-0.615496,0.567925
26,40,-0.0872665,-0.698132,-0.174533,-0.174533,-0.103155,-0.692353,-0.154009,-0.193466,3.17773,-0.323751,-0.615496,0.567925
26,40,-0.0872665,-0.698132,-0.174533,-0.174533,-0.103155,-0.692353,-0.154009,-0.193466,3.17773,-0.323751,-0.615496,0.567925
26,40,-0.0872665,-0.698132,-0.174533,-0.174533,-0.103155,-0.692353,-0.153943,-0.193423,3.17773,-0.323751,-0.617501,0.566665
26,40,-0.0872665,-0.698132,-0.174533,-0.174533,-0.103155,-0.692353,-0.153943,-0.193423,3.17773,-0.323751,-0.617517,0.56667
26,40,-0.0872665,-0.698132,-0.174533,-0.174533,-0.103155,-0.692353,-0.153943,-0.193423,3.17773,-0.323751,-0.617531,0.566674
26,40,-0.0872665,-0.698132,-0.174533,-0.174533,-0.103155,-0.692353,-0.153943,-0.193423,3.17773,-0.323751,-0.617543,0.566678
26,40,-0.0872665,-0.698132,-0.174533,-0.174533,-0.103155,-0.692353,-0.153943,-0.193423,3.17773,-0.323751,-0.617554,0.566682
26,40,-0.0872665,-0.698132,-0.174533,-0.174533,-0.103155,-0.692353,-0.153943,-0.193423,3.17773,-0.323751,-0.617564,0.566685
26,40,-0.0872665,-0.698132,-0.174533,-0.174533,-0.103155,-0.692353,-0.153943,-0.193423,3.17773,-0.323751,-0.617573,0.566688
26,40,-0.0872665,-0.698132,-0.174533,-0.174533,-0.103155,-0.692353,-0.153943,-0.193423,3.17773,-0.323751,-0.617581,0.56669
26,40,-0.0872665,-0.698132,-0.174533,-0.174533,-0.103155,-0.692353,-0.154004,-0.193404,3.17773,-0.323751,-0.615712,0.566099
26,40,-0.0872665,-0.698132,-0.174533,-0.174533,-0.103155,-0.692353,-0.154004,-0.193404,3.17773,-0.323751,-0.615712,0.566099
26,40,-0.0872665,-0.698132,-0.174533,-0.174533,-0.103155,-0.692353,-0.15394,-0.193421,3.17773,-0.323751,-0.61763,0.566611
26,40,-0.0872665,-0.698132,-0.174533,-0.174533,-0.103155,-0.692353,-0.15394,-0.193421,3.17773,-0.323751,-0.61763,0.566611
26,40,-0.0872665,-0.698132,-0.174533,-0.174533,-0.103155,-0.692353,-0.15394,-0.193421,3.17773,-0.323751,-0.61763,0.566611
26,40,-0.0872665,-0.698132,-0.174533,-0.174533,-0.103155,-0.692353,-0.15394,-0.193421,3.17773,-0.323751,-0.61763,0.566611
26,40,-0.0872665,-0.698132,-0.174533,-0.174533,-0.103155,-0.692353,-0.15394,-0.193421,3.17773,-0.323751,-0.61763,0.566611
26,40,-0.0872665,-0.698132,-0.174533,-0.174533,-0.103155,-0.692353,-0.15394,-0.193421,3.17773,-0.323751,-0.61763,0.566611
26,40,-0.0872665,-0.698132,-0.174533,-0.174533,-0.103155,-0.692353,-0.15394,-0.193421,3.17773,-0.323751,-0.61763,0.566611
26,40,-0.0872665,-0.698132,-0.174533,-0.174533,-0.103155,-0.692353,-0.15394,-0.193421,3.17773,-0.323751,-0.61763,0.566611
26,40,-0.0872665,-0.698132,-0.174533,-0.174533,-0.103155,-0.692353,-0.15394,-0.193421,3.17773,-0.323751,-0.61763,0.566611
26,40,-0.0872665,-0.698132,-0.174533,-0.174533,-0.103155,-0.692353,-0.15394,-0.193421,3.17773,-0.323751,-0.61763,0.566611
26,40,-0.0872665,-0.698132,-0.174533,-0.174533,-0.103155,-0.692353,-0.15394,-0.193421,3.17773,-0.323751,-0.61763,0.566611
26,40,-0.0872665,-0.698132,-0.174533,-0.174533,-0.103155,-0.692353,-0.15394,-0.193421,3.17773,-0.323751,-0.61763,0.566611
26,40,-0.0872665,-0.698132,-0.174533,-0.174533,-0.103155,-0.692353,-0.154001,-0.193402,3.17773,-0.323751,-0.615872,0.566055
26,40,-0.0872665,-0.698132,-0.174533,-0.174533,-0.103155,-0.692353,-0.153934,-0.19336,3.17773,-0.323751,-0.61787,0.564785
26,40,-0.0872665,-0.698132,-0.174533,-0.174533,-0.103155,-0.692353,-0.153934,-0.19336,3.17773,-0.323751,-0.61787,0.564785
26,40,-0.0872665,-0.698132,-0.174533,-0.174533,-0.103155,-0.692353,-0.153934,-0.19336,3.17773,-0.323751,-0.61787,0.564785
26,40,-0.0872665,-0.698132,-0.174533,-0.174533,-0.103155,-0.692353,-0.153937,-0.193419,3.17773,-0.323751,-0.617791,0.566575
26,40,-0.0872665,-0.698132,-0.174533,-0.174533,-0.103155,-0.692353,-0.153937,-0.193419,3.17773,-0.323751,-0.617791,0.566575
26,40,-0.0872665,-0.698132,-0.174533,-0.174533,-0.103155,-0.692353,-0.153937,-0.193419,3.17773,-0.323751,-0.617791,0.566575
26,40,-0.0872665,-0.698132,-0.174533,-0.174533,-0.103155,-0.692353,-0.153937,-0.193419,3.17773,-0.323751,-0.617791,0.566575
26,40,-0.0872665,-0.698132,-0.174533,-0.174533,-0.103155,-0.692353,-0.153937,-0.193419,3.17773,-0.323751,-0.617791,0.566575
26,40,-0.0872665,-0.698132,-0.174533,-0.174533,-0.103155,-0.692353,-0.153937,-0.193419,3.17773,-0.323751,-0.617791,0.566575
26,40,-0.0872665,-0.698132,-0.174533,-0.174533,-0.103155,-0.692353,-0.153998,-0.1934,3.17773,-0.323751,-0.61598,0.566003
26,40,-0.0872665,-0.698132,-0.174533,-0.174533,-0.103155,-0.692353,-0.153998,-0.1934,3.17773,-0.323751,-0.61598,0.566003
26,40,-0.0872665,-0.698132,-0.174533,-0.174533,-0.103155,-0.692353,-0.153998,-0.1934,3.17773,-0.323751,-0.61598,0.566003
26,40,-0.0872665,-0.698132,-0.174533,-0.174533,-0.103155,-0.692353,-0.153998,-0.1934,3.17773,-0.323751,-0.61598,0.566003
26,40,-0.0872665,-0.698132,-0.174533,-0.174533,-0.103155,-0.692353,-0.153998,-0.1934,3.17773,-0.323751,-0.61598,0.566003
26,40,-0.0872665,-0.698132,-0.174533,-0.174533,-0.103155,-0.692353,-0.153998,-0.1934,3.17773,-0.323751,-0.61598,0.566003
26,40,-0.0872665,-0.698132,-0.174533,-0.174533,-0.103155,-0.692353,-0.153998,-0.1934,3.17773,-0.323751,-0.61598,0.566003
26,40,-0.0872665,-0.698132,-0.174533,-0.174533,-0.103155,-0.692353,-0.153998,-0.1934,3.17773,-0.323751,-0.61598,0.566003
26,40,-0.0872665,-0.698132,-0.174533,-0.174533,-0.103155,-0.692353,-0.153998,-0.1934,3.17773,-0.323751,-0.61598,0.566003
26,40,-0.0872665,-0.698132,-0.174533,-0.174533,-0.103155,-0.692353,-0.153998,-0.1934,3.17773,-0.323751,-0.61598,0.566003
26,40,-0.0872665,-0.698132,-0.174533,-0.174533,-0.103155,-0.692353,-0.154001,-0.193459,3.17773,-0.323751,-0.6159,0.567794
26,40,-0.0872665,-0.698132,-0.174533,-0.174533,-0.103155,-0.692353,-0.154001,-0.193459,3.17773,-0.323751,-0.6159,0.567794
26,40,-0.0872665,-0.698132,-0.174533,-0.174533,-0.103155,-0.692353,-0.154001,-0.193459,3.17773,-0.323751,-0.6159,0.567794
26,40,-0.0872665,-0.698132,-0.174533,-0.174533,-0.103155,-0.692353,-0.154001,-0.193459,3.17773,-0.323751,-0.6159,0.567794
26,40,-0.0872665,-0.698132,-0.174533,-0.174533,-0.103155,-0.692353,-0.154001,-0.193459,3.17773,-0.323751,-0.6159,0.567794
26,40,-0.0872665,-0.698132,-0.174533,-0.174533,-0.103155,-0.692353,-0.154001,-0.193459,3.17773,-0.323751,-0.6159,0.567794
26,40,-0.0872665,-0.698132,-0.174533,-0.174533,-0.103155,-0.692353,-0.154001,-0.193459,3.17773,-0.323751,-0.6159,0.567794
26,40,-0.0872665,-0.698132,-0.174533,-0.174533,-0.103155,-0.692353,-0.154062,-0.19344,3.17773,-0.323751,-0.614073,0.567216
26,40,-0.0872665,-0.698132,-0.174533,-0.174533,-0.103155,-0.692353,-0.154062,-0.19344,3.17773,-0.323751,-0.614073,0.567216
26,40,-0.0872665,-0.698132,-0.174533,-0.174533,-0.103155,-0.692353,-0.154062,-0.19344,3.17773,-0.323751,-0.614073,0.567216
26,40,-0.0872665,-0.698132,-0.174533,-0.174533,-0.103155,-0.692353,-0.154062,-0.19344,3.17773,-0.323751,-0.614073,0.567216
26,40,-0.0872665,-0.698132,-0.174533,-0.174533,-0.103155,-0.692353,-0.154062,-0.19344,3.17773,-0.323751,-0.614073,0.567216
26,40,-0.0872665,-0.698132,-0.174533,-0.174533,-0.103155,-0.692353,-0.154062,-0.19344,3.17773,-0.323751,-0.614073,0.567216
26,40,-0.0872665,-0.698132,-0.174533,-0.174533,-0.103155,-0.692353,-0.154062,-0.19344,3.17773,-0.323751,-0.614073,0.567216
26,40,-0.0872665,-0.698132,-0.174533,-0.174533,-0.103155,-0.692353,-0.154062,-0.19344,3.17773,-0.323751,-0.614073,0.567216
26,40,-0.0872665,-0.698132,-0.174533,-0.174533,-0.103155,-0.692353,-0.154062,-0.19344,3.17773,-0.323751,-0.614073,0.567216
26,40,-0.0872665,-0.698132,-0.174533,-0.174533,-0.103155,-0.692353,-0.154062,-0.19344,3.17773,-0.323751,-0.614073,0.567216
26,40,-0.0872665,-0.698132,-0.174533,-0.174533,-0.103155,-0.692353,-0.154062,-0.19344,3.17773,-0.323751,-0.614073,0.567216
26,40,-0.0872665,-0.698132,-0.174533,-0.174533,-0.103155,-0.692353,-0.154062,-0.19344,3.17773,-0.323751,-0.614073,0.567216
26,40,-0.0872665,-0.698132,-0.174533,-0.174533,-0.103155,-0.692353,-0.154062,-0.19344,3.17773,-0.323751,-0.614073,0.567216
26,40,-0.0872665,-0.698132,-0.174533,-0.174533,-0.103155,-0.692353,-0.154062,-0.19344,3.17773,-0.323751,-0.614073,0.567216
26,40,-0.0872665,-0.698132,-0.174533,-0.174533,-0.103155,-0.692353,-0.154062,-0.19344,3.17773,-0.323751,-0.614073,0.567216
26,40,-0.0872665,-0.698132,-0.174533,-0.174533,-0.103155,-0.692353,-0.154123,-0.193421,3.17773,-0.323751,-0.612254,0.566641
26,40,-0.0872665,-0.698132,-0.174533,-0.174533,-0.103155,-0.692353,-0.154123,-0.193421,3.17773,-0.323751,-0.612254,0.566641
26,40,-0.0872665,-0.698132,-0.174533,-0.174533,-0.103155,-0.692353,-0.154123,-0.193421,3.17773,-0.323751,-0.612254,0.566641
26,40,-0.0872665,-0.698132,-0.174533,-0.174533,-0.103155,-0.692353,-0.154126,-0.19348,3.17773,-0.323751,-0.612174,0.568438
26,40,-0.0872665,-0.698132,-0.174533,-0.174533,-0.103155,-0.692353,-0.154126,-0.19348,3.17773,-0.323751,-0.612174,0.568438
26,40,-0.0872665,-0.698132,-0.174533,-0.174533,-0.103155,-0.692353,-0.154126,-0.19348,3.17773,-0.323751,-0.612174,0.568438
26,40,-0.0872665,-0.698132,-0.174533,-0.174533,-0.103155,-0.692353,-0.154126,-0.19348,3.17773,-0.323751,-0.612174,0.568438
26,40,-0.0872665,-0.698132,-0.174533,-0.174533,-0.103155,-0.692353,-0.154126,-0.19348,3.17773,-0.323751,-0.612174,0.568438
26,40,-0.0872665,-0.698132,-0.174533,-0.174533,-0.103155,-0.692353,-0.154126,-0.19348,3.17773,-0.323751,-0.612174,0.568438
26,40,-0.0872665,-0.698132,-0.174533,-0.174533,-0.103155,-0.692353,-0.154126,-0.19348,3.17773,-0.323751,-0.612174,0.568438
26,40,-0.0872665,-0.698132,-0.174533,-0.174533,-0.103155,-0.692353,-0.154126,-0.19348,3.17773,-0.323751,-0.612174,0.568438
26,40,-0.0872665,-0.698132,-0.174533,-0.174533,-0.103155,-0.692353,-0.154126,-0.19348,3.17773,-0.323751,-0.612174,0.568438
26,40,-0.0872665,-0.698132,-0.174533,-0.174533,-0.103155,-0.692353,-0.154187,-0.193461,3.17773,-0.323751,-0.610331,0.567856
26,40,-0.0872665,-0.698132,-0.174533,-0.174533,-0.103155,-0.692353,-0.154187,-0.193461,3.17773,-0.323751,-0.610331,0.567856
26,40,-0.0872665,-0.698132,-0.174533,-0.174533,-0.103155,-0.692353,-0.154187,-0.193461,3.17773,-0.323751,-0.610331,0.567856
26,40,-0.0872665,-0.698132,-0.174533,-0.174533,-0.103155,-0.692353,-0.154187,-0.193461,3.17773,-0.323751,-0.610331,0.567856
26,40,-0.0872665,-0.698132,-0.174533,-0.174533,-0.103155,-0.692353,-0.154187,-0.193461,3.17773,-0.323751,-0.610331,0.567856
26,40,-0.0872665,-0.698132,-0.174533,-0.174533,-0.103155,-0.692353,-0.154187,-0.193461,3.17773,-0.323751,-0.610331,0.567856
26,40,-0.0872665,-0.698132,-0.174533,-0.174533,-0.103155,-0.692353,-0.154187,-0.193461,3.17773,-0.323751,-0.610331,0.567856
26,40,-0.0872665,-0.698132,-0.174533,-0.174533,-0.103155,-0.692353,-0.154187,-0.193461,3.17773,-0.323751,-0.610331,0.567856
26,40,-0.0872665,-0.698132,-0.174533,-0.174533,-0.103155,-0.692353,-0.154187,-0.193461,3.17773,-0.323751,-0.610331,0.567856
26,40,-0.0872665,-0.698132,-0.174533,-0.174533,-0.103155,-0.692353,-0.154187,-0.193461,3.17773,-0.323751,-0.610331,0.567856
26,40,-0.0872665,-0.698132,-0.174533,-0.174533,-0.103155,-0.692353,-0.154248,-0.193442,3.17773,-0.323751,-0.608494,0.567275
26,40,-0.0872665,-0.698132,-0.174533,-0.174533,-0.103155,-0.692353,-0.154248,-0.193442,3.17773,-0.323751,-0.608494,0.567275
26,40,-0.0872665,-0.698132,-0.174533,-0.174533,-0.103155,-0.692353,-0.154248,-0.193442,3.17773,-0.323751,-0.608494,0.567275
26,40,-0.0872665,-0.698132,-0.174533,-0.174533,-0.103155,-0.692353,-0.154248,-0.193442,3.17773,-0.323751,-0.608494,0.567275
26,40,-0.0872665,-0.698132,-0.174533,-0.174533,-0.103155,-0.692353,-0.154248,-0.193442,3.17773,-0.323751,-0.608494,0.567275
26,40,-0.0872665,-0.698132,-0.174533,-0.174533,-0.103155,-0.692353,-0.154248,-0.193442,3.17773,-0.323751,-0.608494,0.567275
26,40,-0.0872665,-0.698132,-0.174533,-0.174533,-0.103155,-0.692353,-0.154248,-0.193442,3.17773,-0.323751,-0.608494,0.567275
26,40,-0.0872665,-0.698132,-0.174533,-0.174533,-0.103155,-0.692353,-0.154248,-0.193442,3.17773,-0.323751,-0.608494,0.567275
26,40,-0.0872665,-0.698132,-0.174533,-0.174533,-0.103155,-0.692353,-0.154248,-0.193442,3.17773,-0.323751,-0.608494,0.567275
26,40,-0.0872665,-0.698132,-0.174533,-0.174533,-0.103155,-0.692353,-0.154248,-0.193442,3.17773,-0.323751,-0.608494,0.567275
26,40,-0.0872665,-0.698132,-0.174533,-0.174533,-0.103155,-0.692353,-0.154248,-0.193442,3.17773,-0.323751,-0.608494,0.567275
26,40,-0.0872665,-0.698132,-0.174533,-0.174533,-0.103155,-0.692353,-0.154248,-0.193442,3.17773,-0.323751,-0.608494,0.567275
26,40,-0.0872665,-0.698132,-0.174533,-0.174533,-0.103155,-0.692353,-0.154248,-0.193442,3.17773,-0.323751,-0.608494,0.567275
26,40,-0.0872665,-0.698132,-0.174533,-0.174533,-0.103155,-0.692353,-0.154248,-0.193442,3.17773,-0.323751,-0.608494,0.567275
26,40,-0.0872665,-0.698132,-0.174533,-0.174533,-0.103155,-0.692353,-0.154248,-0.193442,3.17773,-0.323751,-0.608494,0.567275
26,40,-0.0872665,-0.698132,-0.174533,-0.174533,-0.103155,-0.692353,-0.154248,-0.193442,3.17773,-0.323751,-0.608494,0.567275
26,40,-0.0872665,-0.698132,-0.174533,-0.174533,-0.103155,-0.692353,-0.154248,-0.193442,3.17773,-0.323751,-0.608494,0.567275
26,40,-0.0872665,-0.698132,-0.174533,-0.174533,-0.103155,-0.692353,-0.154248,-0.193442,3.17773,-0.323751,-0.608494,0.567275
26,40,-0.0872665,-0.698132,-0.174533,-0.174533,-0.103155,-0.692353,-0.154248,-0.193442,3.17773,-0.323751,-0.608494,0.567275
26,40,-0.0872665,-0.698132,-0.174533,-0.174533,-0.103155,-0.692353,-0.154248,-0.193442,3.17773,-0.323751,-0.608494,0.567275
26,40,-0.0872665,-0.698132,-0.174533,-0.174533,-0.103155,-0.692353,-0.154248,-0.193442,3.17773,-0.323751,-0.608494,0.567275
26,40,-0.0872665,-0.698132,-0.174533,-0.174533,-0.103155,-0.692353,-0.154309,-0.193422,3.17773,-0.323751,-0.60666,0.566696
26,40,-0.0872665,-0.698132,-0.174533,-0.174533,-0.103155,-0.692353,-0.154309,-0.193422,3.17773,-0.323751,-0.60666,0.566696
26,40,-0.0872665,-0.698132,-0.174533,-0.174533,-0.103155,-0.692353,-0.154309,-0.193422,3.17773,-0.323751,-0.60666,0.566696
26,40,-0.0872665,-0.698132,-0.174533,-0.174533,-0.103155,-0.692353,-0.154242,-0.19338,3.17773,-0.323751,-0.608709,0.565393
26,40,-0.0872665,-0.698132,-0.174533,-0.174533,-0.103155,-0.692353,-0.154245,-0.19344,3.17773,-0.323751,-0.60863,0.567184
26,40,-0.0872665,-0.698132,-0.174533,-0.174533,-0.103155,-0.692353,-0.154245,-0.19344,3.17773,-0.323751,-0.60863,0.567184
26,40,-0.0872665,-0.698132,-0.174533,-0.174533,-0.103155,-0.692353,-0.154245,-0.19344,3.17773,-0.323751,-0.60863,0.567184
26,40,-0.0872665,-0.698132,-0.174533,-0.174533,-0.103155,-0.692353,-0.154245,-0.19344,3.17773,-0.323751,-0.60863,0.567184
26,40,-0.0872665,-0.698132,-0.174533,-0.174533,-0.103155,-0.692353,-0.154245,-0.19344,3.17773,-0.323751,-0.60863,0.567184
26,40,-0.0872665,-0.698132,-0.174533,-0.174533,-0.103155,-0.692353,-0.154245,-0.19344,3.17773,-0.323751,-0.60863,0.567184
26,40,-0.0872665,-0.698132,-0.174533,-0.174533,-0.103155,-0.692353,-0.154245,-0.19344,3.17773,-0.323751,-0.60863,0.567184
26,40,-0.0872665,-0.698132,-0.174533,-0.174533,-0.103155,-0.692353,-0.154245,-0.19344,3.17773,-0.323751,-0.60863,0.567184
26,40,-0.0872665,-0.698132,-0.174533,-0.174533,-0.103155,-0.692353,-0.154178,-0.193397,3.17773,-0.323751,-0.610589,0.565938
26,40,-0.0872665,-0.698132,-0.174533,-0.174533,-0.103155,-0.692353,-0.154178,-0.193397,3.17773,-0.323751,-0.610589,0.565938
26,40,-0.0872665,-0.698132,-0.174533,-0.174533,-0.103155,-0.692353,-0.154178,-0.193397,3.17773,-0.323751,-0.610589,0.565938
26,40,-0.0872665,-0.698132,-0.174533,-0.174533,-0.103155,-0.692353,-0.154178,-0.193397,3.17773,-0.323751,-0.610589,0.565938
26,40,-0.0872665,-0.698132,-0.174533,-0.174533,-0.103155,-0.692353,-0.154178,-0.193397,3.17773,-0.323751,-0.610589,0.565938
26,40,-0.0872665,-0.698132,-0.174533,-0.174533,-0.103155,-0.692353,-0.154178,-0.193397,3.17773,-0.323751,-0.610589,0.565938
26,40,-0.0872665,-0.698132,-0.174533,-0.174533,-0.103155,-0.692353,-0.154178,-0.193397,3.17773,-0.323751,-0.610589,0.565938
26,40,-0.0872665,-0.698132,-0.174533,-0.174533,-0.103155,-0.692353,-0.154178,-0.193397,3.17773,-0.323751,-0.610589,0.565938
26,40,-0.0872665,-0.698132,-0.174533,-0.174533,-0.103155,-0.692353,-0.154178,-0.193397,3.17773,-0.323751,-0.610589,0.565938
26,40,-0.0872665,-0.698132,-0.174533,-0.174533,-0.103155,-0.692353,-0.154239,-0.193378,3.17773,-0.323751,-0.608763,0.565361
26,40,-0.0872665,-0.698132,-0.174533,-0.174533,-0.103155,-0.692353,-0.154239,-0.193378,3.17773,-0.323751,-0.608763,0.565361
26,40,-0.0872665,-0.698132,-0.174533,-0.174533,-0.103155,-0.692353,-0.154239,-0.193378,3.17773,-0.323751,-0.608763,0.565361
26,40,-0.0872665,-0.698132,-0.174533,-0.174533,-0.103155,-0.692353,-0.154239,-0.193378,3.17773,-0.323751,-0.608763,0.565361
26,40,-0.0872665,-0.698132,-0.174533,-0.174533,-0.103155,-0.692353,-0.154239,-0.193378,3.17773,-0.323751,-0.608763,0.565361
26,40,-0.0872665,-0.698132,-0.174533,-0.174533,-0.103155,-0.692353,-0.154239,-0.193378,3.17773,-0.323751,-0.608763,0.565361
26,40,-0.0872665,-0.698132,-0.174533,-0.174533,-0.103155,-0.692353,-0.154239,-0.193378,3.17773,-0.323751,-0.608763,0.565361
26,40,-0.0872665,-0.698132,-0.174533,-0.174533,-0.103155,-0.692353,-0.154239,-0.193378,3.17773,-0.323751,-0.608763,0.565361
26,40,-0.0872665,-0.698132,-0.174533,-0.174533,-0.103155,-0.692353,-0.154239,-0.193378,3.17773,-0.323751,-0.608763,0.565361
26,40,-0.0872665,-0.698132,-0.174533,-0.174533,-0.103155,-0.692353,-0.154239,-0.193378,3.17773,-0.323751,-0.608763,0.565361
26,40,-0.0872665,-0.698132,-0.174533,-0.174533,-0.103155,-0.692353,-0.154301,-0.193359,3.17773,-0.323751,-0.606939,0.564784
26,40,-0.0872665,-0.698132,-0.174533,-0.174533,-0.103155,-0.692353,-0.154301,-0.193359,3.17773,-0.323751,-0.606939,0.564784
26,40,-0.0872665,-0.698132,-0.174533,-0.174533,-0.103155,-0.692353,-0.154301,-0.193359,3.17773,-0.323751,-0.606939,0.564784
26,40,-0.0872665,-0.698132,-0.174533,-0.174533,-0.103155,-0.692353,-0.154301,-0.193359,3.17773,-0.323751,-0.606939,0.564784
26,40,-0.0872665,-0.698132,-0.174533,-0.174533,-0.103155,-0.692353,-0.154301,-0.193359,3.17773,-0.323751,-0.606939,0.564784
26,40,-0.0872665,-0.698132,-0.174533,-0.174533,-0.103155,-0.692353,-0.154301,-0.193359,3.17773,-0.323751,-0.606939,0.564784
26,40,-0.0872665,-0.698132,-0.174533,-0.174533,-0.103155,-0.692353,-0.154301,-0.193359,3.17773,-0.323751,-0.606939,0.564784
26,40,-0.0872665,-0.698132,-0.174533,-0.174533,-0.103155,-0.692353,-0.154301,-0.193359,3.17773,-0.323751,-0.606939,0.564784
26,40,-0.0872665,-0.698132,-0.174533,-0.174533,-0.103155,-0.692353,-0.154303,-0.193418,3.17773,-0.323751,-0.60686,0.566553
26,40,-0.0872665,-0.698132,-0.174533,-0.174533,-0.103155,-0.692353,-0.154303,-0.193418,3.17773,-0.323751,-0.60686,0.566553
26,40,-0.0872665,-0.698132,-0.174533,-0.174533,-0.103155,-0.692353,-0.154303,-0.193418,3.17773,-0.323751,-0.60686,0.566553
26,40,-0.0872665,-0.698132,-0.174533,-0.174533,-0.103155,-0.692353,-0.154303,-0.193418,3.17773,-0.323751,-0.60686,0.566553
26,40,-0.0872665,-0.698132,-0.174533,-0.174533,-0.103155,-0.692353,-0.154303,-0.193418,3.17773,-0.323751,-0.60686,0.566553
26,40,-0.0872665,-0.698132,-0.174533,-0.174533,-0.103155,-0.692353,-0.154303,-0.193418,3.17773,-0.323751,-0.60686,0.566553
26,40,-0.0872665,-0.698132,-0.174533,-0.174533,-0.103155,-0.692353,-0.154303,-0.193418,3.17773,-0.323751,-0.60686,0.566553
26,40,-0.0872665,-0.698132,-0.174533,-0.174533,-0.103155,-0.692353,-0.154303,-0.193418,3.17773,-0.323751,-0.60686,0.566553
26,40,-0.0872665,-0.698132,-0.174533,-0.174533,-0.103155,-0.692353,-0.154303,-0.193418,3.17773,-0.323751,-0.60686,0.566553
26,40,-0.0872665,-0.698132,-0.174533,-0.174533,-0.103155,-0.692353,-0.154303,-0.193418,3.17773,-0.323751,-0.60686,0.566553
26,40,-0.0872665,-0.698132,-0.174533,-0.174533,-0.103155,-0.692353,-0.154303,-0.193418,3.17773,-0.323751,-0.60686,0.566553
26,40,-0.0872665,-0.698132,-0.174533,-0.174533,-0.103155,-0.692353,-0.154303,-0.193418,3.17773,-0.323751,-0.60686,0.566553
26,40,-0.0872665,-0.698132,-0.174533,-0.174533,-0.103155,-0.692353,-0.154303,-0.193418,3.17773,-0.323751,-0.60686,0.566553
26,40,-0.0872665,-0.698132,-0.174533,-0.174533,-0.103155,-0.692353,-0.154303,-0.193418,3.17773,-0.323751,-0.60686,0.566553
26,40,-0.0872665,-0.698132,-0.174533,-0.174533,-0.103155,-0.692353,-0.154237,-0.193376,3.17773,-0.323751,-0.608856,0.565284
26,40,-0.0872665,-0.698132,-0.174533,-0.174533,-0.103155,-0.692353,-0.154237,-0.193376,3.17773,-0.323751,-0.608856,0.565284
26,40,-0.0872665,-0.698132,-0.174533,-0.174533,-0.103155,-0.692353,-0.154237,-0.193376,3.17773,-0.323751,-0.608856,0.565284
26,40,-0.0872665,-0.698132,-0.174533,-0.174533,-0.103155,-0.692353,-0.154237,-0.193376,3.17773,-0.323751,-0.608856,0.565284
26,40,-0.0872665,-0.698132,-0.174533,-0.174533,-0.103155,-0.692353,-0.154237,-0.193376,3.17773,-0.323751,-0.608856,0.565284
26,40,-0.0872665,-0.698132,-0.174533,-0.174533,-0.103155,-0.692353,-0.154237,-0.193376,3.17773,-0.323751,-0.608856,0.565284
26,40,-0.0872665,-0.698132,-0.174533,-0.174533,-0.103155,-0.692353,-0.154237,-0.193376,3.17773,-0.323751,-0.608856,0.565284
26,40,-0.0872665,-0.698132,-0.174533,-0.174533,-0.103155,-0.692353,-0.154237,-0.193376,3.17773,-0.323751,-0.608856,0.565284
26,40,-0.0872665,-0.698132,-0.174533,-0.174533,-0.103155,-0.692353,-0.154237,-0.193376,3.17773,-0.323751,-0.608856,0.565284
26,40,-0.0872665,-0.698132,-0.174533,-0.174533,-0.103155,-0.692353,-0.154298,-0.193357,3.17773,-0.323751,-0.607021,0.564704
26,40,-0.0872665,-0.698132,-0.174533,-0.174533,-0.103155,-0.692353,-0.154298,-0.193357,3.17773,-0.323751,-0.607021,0.564704
26,40,-0.0872665,-0.698132,-0.174533,-0.174533,-0.103155,-0.692353,-0.154298,-0.193357,3.17773,-0.323751,-0.607021,0.564704
26,40,-0.0872665,-0.698132,-0.174533,-0.174533,-0.103155,-0.692353,-0.154298,-0.193357,3.17773,-0.323751,-0.607021,0.564704
26,40,-0.0872665,-0.698132,-0.174533,-0.174533,-0.103155,-0.692353,-0.154298,-0.193357,3.17773,-0.323751,-0.607021,0.564704
26,40,-0.0872665,-0.698132,-0.174533,-0.174533,-0.103155,-0.692353,-0.154298,-0.193357,3.17773,-0.323751,-0.607021,0.564704
26,40,-0.0872665,-0.698132,-0.174533,-0.174533,-0.103155,-0.692353,-0.154298,-0.193357,3.17773,-0.323751,-0.607021,0.564704
26,40,-0.0872665,-0.698132,-0.174533,-0.174533,-0.103155,-0.692353,-0.1543,-0.193416,3.17773,-0.323751,-0.606942,0.566483
26,40,-0.0872665,-0.698132,-0.174533,-0.174533,-0.103155,-0.692353,-0.1543,-0.193416,3.17773,-0.323751,-0.606942,0.566483
26,40,-0.0872665,-0.698132,-0.174533,-0.174533,-0.103155,-0.692353,-0.1543,-0.193416,3.17773,-0.323751,-0.606942,0.566483
26,40,-0.0872665,-0.698132,-0.174533,-0.174533,-0.103155,-0.692353,-0.1543,-0.193416,3.17773,-0.323751,-0.606942,0.566483
26,40,-0.0872665,-0.698132,-0.174533,-0.174533,-0.103155,-0.692353,-0.1543,-0.193416,3.17773,-0.323751,-0.606942,0.566483
26,40,-0.0872665,-0.698132,-0.174533,-0.174533,-0.103155,-0.692353,-0.1543,-0.193416,3.17773,-0.323751,-0.606942,0.566483
26,40,-0.0872665,-0.698132,-0.174533,-0.174533,-0.103155,-0.692353,-0.1543,-0.193416,3.17773,-0.323751,-0.606942,0.566483
26,40,-0.0872665,-0.698132,-0.174533,-0.174533,-0.103155,-0.692353,-0.1543,-0.193416,3.17773,-0.323751,-0.606942,0.566483
26,40,-0.0872665,-0.698132,-0.174533,-0.174533,-0.103155,-0.692353,-0.154361,-0.193397,3.17773,-0.323751,-0.605129,0.56591
26,40,-0.0872665,-0.698132,-0.174533,-0.174533,-0.103155,-0.692353,-0.154361,-0.193397,3.17773,-0.323751,-0.605129,0.56591
26,40,-0.0872665,-0.698132,-0.174533,-0.174533,-0.103155,-0.692353,-0.154361,-0.193397,3.17773,-0.323751,-0.605129,0.56591
26,40,-0.0872665,-0.698132,-0.174533,-0.174533,-0.103155,-0.692353,-0.154361,-0.193397,3.17773,-0.323597,-0.605129,0.56591
26,40,-0.0872665,-0.698132,-0.174533,-0.174533,-0.103155,-0.692353,-0.154361,-0.193397,3.17773,-0.323597,-0.605129,0.56591
26,40,-0.0872665,-0.698132,-0.174533,-0.174533,-0.103155,-0.692353,-0.154361,-0.193397,3.17773,-0.323597,-0.605129,0.56591
26,40,-0.0872665,-0.698132,-0.174533,-0.174533,-0.103155,-0.692353,-0.154361,-0.193397,3.17773,-0.323597,-0.605129,0.56591
26,40,-0.0872665,-0.698132,-0.174533,-0.174533,-0.103155,-0.692353,-0.154361,-0.193397,3.17773,-0.323597,-0.605129,0.56591
26,40,-0.0872665,-0.698132,-0.174533,-0.174533,-0.103155,-0.692353,-0.154361,-0.193397,3.17773,-0.323597,-0.605129,0.56591
26,40,-0.0872665,-0.698132,-0.174533,-0.174533,-0.103155,-0.692302,-0.154361,-0.193397,3.17773,-0.326514,-0.605129,0.56591
26,40,-0.0872665,-0.698132,-0.174533,-0.174533,-0.103155,-0.692302,-0.154423,-0.193378,3.17773,-0.326514,-0.603291,0.56533
26,40,-0.0872665,-0.698132,-0.174533,-0.174533,-0.103155,-0.692302,-0.154423,-0.193378,3.17773,-0.326514,-0.603291,0.56533
26,40,-0.0872665,-0.698132,-0.174533,-0.174533,-0.103155,-0.692302,-0.154423,-0.193378,3.17773,-0.326514,-0.603291,0.56533
26,40,-0.0872665,-0.698132,-0.174533,-0.174533,-0.103155,-0.692302,-0.154423,-0.193378,3.17773,-0.326514,-0.603291,0.56533
26,40,-0.0872665,-0.698132,-0.174533,-0.174533,-0.103155,-0.692302,-0.154423,-0.193378,3.17773,-0.326514,-0.603291,0.56533
26,40,-0.0872665,-0.698132,-0.174533,-0.174533,-0.103155,-0.692302,-0.154423,-0.193378,3.17773,-0.326514,-0.603291,0.56533
26,40,-0.0872665,-0.698132,-0.174533,-0.174533,-0.103155,-0.692302,-0.154423,-0.193378,3.17773,-0.326514,-0.603291,0.56533
26,40,-0.0872665,-0.698132,-0.174533,-0.174533,-0.103155,-0.692302,-0.154423,-0.193378,3.17773,-0.326514,-0.603291,0.56533
26,40,-0.0872665,-0.698132,-0.174533,-0.174533,-0.103155,-0.692302,-0.154423,-0.193378,3.17773,-0.326514,-0.603291,0.56533
26,40,-0.0872665,-0.698132,-0.174533,-0.174533,-0.103155,-0.692302,-0.154423,-0.193378,3.17773,-0.326514,-0.603291,0.56533
26,40,-0.0872665,-0.698132,-0.174533,-0.174533,-0.103155,-0.692302,-0.154423,-0.193378,3.17773,-0.326514,-0.603291,0.56533
26,40,-0.0872665,-0.698132,-0.174533,-0.174533,-0.103155,-0.692302,-0.154423,-0.193378,3.17773,-0.326514,-0.603291,0.56533
26,40,-0.0872665,-0.698132,-0.174533,-0.174533,-0.103155,-0.692302,-0.154484,-0.193358,3.17773,-0.326514,-0.601447,0.564747
26,40,-0.0872665,-0.698132,-0.174533,-0.174533,-0.103155,-0.692302,-0.154484,-0.193358,3.17773,-0.326514,-0.601447,0.564747
26,40,-0.0872665,-0.698132,-0.174533,-0.174533,-0.103155,-0.692302,-0.154484,-0.193358,3.17773,-0.326514,-0.601447,0.564747
26,40,-0.0872665,-0.698132,-0.174533,-0.174533,-0.103155,-0.692302,-0.154484,-0.193358,3.17773,-0.326514,-0.601447,0.564747
26,40,-0.0872665,-0.698132,-0.174533,-0.174533,-0.103155,-0.692302,-0.154484,-0.193358,3.17773,-0.326514,-0.601447,0.564747
26,40,-0.0872665,-0.698132,-0.174533,-0.174533,-0.103155,-0.692302,-0.154484,-0.193358,3.17773,-0.326514,-0.601447,0.564747
26,40,-0.0872665,-0.698132,-0.174533,-0.174533,-0.103155,-0.692302,-0.154484,-0.193358,3.17773,-0.326514,-0.601447,0.564747
26,40,-0.0872665,-0.698132,-0.174533,-0.174533,-0.103155,-0.692302,-0.154484,-0.193358,3.17773,-0.326514,-0.601447,0.564747
26,40,-0.0872665,-0.698132,-0.174533,-0.174533,-0.103155,-0.692302,-0.154484,-0.193358,3.17773,-0.326514,-0.601447,0.564747
26,40,-0.0872665,-0.698132,-0.174533,-0.174533,-0.103155,-0.692302,-0.154484,-0.193358,3.17773,-0.326514,-0.601447,0.564747
26,40,-0.0872665,-0.698132,-0.174533,-0.174533,-0.103155,-0.692302,-0.154484,-0.193358,3.17773,-0.326514,-0.601447,0.564747
26,40,-0.0872665,-0.698132,-0.174533,-0.174533,-0.103155,-0.692302,-0.154486,-0.193418,3.17773,-0.326514,-0.601367,0.566529
26,40,-0.0872665,-0.698132,-0.174533,-0.174533,-0.103155,-0.692302,-0.154547,-0.193398,3.17773,-0.326514,-0.599536,0.565951
26,40,-0.0872665,-0.698132,-0.174533,-0.174533,-0.103155,-0.692302,-0.154547,-0.193398,3.17773,-0.326514,-0.599536,0.565951
26,40,-0.0872665,-0.698132,-0.174533,-0.174533,-0.103155,-0.692302,-0.154547,-0.193398,3.17773,-0.326514,-0.599536,0.565951
26,40,-0.0872665,-0.698132,-0.174533,-0.174533,-0.103155,-0.692302,-0.154547,-0.193398,3.17773,-0.326514,-0.599536,0.565951
26,40,-0.0872665,-0.698132,-0.174533,-0.174533,-0.103155,-0.692302,-0.154547,-0.193398,3.17773,-0.326514,-0.599536,0.565951
26,40,-0.0872665,-0.698132,-0.174533,-0.174533,-0.103155,-0.692302,-0.154547,-0.193398,3.17773,-0.326514,-0.599536,0.565951
26,40,-0.0872665,-0.698132,-0.174533,-0.174533,-0.103155,-0.692302,-0.154481,-0.193356,3.17773,-0.326514,-0.601525,0.564687
26,40,-0.0872665,-0.698132,-0.174533,-0.174533,-0.103155,-0.692302,-0.154481,-0.193356,3.17773,-0.326514,-0.601525,0.564687
26,40,-0.0872665,-0.698132,-0.174533,-0.174533,-0.103155,-0.692302,-0.154481,-0.193356,3.17773,-0.326514,-0.601525,0.564687
26,40,-0.0872665,-0.698132,-0.174533,-0.174533,-0.103155,-0.692302,-0.154481,-0.193356,3.17773,-0.326514,-0.601525,0.564687
26,40,-0.0872665,-0.698132,-0.174533,-0.174533,-0.103155,-0.692302,-0.154481,-0.193356,3.17773,-0.326514,-0.601525,0.564687
26,40,-0.0872665,-0.698132,-0.174533,-0.174533,-0.103155,-0.692302,-0.154481,-0.193356,3.17773,-0.326514,-0.601525,0.564687
26,40,-0.0872665,-0.698132,-0.174533,-0.174533,-0.103155,-0.692302,-0.154481,-0.193356,3.17773,-0.326514,-0.601525,0.564687
26,40,-0.0872665,-0.698132,-0.174533,-0.174533,-0.103155,-0.692302,-0.154481,-0.193356,3.17773,-0.326514,-0.601525,0.564687
26,40,-0.0872665,-0.698132,-0.174533,-0.174533,-0.103155,-0.692302,-0.154481,-0.193356,3.17773,-0.326514,-0.601525,0.564687
26,40,-0.0872665,-0.698132,-0.174533,-0.174533,-0.103155,-0.692302,-0.154481,-0.193356,3.17773,-0.326514,-0.601525,0.564687
26,40,-0.0872665,-0.698132,-0.174533,-0.174533,-0.103155,-0.692302,-0.154481,-0.193356,3.17773,-0.326514,-0.601525,0.564687
26,40,-0.0872665,-0.698132,-0.174533,-0.174533,-0.103155,-0.692302,-0.154481,-0.193356,3.17773,-0.326514,-0.601525,0.564687
26,40,-0.0872665,-0.698132,-0.174533,-0.174533,-0.103155,-0.692302,-0.154542,-0.193337,3.17773,-0.326514,-0.599663,0.564099
26,40,-0.0872665,-0.698132,-0.174533,-0.174533,-0.103155,-0.692302,-0.154542,-0.193337,3.17773,-0.326514,-0.599663,0.564099
26,40,-0.0872665,-0.698132,-0.174533,-0.174533,-0.103155,-0.692302,-0.154542,-0.193337,3.17773,-0.326514,-0.599663,0.564099
26,40,-0.0872665,-0.698132,-0.174533,-0.174533,-0.103155,-0.692302,-0.154542,-0.193337,3.17773,-0.326514,-0.599663,0.564099
26,40,-0.0872665,-0.698132,-0.174533,-0.174533,-0.103155,-0.692302,-0.154542,-0.193337,3.17773,-0.326514,-0.599663,0.564099
26,40,-0.0872665,-0.698132,-0.174533,-0.174533,-0.103155,-0.692302,-0.154542,-0.193337,3.17773,-0.326514,-0.599663,0.564099
26,40,-0.0872665,-0.698132,-0.174533,-0.174533,-0.103155,-0.692302,-0.154542,-0.193337,3.17773,-0.326514,-0.599663,0.564099
26,40,-0.0872665,-0.698132,-0.174533,-0.174533,-0.103155,-0.692302,-0.154542,-0.193337,3.17773,-0.326514,-0.599663,0.564099
26,40,-0.0872665,-0.698132,-0.174533,-0.174533,-0.103155,-0.692302,-0.154542,-0.193337,3.17773,-0.326514,-0.599663,0.564099
26,40,-0.0872665,-0.698132,-0.174533,-0.174533,-0.103155,-0.692302,-0.154542,-0.193337,3.17773,-0.326514,-0.599663,0.564099
26,40,-0.0872665,-0.698132,-0.174533,-0.174533,-0.103155,-0.692302,-0.154542,-0.193337,3.17773,-0.326514,-0.599663,0.564099
26,40,-0.0872665,-0.698132,-0.174533,-0.174533,-0.103155,-0.692302,-0.154542,-0.193337,3.17773,-0.326514,-0.599663,0.564099
26,40,-0.0872665,-0.698132,-0.174533,-0.174533,-0.103155,-0.692302,-0.154542,-0.193337,3.17773,-0.326514,-0.599663,0.564099
26,40,-0.0872665,-0.698132,-0.174533,-0.174533,-0.103155,-0.692302,-0.154542,-0.193337,3.17773,-0.326514,-0.599663,0.564099
26,40,-0.0872665,-0.698132,-0.174533,-0.174533,-0.103155,-0.692302,-0.154542,-0.193337,3.17773,-0.326514,-0.599663,0.564099
26,40,-0.0872665,-0.698132,-0.174533,-0.174533,-0.103155,-0.692302,-0.154542,-0.193337,3.17773,-0.326514,-0.599663,0.564099
26,40,-0.0872665,-0.698132,-0.174533,-0.174533,-0.103155,-0.692302,-0.154542,-0.193337,3.17773,-0.326514,-0.599663,0.564099
26,40,-0.0872665,-0.698132,-0.174533,-0.174533,-0.103155,-0.692302,-0.154542,-0.193337,3.17773,-0.326514,-0.599663,0.564099
26,40,-0.0872665,-0.698132,-0.174533,-0.174533,-0.103155,-0.692302,-0.154542,-0.193337,3.17773,-0.326514,-0.599663,0.564099
26,40,-0.0872665,-0.698132,-0.174533,-0.174533,-0.103155,-0.692302,-0.154542,-0.193337,3.17773,-0.326514,-0.599663,0.564099
26,40,-0.0872665,-0.698132,-0.174533,-0.174533,-0.103155,-0.692302,-0.154542,-0.193337,3.17773,-0.326514,-0.599663,0.564099
26,40,-0.0872665,-0.698132,-0.174533,-0.174533,-0.103155,-0.692302,-0.154542,-0.193337,3.17773,-0.326514,-0.599663,0.564099
26,40,-0.0872665,-0.698132,-0.174533,-0.174533,-0.103155,-0.692302,-0.154542,-0.193337,3.17773,-0.326514,-0.599663,0.564099
26,40,-0.0872665,-0.698132,-0.174533,-0.174533,-0.103155,-0.692302,-0.154542,-0.193337,3.17773,-0.326514,-0.599663,0.564099
26,40,-0.0872665,-0.698132,-0.174533,-0.174533,-0.103155,-0.692302,-0.154542,-0.193337,3.17773,-0.326514,-0.599663,0.564099
26,40,-0.0872665,-0.698132,-0.174533,-0.174533,-0.103155,-0.692302,-0.154545,-0.193396,3.17773,-0.326514,-0.599583,0.565881
26,40,-0.0872665,-0.698132,-0.174533,-0.174533,-0.103155,-0.692302,-0.154545,-0.193396,3.17773,-0.326514,-0.599583,0.565881
26,40,-0.0872665,-0.698132,-0.174533,-0.174533,-0.103155,-0.692302,-0.154545,-0.193396,3.17773,-0.326514,-0.599583,0.565881
26,40,-0.0872665,-0.698132,-0.174533,-0.174533,-0.103155,-0.692302,-0.154545,-0.193396,3.17773,-0.326514,-0.599586,0.565882
26,40,-0.0872665,-0.698132,-0.174533,-0.174533,-0.103155,-0.692302,-0.154545,-0.193396,3.17773,-0.326514,-0.599589,0.565883
26,40,-0.0872665,-0.698132,-0.174533,-0.174533,-0.103155,-0.692302,-0.154545,-0.193396,3.17773,-0.326514,-0.599592,0.565884
26,40,-0.0872665,-0.698132,-0.174533,-0.174533,-0.103155,-0.692302,-0.154545,-0.193396,3.17773,-0.326514,-0.599595,0.565885
26,40,-0.0872665,-0.698132,-0.174533,-0.174533,-0.103155,-0.692302,-0.154545,-0.193396,3.17773,-0.326514,-0.599598,0.565886
26,40,-0.0872665,-0.698132,-0.174533,-0.174533,-0.103155,-0.692302,-0.154545,-0.193396,3.17773,-0.326514,-0.5996,0.565886
26,40,-0.0872665,-0.698132,-0.174533,-0.174533,-0.103155,-0.692302,-0.154545,-0.193396,3.17773,-0.326514,-0.599603,0.565887
26,40,-0.0872665,-0.698132,-0.174533,-0.174533,-0.103155,-0.692302,-0.154545,-0.193396,3.17773,-0.326514,-0.599605,0.565888
26,40,-0.0872665,-0.698132,-0.174533,-0.174533,-0.103155,-0.692302,-0.154545,-0.193396,3.17773,-0.326514,-0.599607,0.565889
26,40,-0.0872665,-0.698132,-0.174533,-0.174533,-0.103155,-0.692302,-0.154545,-0.193396,3.17773,-0.326514,-0.599609,0.565889
26,40,-0.0872665,-0.698132,-0.174533,-0.174533,-0.103155,-0.692302,-0.154545,-0.193396,3.17773,-0.326514,-0.599611,0.56589
26,40,-0.0872665,-0.698132,-0.174533,-0.174533,-0.103155,-0.692302,-0.154545,-0.193396,3.17773,-0.326514,-0.599613,0.56589
26,40,-0.0872665,-0.698132,-0.174533,-0.174533,-0.103155,-0.692302,-0.154545,-0.193396,3.17773,-0.326514,-0.599615,0.565891
26,40,-0.0872665,-0.698132,-0.174533,-0.174533,-0.103155,-0.692302,-0.154545,-0.193396,3.17773,-0.326514,-0.599617,0.565892
26,40,-0.0872665,-0.698132,-0.174533,-0.174533,-0.103155,-0.692302,-0.154545,-0.193396,3.17773,-0.326514,-0.599618,0.565892
26,40,-0.0872665,-0.698132,-0.174533,-0.174533,-0.103155,-0.692302,-0.154545,-0.193396,3.17773,-0.326514,-0.59962,0.565893
26,40,-0.0872665,-0.698132,-0.174533,-0.174533,-0.103155,-0.692302,-0.154606,-0.193377,3.17773,-0.326514,-0.597758,0.565304
26,40,-0.0872665,-0.698132,-0.174533,-0.174533,-0.103155,-0.692302,-0.154606,-0.193377,3.17773,-0.326514,-0.597758,0.565304
26,40,-0.0872665,-0.698132,-0.174533,-0.174533,-0.103155,-0.692302,-0.154606,-0.193377,3.17773,-0.326514,-0.597758,0.565304
26,40,-0.0872665,-0.698132,-0.174533,-0.174533,-0.103155,-0.692302,-0.154606,-0.193377,3.17773,-0.326514,-0.597758,0.565304
26,40,-0.0872665,-0.698132,-0.174533,-0.174533,-0.103155,-0.692302,-0.154539,-0.193335,3.17773,-0.326514,-0.599747,0.56404
26,40,-0.0872665,-0.698132,-0.174533,-0.174533,-0.103155,-0.692302,-0.154539,-0.193335,3.17773,-0.326514,-0.599747,0.56404
26,40,-0.0872665,-0.698132,-0.174533,-0.174533,-0.103155,-0.692302,-0.154539,-0.193335,3.17773,-0.326514,-0.599747,0.56404
26,40,-0.0872665,-0.698132,-0.174533,-0.174533,-0.103155,-0.692302,-0.154539,-0.193335,3.17773,-0.326514,-0.599747,0.56404
26,40,-0.0872665,-0.698132,-0.174533,-0.174533,-0.103155,-0.692302,-0.154539,-0.193335,3.17773,-0.326514,-0.599747,0.56404
26,40,-0.0872665,-0.698132,-0.174533,-0.174533,-0.103155,-0.692302,-0.154539,-0.193335,3.17773,-0.326514,-0.599747,0.56404
26,40,-0.0872665,-0.698132,-0.174533,-0.174533,-0.103155,-0.692302,-0.154539,-0.193335,3.17773,-0.326514,-0.599747,0.56404
26,40,-0.0872665,-0.698132,-0.174533,-0.174533,-0.103155,-0.692302,-0.154539,-0.193335,3.17773,-0.326514,-0.599747,0.56404
26,40,-0.0872665,-0.698132,-0.174533,-0.174533,-0.103155,-0.692302,-0.154539,-0.193335,3.17773,-0.326514,-0.599747,0.56404
26,40,-0.0872665,-0.698132,-0.174533,-0.174533,-0.103155,-0.692302,-0.154539,-0.193335,3.17773,-0.326514,-0.599747,0.56404
26,40,-0.0872665,-0.698132,-0.174533,-0.174533,-0.103155,-0.692302,-0.154539,-0.193335,3.17773,-0.326514,-0.599747,0.56404
26,40,-0.0872665,-0.698132,-0.174533,-0.174533,-0.103155,-0.692302,-0.154539,-0.193335,3.17773,-0.326514,-0.599747,0.56404
26,40,-0.0872665,-0.698132,-0.174533,-0.174533,-0.103155,-0.692302,-0.154539,-0.193335,3.17773,-0.326514,-0.599747,0.56404
26,40,-0.0872665,-0.698132,-0.174533,-0.174533,-0.103155,-0.692302,-0.154539,-0.193335,3.17773,-0.326514,-0.599747,0.56404
26,40,-0.0872665,-0.698132,-0.174533,-0.174533,-0.103155,-0.692302,-0.154539,-0.193335,3.17773,-0.326514,-0.599747,0.56404
26,40,-0.0872665,-0.698132,-0.174533,-0.174533,-0.103155,-0.692302,-0.154539,-0.193335,3.17773,-0.326514,-0.599747,0.56404
26,40,-0.0872665,-0.698132,-0.174533,-0.174533,-0.103155,-0.692302,-0.154539,-0.193335,3.17773,-0.326514,-0.599747,0.56404
26,40,-0.0872665,-0.698132,-0.174533,-0.174533,-0.103155,-0.692302,-0.154472,-0.193292,3.17773,-0.326514,-0.601749,0.562768
26,40,-0.0872665,-0.698132,-0.174533,-0.174533,-0.103155,-0.692302,-0.154472,-0.193292,3.17773,-0.326514,-0.601749,0.562768
26,40,-0.0872665,-0.698132,-0.174533,-0.174533,-0.103155,-0.692302,-0.154472,-0.193292,3.17773,-0.326514,-0.601749,0.562768
26,40,-0.0872665,-0.698132,-0.174533,-0.174533,-0.103155,-0.692302,-0.154472,-0.193292,3.17773,-0.326514,-0.601749,0.562768
26,40,-0.0872665,-0.698132,-0.174533,-0.174533,-0.103155,-0.692302,-0.154472,-0.193292,3.17773,-0.326514,-0.601752,0.562769
26,40,-0.0872665,-0.698132,-0.174533,-0.174533,-0.103155,-0.692302,-0.154472,-0.193292,3.17773,-0.326514,-0.601756,0.56277
26,40,-0.0872665,-0.698132,-0.174533,-0.174533,-0.103155,-0.692302,-0.154472,-0.193292,3.17773,-0.326514,-0.601759,0.562771
26,40,-0.0872665,-0.698132,-0.174533,-0.174533,-0.103155,-0.692302,-0.154472,-0.193292,3.17773,-0.326514,-0.601762,0.562772
26,40,-0.0872665,-0.698132,-0.174533,-0.174533,-0.103155,-0.692302,-0.154472,-0.193292,3.17773,-0.326514,-0.601764,0.562772
26,40,-0.0872665,-0.698132,-0.174533,-0.174533,-0.103155,-0.692302,-0.154472,-0.193292,3.17773,-0.326514,-0.601767,0.562773
26,40,-0.0872665,-0.698132,-0.174533,-0.174533,-0.103155,-0.692302,-0.154472,-0.193292,3.17773,-0.326514,-0.601769,0.562774
26,40,-0.0872665,-0.698132,-0.174533,-0.174533,-0.103155,-0.692302,-0.154472,-0.193292,3.17773,-0.326514,-0.601771,0.562775
26,40,-0.0872665,-0.698132,-0.174533,-0.174533,-0.103155,-0.692302,-0.154472,-0.193292,3.17773,-0.326514,-0.601773,0.562775
26,40,-0.0872665,-0.698132,-0.174533,-0.174533,-0.103155,-0.692302,-0.154472,-0.193292,3.17773,-0.326514,-0.601775,0.562776
26,40,-0.0872665,-0.698132,-0.174533,-0.174533,-0.103155,-0.692302,-0.154472,-0.193292,3.17773,-0.326514,-0.601777,0.562777
26,40,-0.0872665,-0.698132,-0.174533,-0.174533,-0.103155,-0.692302,-0.154472,-0.193292,3.17773,-0.326514,-0.601779,0.562777
26,40,-0.0872665,-0.698132,-0.174533,-0.174533,-0.103155,-0.692302,-0.154472,-0.193292,3.17773,-0.326514,-0.601781,0.562778
26,40,-0.0872665,-0.698132,-0.174533,-0.174533,-0.103155,-0.692302,-0.154475,-0.193352,3.17773,-0.326514,-0.601703,0.564564
26,40,-0.0872665,-0.698132,-0.174533,-0.174533,-0.103155,-0.692302,-0.154475,-0.193352,3.17773,-0.326514,-0.601704,0.564565
26,40,-0.0872665,-0.698132,-0.174533,-0.174533,-0.103155,-0.692302,-0.154475,-0.193352,3.17773,-0.326514,-0.601706,0.564565
26,40,-0.0872665,-0.698132,-0.174533,-0.174533,-0.103155,-0.692302,-0.154475,-0.193352,3.17773,-0.326514,-0.601707,0.564566
26,40,-0.0872665,-0.698132,-0.174533,-0.174533,-0.103155,-0.692302,-0.154475,-0.193352,3.17773,-0.326514,-0.601708,0.564566
26,40,-0.0872665,-0.698132,-0.174533,-0.174533,-0.103155,-0.692302,-0.154475,-0.193352,3.17773,-0.326514,-0.601709,0.564567
26,40,-0.0872665,-0.698132,-0.174533,-0.174533,-0.103155,-0.692302,-0.154475,-0.193352,3.17773,-0.326514,-0.601711,0.564567
26,40,-0.0872665,-0.698132,-0.174533,-0.174533,-0.103155,-0.692302,-0.154475,-0.193352,3.17773,-0.326514,-0.601712,0.564567
26,40,-0.0872665,-0.698132,-0.174533,-0.174533,-0.103155,-0.692302,-0.154475,-0.193352,3.17773,-0.326514,-0.601713,0.564568
26,40,-0.0872665,-0.698132,-0.174533,-0.174533,-0.103155,-0.692302,-0.154475,-0.193352,3.17773,-0.326514,-0.601714,0.564568
26,40,-0.0872665,-0.698132,-0.174533,-0.174533,-0.103155,-0.692302,-0.154475,-0.193352,3.17773,-0.326514,-0.601715,0.564568
26,40,-0.0872665,-0.698132,-0.174533,-0.174533,-0.103155,-0.692302,-0.154475,-0.193352,3.17773,-0.326514,-0.601716,0.564569
26,40,-0.0872665,-0.698132,-0.174533,-0.174533,-0.103155,-0.692302,-0.154475,-0.193352,3.17773,-0.326514,-0.601717,0.564569
26,40,-0.0872665,-0.698132,-0.174533,-0.174533,-0.103155,-0.692302,-0.154475,-0.193352,3.17773,-0.326514,-0.601718,0.564569
26,40,-0.0872665,-0.698132,-0.174533,-0.174533,-0.103155,-0.692302,-0.154475,-0.193352,3.17773,-0.326514,-0.601719,0.564569
26,40,-0.0872665,-0.698132,-0.174533,-0.174533,-0.103155,-0.692302,-0.154475,-0.193352,3.17773,-0.326514,-0.601719,0.56457
26,40,-0.0872665,-0.698132,-0.174533,-0.174533,-0.103155,-0.692302,-0.154475,-0.193352,3.17773,-0.326514,-0.60172,0.56457
26,40,-0.0872665,-0.698132,-0.174533,-0.174533,-0.103155,-0.692302,-0.154475,-0.193352,3.17773,-0.326514,-0.601721,0.56457
26,40,-0.0872665,-0.698132,-0.174533,-0.174533,-0.103155,-0.692302,-0.154475,-0.193352,3.17773,-0.326514,-0.601722,0.56457
26,40,-0.0872665,-0.698132,-0.174533,-0.174533,-0.103155,-0.692302,-0.154478,-0.193411,3.17773,-0.326514,-0.601643,0.566353
26,40,-0.0872665,-0.698132,-0.174533,-0.174533,-0.103155,-0.692302,-0.154478,-0.193411,3.17773,-0.326514,-0.601643,0.566353
26,40,-0.0872665,-0.698132,-0.174533,-0.174533,-0.103155,-0.692302,-0.154478,-0.193411,3.17773,-0.326514,-0.601644,0.566353
26,40,-0.0872665,-0.698132,-0.174533,-0.174533,-0.103155,-0.692302,-0.154478,-0.193411,3.17773,-0.326514,-0.601645,0.566353
26,40,-0.0872665,-0.698132,-0.174533,-0.174533,-0.103155,-0.692302,-0.154478,-0.193411,3.17773,-0.326514,-0.601645,0.566354
26,40,-0.0872665,-0.698132,-0.174533,-0.174533,-0.103155,-0.692302,-0.154478,-0.193411,3.17773,-0.326514,-0.601646,0.566354
26,40,-0.0872665,-0.698132,-0.174533,-0.174533,-0.103155,-0.692302,-0.154478,-0.193411,3.17773,-0.326514,-0.601647,0.566354
26,40,-0.0872665,-0.698132,-0.174533,-0.174533,-0.103155,-0.692302,-0.154478,-0.193411,3.17773,-0.326514,-0.601647,0.566354
26,40,-0.0872665,-0.698132,-0.174533,-0.174533,-0.103155,-0.692302,-0.154478,-0.193411,3.17773,-0.326514,-0.601648,0.566354
26,40,-0.0872665,-0.698132,-0.174533,-0.174533,-0.103155,-0.692302,-0.154478,-0.193411,3.17773,-0.326514,-0.601648,0.566354
26,40,-0.0872665,-0.698132,-0.174533,-0.174533,-0.103155,-0.692302,-0.154478,-0.193411,3.17773,-0.326514,-0.601649,0.566355
26,40,-0.0872665,-0.698132,-0.174533,-0.174533,-0.103155,-0.692302,-0.154478,-0.193411,3.17773,-0.326514,-0.601649,0.566355
26,40,-0.0872665,-0.698132,-0.174533,-0.174533,-0.103155,-0.692302,-0.154478,-0.193411,3.17773,-0.326514,-0.60165,0.566355
26,40,-0.0872665,-0.698132,-0.174533,-0.174533,-0.103155,-0.692302,-0.154478,-0.193411,3.17773,-0.326514,-0.60165,0.566355
26,40,-0.0872665,-0.698132,-0.174533,-0.174533,-0.103155,-0.692302,-0.154478,-0.193411,3.17773,-0.326514,-0.601651,0.566355
26,40,-0.0872665,-0.698132,-0.174533,-0.174533,-0.103155,-0.692302,-0.154478,-0.193411,3.17773,-0.326514,-0.601651,0.566355
26,40,-0.0872665,-0.698132,-0.174533,-0.174533,-0.103155,-0.692302,-0.154478,-0.193411,3.17773,-0.326514,-0.601652,0.566356
26,40,-0.0872665,-0.698132,-0.174533,-0.174533,-0.103155,-0.692302,-0.154478,-0.193411,3.17773,-0.326514,-0.601652,0.566356
26,40,-0.0872665,-0.698132,-0.174533,-0.174533,-0.103155,-0.692302,-0.154478,-0.193411,3.17773,-0.326514,-0.601652,0.566356
26,40,-0.0872665,-0.698132,-0.174533,-0.174533,-0.103155,-0.692302,-0.154478,-0.193411,3.17773,-0.326514,-0.601653,0.566356
26,40,-0.0872665,-0.698132,-0.174533,-0.174533,-0.103155,-0.692302,-0.154478,-0.193411,3.17773,-0.326514,-0.601653,0.566356
26,40,-0.0872665,-0.698132,-0.174533,-0.174533,-0.103155,-0.692302,-0.154478,-0.193411,3.17773,-0.326514,-0.601654,0.566356
26,40,-0.0872665,-0.698132,-0.174533,-0.174533,-0.103155,-0.692302,-0.154478,-0.193411,3.17773,-0.326514,-0.601654,0.566356
26,40,-0.0872665,-0.698132,-0.174533,-0.174533,-0.103155,-0.692302,-0.154539,-0.193392,3.17773,-0.326514,-0.599793,0.565768
26,40,-0.0872665,-0.698132,-0.174533,-0.174533,-0.103155,-0.692302,-0.154539,-0.193392,3.17773,-0.326514,-0.599793,0.565768
26,40,-0.0872665,-0.698132,-0.174533,-0.174533,-0.103155,-0.692302,-0.154539,-0.193392,3.17773,-0.326514,-0.599793,0.565768
26,40,-0.0872665,-0.698132,-0.174533,-0.174533,-0.103155,-0.692302,-0.154539,-0.193392,3.17773,-0.326514,-0.599793,0.565768
26,40,-0.0872665,-0.698132,-0.174533,-0.174533,-0.103155,-0.692302,-0.154539,-0.193392,3.17773,-0.326514,-0.599793,0.565768
26,40,-0.0872665,-0.698132,-0.174533,-0.174533,-0.103155,-0.692302,-0.154539,-0.193392,3.17773,-0.326514,-0.599793,0.565768
26,40,-0.0872665,-0.698132,-0.174533,-0.174533,-0.103155,-0.692302,-0.154539,-0.193392,3.17773,-0.326514,-0.599793,0.565768
26,40,-0.0872665,-0.698132,-0.174533,-0.174533,-0.103155,-0.692302,-0.154539,-0.193392,3.17773,-0.326514,-0.599793,0.565768
26,40,-0.0872665,-0.698132,-0.174533,-0.174533,-0.103155,-0.692302,-0.154539,-0.193392,3.17773,-0.326514,-0.599793,0.565768
26,40,-0.0872665,-0.698132,-0.174533,-0.174533,-0.103155,-0.692302,-0.154539,-0.193392,3.17773,-0.326514,-0.599793,0.565768
26,40,-0.0872665,-0.698132,-0.174533,-0.174533,-0.103155,-0.692302,-0.154539,-0.193392,3.17773,-0.326514,-0.599793,0.565768
26,40,-0.0872665,-0.698132,-0.174533,-0.174533,-0.103155,-0.692302,-0.154539,-0.193392,3.17773,-0.326514,-0.599793,0.565768
26,40,-0.0872665,-0.698132,-0.174533,-0.174533,-0.103155,-0.692302,-0.154539,-0.193392,3.17773,-0.326514,-0.599793,0.565768
26,40,-0.0872665,-0.698132,-0.174533,-0.174533,-0.103155,-0.692302,-0.154539,-0.193392,3.17773,-0.326514,-0.599793,0.565768
26,40,-0.0872665,-0.698132,-0.174533,-0.174533,-0.103155,-0.692302,-0.154539,-0.193392,3.17773,-0.326514,-0.599793,0.565768
26,40,-0.0872665,-0.698132,-0.174533,-0.174533,-0.103155,-0.692302,-0.154539,-0.193392,3.17773,-0.326514,-0.599793,0.565768
26,40,-0.0872665,-0.698132,-0.174533,-0.174533,-0.103155,-0.692302,-0.154539,-0.193392,3.17773,-0.326514,-0.599793,0.565768
26,40,-0.0872665,-0.698132,-0.174533,-0.174533,-0.103155,-0.692302,-0.154539,-0.193392,3.17773,-0.326514,-0.599793,0.565768
26,40,-0.0872665,-0.698132,-0.174533,-0.174533,-0.103155,-0.692302,-0.154539,-0.193392,3.17773,-0.326514,-0.599793,0.565768
26,40,-0.0872665,-0.698132,-0.174533,-0.174533,-0.103155,-0.692302,-0.154539,-0.193392,3.17773,-0.326514,-0.599793,0.565768
26,40,-0.0872665,-0.698132,-0.174533,-0.174533,-0.103155,-0.692302,-0.154539,-0.193392,3.17773,-0.326514,-0.599793,0.565768
26,40,-0.0872665,-0.698132,-0.174533,-0.174533,-0.103155,-0.692302,-0.154539,-0.193392,3.17773,-0.326514,-0.599793,0.565768
26,40,-0.0872665,-0.698132,-0.174533,-0.174533,-0.103155,-0.692302,-0.154539,-0.193392,3.17773,-0.326514,-0.599793,0.565768
26,40,-0.0872665,-0.698132,-0.174533,-0.174533,-0.103155,-0.692302,-0.154539,-0.193392,3.17773,-0.326514,-0.599793,0.565768
26,40,-0.0872665,-0.698132,-0.174533,-0.174533,-0.103155,-0.692302,-0.154539,-0.193392,3.17773,-0.326514,-0.599793,0.565768
26,40,-0.0872665,-0.698132,-0.174533,-0.174533,-0.103155,-0.692302,-0.154539,-0.193392,3.17773,-0.326514,-0.599793,0.565768
26,40,-0.0872665,-0.698132,-0.174533,-0.174533,-0.103155,-0.692302,-0.154539,-0.193392,3.17773,-0.326514,-0.599793,0.565768
26,40,-0.0872665,-0.698132,-0.174533,-0.174533,-0.103155,-0.692302,-0.154539,-0.193392,3.17773,-0.326514,-0.599793,0.565768
26,40,-0.0872665,-0.698132,-0.174533,-0.174533,-0.103155,-0.692302,-0.154539,-0.193392,3.17773,-0.326514,-0.599793,0.565768
26,40,-0.0872665,-0.698132,-0.174533,-0.174533,-0.103155,-0.692302,-0.154539,-0.193392,3.17773,-0.326514,-0.599793,0.565768
26,40,-0.0872665,-0.698132,-0.174533,-0.174533,-0.103155,-0.692302,-0.154539,-0.193392,3.17773,-0.326514,-0.599793,0.565768
26,40,-0.0872665,-0.698132,-0.174533,-0.174533,-0.103155,-0.692302,-0.154539,-0.193392,3.17773,-0.326514,-0.599793,0.565768
26,40,-0.0872665,-0.698132,-0.174533,-0.174533,-0.103155,-0.692302,-0.154539,-0.193392,3.17773,-0.326514,-0.599793,0.565768
26,40,-0.0872665,-0.698132,-0.174533,-0.174533,-0.103155,-0.692302,-0.154539,-0.193392,3.17773,-0.326514,-0.599793,0.565768
26,40,-0.0872665,-0.698132,-0.174533,-0.174533,-0.103155,-0.692302,-0.154542,-0.193452,3.17773,-0.326514,-0.599713,0.567557
26,40,-0.0872665,-0.698132,-0.174533,-0.174533,-0.103155,-0.692302,-0.154542,-0.193452,3.17773,-0.326514,-0.599713,0.567557
26,40,-0.0872665,-0.698132,-0.174533,-0.174533,-0.103155,-0.692302,-0.154542,-0.193452,3.17773,-0.326514,-0.599713,0.567557
26,40,-0.0872665,-0.698132,-0.174533,-0.174533,-0.103155,-0.692302,-0.154542,-0.193452,3.17773,-0.326514,-0.599713,0.567557
26,40,-0.0872665,-0.698132,-0.174533,-0.174533,-0.103155,-0.692302,-0.154542,-0.193452,3.17773,-0.326514,-0.599713,0.567557
26,40,-0.0872665,-0.698132,-0.174533,-0.174533,-0.103155,-0.692302,-0.154542,-0.193452,3.17773,-0.326514,-0.599713,0.567557
26,40,-0.0872665,-0.698132,-0.174533,-0.174533,-0.103155,-0.692302,-0.154542,-0.193452,3.17773,-0.326514,-0.599713,0.567557
26,40,-0.0872665,-0.698132,-0.174533,-0.174533,-0.103155,-0.692302,-0.154542,-0.193452,3.17773,-0.326514,-0.599713,0.567557
26,40,-0.0872665,-0.698132,-0.174533,-0.174533,-0.103155,-0.692302,-0.154542,-0.193452,3.17773,-0.326445,-0.599713,0.567557
26,40,-0.0872665,-0.698132,-0.174533,-0.174533,-0.103155,-0.692302,-0.154542,-0.193452,3.17773,-0.326445,-0.599713,0.567557
26,40,-0.0872665,-0.698132,-0.174533,-0.174533,-0.103155,-0.692302,-0.154542,-0.193452,3.17773,-0.326445,-0.599714,0.567557
26,40,-0.0872665,-0.698132,-0.174533,-0.174533,-0.103155,-0.692302,-0.154542,-0.193452,3.17773,-0.326445,-0.599716,0.567557
26,40,-0.0872665,-0.698132,-0.174533,-0.174533,-0.103155,-0.692302,-0.154542,-0.193452,3.17773,-0.326445,-0.599717,0.567558
26,40,-0.0872665,-0.698132,-0.174533,-0.174533,-0.103155,-0.692302,-0.154542,-0.193452,3.17773,-0.326445,-0.599718,0.567558
26,40,-0.0872665,-0.698132,-0.174533,-0.174533,-0.103155,-0.692302,-0.154542,-0.193452,3.17773,-0.326445,-0.599719,0.567558
26,40,-0.0872665,-0.698132,-0.174533,-0.174533,-0.103155,-0.692302,-0.154542,-0.193452,3.17773,-0.326445,-0.59972,0.567559
26,40,-0.0872665,-0.698132,-0.174533,-0.174533,-0.103155,-0.692302,-0.154542,-0.193452,3.17773,-0.326445,-0.599721,0.567559
26,40,-0.0872665,-0.698132,-0.174533,-0.174533,-0.103155,-0.692302,-0.154542,-0.193452,3.17773,-0.326445,-0.599722,0.567559
26,40,-0.0872665,-0.698132,-0.174533,-0.174533,-0.103155,-0.692302,-0.154542,-0.193452,3.17773,-0.326445,-0.599723,0.56756
26,40,-0.0872665,-0.698132,-0.174533,-0.174533,-0.103155,-0.692302,-0.154542,-0.193452,3.17773,-0.326445,-0.599724,0.56756
26,40,-0.0872665,-0.698132,-0.174533,-0.174533,-0.103155,-0.692302,-0.154542,-0.193452,3.17773,-0.326445,-0.599725,0.56756
26,40,-0.0872665,-0.698132,-0.174533,-0.174533,-0.103155,-0.692302,-0.154542,-0.193452,3.17773,-0.326445,-0.599726,0.56756
26,40,-0.0872665,-0.698132,-0.174533,-0.174533,-0.103155,-0.692302,-0.154542,-0.193452,3.17773,-0.326445,-0.599726,0.567561
26,40,-0.0872665,-0.698132,-0.174533,-0.174533,-0.103155,-0.692302,-0.154542,-0.193452,3.17773,-0.326445,-0.599727,0.567561
26,40,-0.0872665,-0.698132,-0.174533,-0.174533,-0.103155,-0.692302,-0.154542,-0.193452,3.17773,-0.326445,-0.599728,0.567561
26,40,-0.0872665,-0.698132,-0.174533,-0.174533,-0.103155,-0.692302,-0.154542,-0.193452,3.17773,-0.326445,-0.599729,0.567561
26,40,-0.0872665,-0.698132,-0.174533,-0.174533,-0.103155,-0.692302,-0.154542,-0.193452,3.17773,-0.326445,-0.599729,0.567562
26,40,-0.0872665,-0.698132,-0.174533,-0.174533,-0.103155,-0.692302,-0.154542,-0.193452,3.17773,-0.326445,-0.59973,0.567562
26,40,-0.0872665,-0.698132,-0.174533,-0.174533,-0.103155,-0.692302,-0.154542,-0.193452,3.17773,-0.326445,-0.599731,0.567562
26,40,-0.0872665,-0.698132,-0.174533,-0.174533,-0.103155,-0.692302,-0.154542,-0.193452,3.17773,-0.326445,-0.599731,0.567562
26,40,-0.0872665,-0.698132,-0.174533,-0.174533,-0.103155,-0.692302,-0.154542,-0.193452,3.17773,-0.326445,-0.599732,0.567562
26,40,-0.0872665,-0.698132,-0.174533,-0.174533,-0.103155,-0.692302,-0.154542,-0.193452,3.17773,-0.326445,-0.599732,0.567563
26,40,-0.0872665,-0.698132,-0.174533,-0.174533,-0.103155,-0.692302,-0.154542,-0.193452,3.17773,-0.326445,-0.599733,0.567563
26,40,-0.0872665,-0.698132,-0.174533,-0.174533,-0.103155,-0.692302,-0.154542,-0.193452,3.17773,-0.326445,-0.599734,0.567563
26,40,-0.0872665,-0.698132,-0.174533,-0.174533,-0.103155,-0.692302,-0.154542,-0.193452,3.17773,-0.326445,-0.599734,0.567563
26,40,-0.0872665,-0.698132,-0.174533,-0.174533,-0.103155,-0.692302,-0.154542,-0.193452,3.17773,-0.326445,-0.599735,0.567563
26,40,-0.0872665,-0.698132,-0.174533,-0.174533,-0.103155,-0.692302,-0.154542,-0.193452,3.17773,-0.326445,-0.599735,0.567563
26,40,-0.0872665,-0.698132,-0.174533,-0.174533,-0.103155,-0.692302,-0.154542,-0.193452,3.17773,-0.326445,-0.599736,0.567564
26,40,-0.0872665,-0.698132,-0.174533,-0.174533,-0.103155,-0.692302,-0.154542,-0.193452,3.17773,-0.326445,-0.599736,0.567564
26,40,-0.0872665,-0.698132,-0.174533,-0.174533,-0.103155,-0.692251,-0.154542,-0.193452,3.17773,-0.329388,-0.599737,0.567564
26,40,-0.0872665,-0.698132,-0.174533,-0.174533,-0.103155,-0.692251,-0.154542,-0.193452,3.17773,-0.329388,-0.599737,0.567564
26,40,-0.0872665,-0.698132,-0.174533,-0.174533,-0.103155,-0.692251,-0.154542,-0.193452,3.17773,-0.329388,-0.599737,0.567564
26,40,-0.0872665,-0.698132,-0.174533,-0.174533,-0.103155,-0.692251,-0.154542,-0.193452,3.17773,-0.329388,-0.599738,0.567564
26,40,-0.0872665,-0.698132,-0.174533,-0.174533,-0.103155,-0.692251,-0.154542,-0.193452,3.17773,-0.329388,-0.599738,0.567564
26,40,-0.0872665,-0.698132,-0.174533,-0.174533,-0.103155,-0.692251,-0.154542,-0.193452,3.17773,-0.329388,-0.599739,0.567564
26,40,-0.0872665,-0.698132,-0.174533,-0.174533,-0.103155,-0.692251,-0.154542,-0.193452,3.17773,-0.329388,-0.599739,0.567565
26,40,-0.0872665,-0.698132,-0.174533,-0.174533,-0.103155,-0.692251,-0.154542,-0.193452,3.17773,-0.329388,-0.59974,0.567565
26,40,-0.0872665,-0.698132,-0.174533,-0.174533,-0.103155,-0.692251,-0.154475,-0.193409,3.17773,-0.329388,-0.601737,0.566296
26,40,-0.0872665,-0.698132,-0.174533,-0.174533,-0.103155,-0.692251,-0.154475,-0.193409,3.17773,-0.329388,-0.601737,0.566296
26,40,-0.0872665,-0.698132,-0.174533,-0.174533,-0.103155,-0.692251,-0.154475,-0.193409,3.17773,-0.329388,-0.601738,0.566296
26,40,-0.0872665,-0.698132,-0.174533,-0.174533,-0.103155,-0.692251,-0.154475,-0.193409,3.17773,-0.329388,-0.601738,0.566296
26,40,-0.0872665,-0.698132,-0.174533,-0.174533,-0.103155,-0.692251,-0.154475,-0.193409,3.17773,-0.329388,-0.601738,0.566296
26,40,-0.0872665,-0.698132,-0.174533,-0.174533,-0.103155,-0.692251,-0.154475,-0.193409,3.17773,-0.329388,-0.601739,0.566296
26,40,-0.0872665,-0.698132,-0.174533,-0.174533,-0.103155,-0.692251,-0.154536,-0.19339,3.17773,-0.329388,-0.599903,0.565716
26,40,-0.0872665,-0.698132,-0.174533,-0.174533,-0.103155,-0.692251,-0.154536,-0.19339,3.17773,-0.329388,-0.599903,0.565716
26,40,-0.0872665,-0.698132,-0.174533,-0.174533,-0.103155,-0.692251,-0.154536,-0.19339,3.17773,-0.329388,-0.599903,0.565716
26,40,-0.0872665,-0.698132,-0.174533,-0.174533,-0.103155,-0.692251,-0.154536,-0.19339,3.17773,-0.329388,-0.599903,0.565716
26,40,-0.0872665,-0.698132,-0.174533,-0.174533,-0.103155,-0.692251,-0.154469,-0.193348,3.17773,-0.329388,-0.60189,0.564453
26,40,-0.0872665,-0.698132,-0.174533,-0.174533,-0.103155,-0.692251,-0.154469,-0.193348,3.17773,-0.329388,-0.60189,0.564453
26,40,-0.0872665,-0.698132,-0.174533,-0.174533,-0.103155,-0.692251,-0.154469,-0.193348,3.17773,-0.329388,-0.60189,0.564453
26,40,-0.0872665,-0.698132,-0.174533,-0.174533,-0.103155,-0.692251,-0.154469,-0.193348,3.17773,-0.329388,-0.60189,0.564453
26,40,-0.0872665,-0.698132,-0.174533,-0.174533,-0.103155,-0.692251,-0.154469,-0.193348,3.17773,-0.329388,-0.60189,0.564453
26,40,-0.0872665,-0.698132,-0.174533,-0.174533,-0.103155,-0.692251,-0.154469,-0.193348,3.17773,-0.329388,-0.60189,0.564453
26,40,-0.0872665,-0.698132,-0.174533,-0.174533,-0.103155,-0.692251,-0.154469,-0.193348,3.17773,-0.329388,-0.60189,0.564453
26,40,-0.0872665,-0.698132,-0.174533,-0.174533,-0.103155,-0.692251,-0.154469,-0.193348,3.17773,-0.329388,-0.60189,0.564453
26,40,-0.0872665,-0.698132,-0.174533,-0.174533,-0.103155,-0.692251,-0.154469,-0.193348,3.17773,-0.329388,-0.60189,0.564453
26,40,-0.0872665,-0.698132,-0.174533,-0.174533,-0.103155,-0.692251,-0.154403,-0.193305,3.17773,-0.329388,-0.603892,0.56318
26,40,-0.0872665,-0.698132,-0.174533,-0.174533,-0.103155,-0.692251,-0.154403,-0.193305,3.17773,-0.329388,-0.603892,0.56318
26,40,-0.0872665,-0.698132,-0.174533,-0.174533,-0.103155,-0.692251,-0.154403,-0.193305,3.17773,-0.329388,-0.603892,0.56318
26,40,-0.0872665,-0.698132,-0.174533,-0.174533,-0.103155,-0.692251,-0.154403,-0.193305,3.17773,-0.329388,-0.603892,0.56318
26,40,-0.0872665,-0.698132,-0.174533,-0.174533,-0.103155,-0.692251,-0.154403,-0.193305,3.17773,-0.329388,-0.603892,0.56318
26,40,-0.0872665,-0.698132,-0.174533,-0.174533,-0.103155,-0.692251,-0.154403,-0.193305,3.17773,-0.329388,-0.603892,0.56318
26,40,-0.0872665,-0.698132,-0.174533,-0.174533,-0.103155,-0.692251,-0.154403,-0.193305,3.17773,-0.329388,-0.603892,0.56318
26,40,-0.0872665,-0.698132,-0.174533,-0.174533,-0.103155,-0.692251,-0.154403,-0.193305,3.17773,-0.329388,-0.603892,0.56318
26,40,-0.0872665,-0.698132,-0.174533,-0.174533,-0.103155,-0.692251,-0.154336,-0.193263,3.17773,-0.329388,-0.605897,0.561906
26,40,-0.0872665,-0.698132,-0.174533,-0.174533,-0.103155,-0.692251,-0.154336,-0.193263,3.17773,-0.329388,-0.605897,0.561906
26,40,-0.0872665,-0.698132,-0.174533,-0.174533,-0.103155,-0.692251,-0.154336,-0.193263,3.17773,-0.329388,-0.605897,0.561906
26,40,-0.0872665,-0.698132,-0.174533,-0.174533,-0.103155,-0.692251,-0.154336,-0.193263,3.17773,-0.329388,-0.605897,0.561906
26,40,-0.0872665,-0.698132,-0.174533,-0.174533,-0.103155,-0.692251,-0.154397,-0.193244,3.17773,-0.329388,-0.604074,0.56133
26,40,-0.0872665,-0.698132,-0.174533,-0.174533,-0.103155,-0.692251,-0.154397,-0.193244,3.17773,-0.329388,-0.604074,0.56133
26,40,-0.0872665,-0.698132,-0.174533,-0.174533,-0.103155,-0.692251,-0.154397,-0.193244,3.17773,-0.329388,-0.604074,0.56133
26,40,-0.0872665,-0.698132,-0.174533,-0.174533,-0.103155,-0.692251,-0.154397,-0.193244,3.17773,-0.329388,-0.604074,0.56133
