stim_pw [us],stim_amp [mA],com_elbow_fe [rad],com_forearm_ps [rad],com_wrist_fe [rad],com_wrist_ru [rad],act_elbow_fe [rad],act_forearm_ps [rad],act_wrist_fe [rad],act_wrist_ru [rad],elbow_fe_trq [Nm],forearm_ps_trq [Nm],wrist_fe_trq [Nm],wrist_ru_trq [Nm]
28,40,-0.567232,-0.698132,-0.174533,-0.174533,-0.572973,-0.692455,-0.165156,-0.200219,1.1481,-0.317903,-0.28123,0.770562
28,40,-0.567232,-0.698132,-0.174533,-0.174533,-0.572973,-0.692455,-0.165156,-0.200219,1.1481,-0.317903,-0.281231,0.770561
28,40,-0.567232,-0.698132,-0.174533,-0.174533,-0.572973,-0.692455,-0.165156,-0.200219,1.1481,-0.317903,-0.281231,0.770561
28,40,-0.567232,-0.698132,-0.174533,-0.174533,-0.572973,-0.692455,-0.165156,-0.200219,1.1481,-0.317903,-0.281232,0.77056
28,40,-0.567232,-0.698132,-0.174533,-0.174533,-0.572973,-0.692455,-0.165156,-0.200219,1.1481,-0.317903,-0.281233,0.77056
28,40,-0.567232,-0.698132,-0.174533,-0.174533,-0.572973,-0.692455,-0.165156,-0.200219,1.1481,-0.317903,-0.281234,0.770559
28,40,-0.567232,-0.698132,-0.174533,-0.174533,-0.572973,-0.692455,-0.165156,-0.200219,1.1481,-0.317903,-0.281235,0.770559
28,40,-0.567232,-0.698132,-0.174533,-0.174533,-0.572973,-0.692455,-0.165156,-0.200219,1.1481,-0.317903,-0.281236,0.770558
28,40,-0.567232,-0.698132,-0.174533,-0.174533,-0.572973,-0.692455,-0.165156,-0.200219,1.1481,-0.317903,-0.281237,0.770557
28,40,-0.567232,-0.698132,-0.174533,-0.174533,-0.572973,-0.692455,-0.165156,-0.200219,1.1481,-0.317903,-0.281237,0.770557
28,40,-0.567232,-0.698132,-0.174533,-0.174533,-0.572973,-0.692455,-0.165156,-0.200219,1.1481,-0.317903,-0.281302,0.770516
28,40,-0.567232,-0.698132,-0.174533,-0.174533,-0.572973,-0.692455,-0.165156,-0.200219,1.1481,-0.317903,-0.281302,0.770516
28,40,-0.567232,-0.698132,-0.174533,-0.174533,-0.572973,-0.692455,-0.165156,-0.200219,1.1481,-0.317903,-0.281302,0.770516
28,40,-0.567232,-0.698132,-0.174533,-0.174533,-0.572973,-0.692455,-0.165156,-0.200219,1.1481,-0.317903,-0.281302,0.770516
28,40,-0.567232,-0.698132,-0.174533,-0.174533,-0.572973,-0.692455,-0.165156,-0.200219,1.1481,-0.317903,-0.281302,0.770516
28,40,-0.567232,-0.698132,-0.174533,-0.174533,-0.572973,-0.692455,-0.165156,-0.200219,1.1481,-0.317903,-0.281302,0.770516
28,40,-0.567232,-0.698132,-0.174533,-0.174533,-0.572973,-0.692455,-0.165156,-0.200219,1.1481,-0.317903,-0.281302,0.770516
28,40,-0.567232,-0.698132,-0.174533,-0.174533,-0.572973,-0.692455,-0.165156,-0.200219,1.1481,-0.317903,-0.281302,0.770516
28,40,-0.567232,-0.698132,-0.174533,-0.174533,-0.572973,-0.692455,-0.165156,-0.200219,1.1481,-0.317903,-0.281302,0.770516
28,40,-0.567232,-0.698132,-0.174533,-0.174533,-0.572973,-0.692455,-0.165156,-0.200219,1.1481,-0.317903,-0.281302,0.770516
28,40,-0.567232,-0.698132,-0.174533,-0.174533,-0.572973,-0.692455,-0.165156,-0.200219,1.1481,-0.317903,-0.281302,0.770516
28,40,-0.567232,-0.698132,-0.174533,-0.174533,-0.572973,-0.692455,-0.165156,-0.200219,1.1481,-0.317903,-0.281302,0.770516
28,40,-0.567232,-0.698132,-0.174533,-0.174533,-0.572973,-0.692455,-0.165095,-0.200238,1.1481,-0.317903,-0.283138,0.771084
28,40,-0.567232,-0.698132,-0.174533,-0.174533,-0.572973,-0.692455,-0.165095,-0.200238,1.1481,-0.317903,-0.283138,0.771084
28,40,-0.567232,-0.698132,-0.174533,-0.174533,-0.572973,-0.692455,-0.165095,-0.200238,1.1481,-0.317903,-0.283138,0.771084
28,40,-0.567232,-0.698132,-0.174533,-0.174533,-0.572973,-0.692455,-0.165095,-0.200238,1.1481,-0.317903,-0.283138,0.771084
28,40,-0.567232,-0.698132,-0.174533,-0.174533,-0.572973,-0.692455,-0.165095,-0.200238,1.1481,-0.317903,-0.283138,0.771084
28,40,-0.567232,-0.698132,-0.174533,-0.174533,-0.572973,-0.692455,-0.165095,-0.200238,1.1481,-0.317903,-0.283138,0.771084
28,40,-0.567232,-0.698132,-0.174533,-0.174533,-0.572973,-0.692455,-0.165095,-0.200238,1.1481,-0.317903,-0.283138,0.771084
28,40,-0.567232,-0.698132,-0.174533,-0.174533,-0.572973,-0.692455,-0.165095,-0.200238,1.1481,-0.317903,-0.283138,0.771084
28,40,-0.567232,-0.698132,-0.174533,-0.174533,-0.572973,-0.692455,-0.165095,-0.200238,1.1481,-0.317903,-0.283138,0.771084
28,40,-0.567232,-0.698132,-0.174533,-0.174533,-0.572973,-0.692455,-0.165095,-0.200238,1.1481,-0.317903,-0.283138,0.771084
28,40,-0.567232,-0.698132,-0.174533,-0.174533,-0.572973,-0.692455,-0.165095,-0.200238,1.1481,-0.317903,-0.283138,0.771084
28,40,-0.567232,-0.698132,-0.174533,-0.174533,-0.572973,-0.692455,-0.165095,-0.200238,1.1481,-0.317903,-0.283138,0.771084
28,40,-0.567232,-0.698132,-0.174533,-0.174533,-0.572973,-0.692455,-0.165095,-0.200238,1.1481,-0.317903,-0.283138,0.771084
28,40,-0.567232,-0.698132,-0.174533,-0.174533,-0.572973,-0.692455,-0.165095,-0.200238,1.1481,-0.317903,-0.283138,0.771084
28,40,-0.567232,-0.698132,-0.174533,-0.174533,-0.572973,-0.692455,-0.165095,-0.200238,1.1481,-0.317903,-0.283138,0.771084
28,40,-0.567232,-0.698132,-0.174533,-0.174533,-0.572973,-0.692455,-0.165095,-0.200238,1.1481,-0.317903,-0.283138,0.771084
28,40,-0.567232,-0.698132,-0.174533,-0.174533,-0.572973,-0.692455,-0.165095,-0.200238,1.1481,-0.317903,-0.283138,0.771085
28,40,-0.567232,-0.698132,-0.174533,-0.174533,-0.572973,-0.692455,-0.165095,-0.200238,1.1481,-0.317903,-0.283138,0.771086
28,40,-0.567232,-0.698132,-0.174533,-0.174533,-0.572973,-0.692455,-0.165095,-0.200238,1.1481,-0.317903,-0.283138,0.771087
28,40,-0.567232,-0.698132,-0.174533,-0.174533,-0.572973,-0.692455,-0.165163,-0.200281,1.1481,-0.317903,-0.281114,0.772371
28,40,-0.567232,-0.698132,-0.174533,-0.174533,-0.572973,-0.692455,-0.165163,-0.200281,1.1481,-0.317903,-0.281114,0.772372
28,40,-0.567232,-0.698132,-0.174533,-0.174533,-0.572973,-0.692455,-0.165101,-0.2003,1.1481,-0.317903,-0.28295,0.772941
28,40,-0.567232,-0.698132,-0.174533,-0.174533,-0.572973,-0.692455,-0.165101,-0.2003,1.1481,-0.317903,-0.28295,0.772942
28,40,-0.567232,-0.698132,-0.174533,-0.174533,-0.572973,-0.692455,-0.165101,-0.2003,1.1481,-0.317903,-0.28295,0.772943
28,40,-0.567232,-0.698132,-0.174533,-0.174533,-0.572973,-0.692455,-0.165101,-0.2003,1.1481,-0.317903,-0.28295,0.772944
28,40,-0.567232,-0.698132,-0.174533,-0.174533,-0.572973,-0.692455,-0.165101,-0.2003,1.1481,-0.317903,-0.28295,0.772945
28,40,-0.567232,-0.698132,-0.174533,-0.174533,-0.572973,-0.692455,-0.165101,-0.2003,1.1481,-0.317903,-0.28295,0.772945
28,40,-0.567232,-0.698132,-0.174533,-0.174533,-0.572973,-0.692455,-0.165101,-0.2003,1.1481,-0.317903,-0.282949,0.772946
28,40,-0.567232,-0.698132,-0.174533,-0.174533,-0.572973,-0.692455,-0.165101,-0.2003,1.1481,-0.317903,-0.282949,0.772947
28,40,-0.567232,-0.698132,-0.174533,-0.174533,-0.572973,-0.692455,-0.165101,-0.2003,1.1481,-0.317903,-0.282949,0.772948
28,40,-0.567232,-0.698132,-0.174533,-0.174533,-0.572973,-0.692455,-0.165101,-0.2003,1.1481,-0.317903,-0.282949,0.772948
28,40,-0.567232,-0.698132,-0.174533,-0.174533,-0.572973,-0.692455,-0.165101,-0.2003,1.1481,-0.317903,-0.282949,0.772949
28,40,-0.567232,-0.698132,-0.174533,-0.174533,-0.572973,-0.692455,-0.165101,-0.2003,1.1481,-0.317903,-0.282949,0.77295
28,40,-0.567232,-0.698132,-0.174533,-0.174533,-0.572973,-0.692455,-0.16504,-0.200319,1.1481,-0.317903,-0.284785,0.773519
28,40,-0.567232,-0.698132,-0.174533,-0.174533,-0.572973,-0.692455,-0.16504,-0.200319,1.1481,-0.317903,-0.284785,0.77352
28,40,-0.567232,-0.698132,-0.174533,-0.174533,-0.572973,-0.692455,-0.16504,-0.200319,1.1481,-0.317903,-0.284782,0.773576
28,40,-0.567232,-0.698132,-0.174533,-0.174533,-0.572973,-0.692455,-0.16504,-0.200319,1.1481,-0.317903,-0.284782,0.773576
28,40,-0.567232,-0.698132,-0.174533,-0.174533,-0.572973,-0.692455,-0.16504,-0.200319,1.1481,-0.317903,-0.284782,0.773576
28,40,-0.567232,-0.698132,-0.174533,-0.174533,-0.572973,-0.692455,-0.16504,-0.200319,1.1481,-0.317903,-0.284782,0.773576
28,40,-0.567232,-0.698132,-0.174533,-0.174533,-0.572973,-0.692455,-0.16504,-0.200319,1.1481,-0.317903,-0.284782,0.773576
28,40,-0.567232,-0.698132,-0.174533,-0.174533,-0.572973,-0.692455,-0.16504,-0.200319,1.1481,-0.317903,-0.284782,0.773576
28,40,-0.567232,-0.698132,-0.174533,-0.174533,-0.572973,-0.692455,-0.16504,-0.200319,1.1481,-0.317903,-0.284782,0.773576
28,40,-0.567232,-0.698132,-0.174533,-0.174533,-0.572973,-0.692455,-0.16504,-0.200319,1.1481,-0.317903,-0.284782,0.773576
28,40,-0.567232,-0.698132,-0.174533,-0.174533,-0.572973,-0.692455,-0.16504,-0.200319,1.1481,-0.317903,-0.284782,0.773576
28,40,-0.567232,-0.698132,-0.174533,-0.174533,-0.572973,-0.692455,-0.16504,-0.200319,1.1481,-0.317903,-0.284782,0.773576
28,40,-0.567232,-0.698132,-0.174533,-0.174533,-0.572973,-0.692455,-0.16504,-0.200319,1.1481,-0.317903,-0.284782,0.773576
28,40,-0.567232,-0.698132,-0.174533,-0.174533,-0.572973,-0.692455,-0.16504,-0.200319,1.1481,-0.317903,-0.284782,0.773576
28,40,-0.567232,-0.698132,-0.174533,-0.174533,-0.572973,-0.692455,-0.16504,-0.200319,1.1481,-0.317903,-0.284782,0.773576
28,40,-0.567232,-0.698132,-0.174533,-0.174533,-0.572973,-0.692455,-0.16504,-0.200319,1.1481,-0.317903,-0.284782,0.773576
28,40,-0.567232,-0.698132,-0.174533,-0.174533,-0.572973,-0.692455,-0.16504,-0.200319,1.1481,-0.317903,-0.284782,0.773576
28,40,-0.567232,-0.698132,-0.174533,-0.174533,-0.572973,-0.692455,-0.16504,-0.200319,1.1481,-0.317903,-0.284782,0.773576
28,40,-0.567232,-0.698132,-0.174533,-0.174533,-0.572973,-0.692455,-0.16504,-0.200319,1.1481,-0.317903,-0.284782,0.773576
28,40,-0.567232,-0.698132,-0.174533,-0.174533,-0.572973,-0.692455,-0.16504,-0.200319,1.1481,-0.317903,-0.284782,0.773576
28,40,-0.567232,-0.698132,-0.174533,-0.174533,-0.572973,-0.692455,-0.16504,-0.200319,1.1481,-0.317903,-0.284782,0.773576
28,40,-0.567232,-0.698132,-0.174533,-0.174533,-0.572973,-0.692455,-0.16504,-0.200319,1.1481,-0.317903,-0.284782,0.773576
28,40,-0.567232,-0.698132,-0.174533,-0.174533,-0.572973,-0.692455,-0.16504,-0.200319,1.1481,-0.317903,-0.284782,0.773576
28,40,-0.567232,-0.698132,-0.174533,-0.174533,-0.572973,-0.692455,-0.16504,-0.200319,1.1481,-0.317903,-0.284782,0.773576
28,40,-0.567232,-0.698132,-0.174533,-0.174533,-0.572973,-0.692455,-0.16504,-0.200319,1.1481,-0.317903,-0.284782,0.773576
28,40,-0.567232,-0.698132,-0.174533,-0.174533,-0.572973,-0.692455,-0.16504,-0.200319,1.1481,-0.317903,-0.284782,0.773576
28,40,-0.567232,-0.698132,-0.174533,-0.174533,-0.572973,-0.692455,-0.16504,-0.200319,1.1481,-0.317903,-0.284782,0.773576
28,40,-0.567232,-0.698132,-0.174533,-0.174533,-0.572973,-0.692455,-0.16504,-0.200319,1.1481,-0.317903,-0.284782,0.773576
28,40,-0.567232,-0.698132,-0.174533,-0.174533,-0.572973,-0.692455,-0.16504,-0.200319,1.1481,-0.317903,-0.284782,0.773576
28,40,-0.567232,-0.698132,-0.174533,-0.174533,-0.572973,-0.692455,-0.16504,-0.200319,1.1481,-0.317903,-0.284782,0.773576
28,40,-0.567232,-0.698132,-0.174533,-0.174533,-0.572973,-0.692455,-0.16504,-0.200319,1.1481,-0.317903,-0.284782,0.773576
28,40,-0.567232,-0.698132,-0.174533,-0.174533,-0.572973,-0.692455,-0.16504,-0.200319,1.1481,-0.317903,-0.284782,0.773576
28,40,-0.567232,-0.698132,-0.174533,-0.174533,-0.572973,-0.692455,-0.16504,-0.200319,1.1481,-0.317903,-0.284782,0.773576
28,40,-0.567232,-0.698132,-0.174533,-0.174533,-0.572973,-0.692455,-0.165108,-0.200362,1.1481,-0.317903,-0.282758,0.774859
28,40,-0.567232,-0.698132,-0.174533,-0.174533,-0.572973,-0.692455,-0.165108,-0.200362,1.1481,-0.317903,-0.282758,0.774859
28,40,-0.567232,-0.698132,-0.174533,-0.174533,-0.572973,-0.692455,-0.165108,-0.200362,1.1481,-0.317903,-0.282758,0.774859
28,40,-0.567232,-0.698132,-0.174533,-0.174533,-0.572973,-0.692455,-0.165108,-0.200362,1.1481,-0.317903,-0.282758,0.774859
28,40,-0.567232,-0.698132,-0.174533,-0.174533,-0.572973,-0.692455,-0.165108,-0.200362,1.1481,-0.317903,-0.282758,0.774859
28,40,-0.567232,-0.698132,-0.174533,-0.174533,-0.572973,-0.692455,-0.165108,-0.200362,1.1481,-0.317903,-0.282758,0.774859
28,40,-0.567232,-0.698132,-0.174533,-0.174533,-0.572973,-0.692455,-0.165108,-0.200362,1.1481,-0.317903,-0.282758,0.774859
28,40,-0.567232,-0.698132,-0.174533,-0.174533,-0.572973,-0.692455,-0.165108,-0.200362,1.1481,-0.317903,-0.282758,0.774859
28,40,-0.567232,-0.698132,-0.174533,-0.174533,-0.572973,-0.692455,-0.165108,-0.200362,1.1481,-0.317903,-0.282758,0.774859
28,40,-0.567232,-0.698132,-0.174533,-0.174533,-0.572973,-0.692455,-0.165108,-0.200362,1.1481,-0.317903,-0.282758,0.774859
28,40,-0.567232,-0.698132,-0.174533,-0.174533,-0.572973,-0.692455,-0.165108,-0.200362,1.1481,-0.317903,-0.282758,0.774859
28,40,-0.567232,-0.698132,-0.174533,-0.174533,-0.572973,-0.692455,-0.165108,-0.200362,1.1481,-0.317903,-0.282758,0.774859
28,40,-0.567232,-0.698132,-0.174533,-0.174533,-0.572973,-0.692455,-0.165046,-0.200381,1.1481,-0.317903,-0.284594,0.775427
28,40,-0.567232,-0.698132,-0.174533,-0.174533,-0.572973,-0.692455,-0.165046,-0.200381,1.1481,-0.317903,-0.284594,0.775427
28,40,-0.567232,-0.698132,-0.174533,-0.174533,-0.572973,-0.692455,-0.165046,-0.200381,1.1481,-0.317903,-0.284594,0.775427
28,40,-0.567232,-0.698132,-0.174533,-0.174533,-0.572973,-0.692455,-0.165046,-0.200381,1.1481,-0.317903,-0.284594,0.775427
28,40,-0.567232,-0.698132,-0.174533,-0.174533,-0.572973,-0.692455,-0.165046,-0.200381,1.1481,-0.317903,-0.284594,0.775427
28,40,-0.567232,-0.698132,-0.174533,-0.174533,-0.572973,-0.692455,-0.165046,-0.200381,1.1481,-0.317903,-0.284594,0.775427
28,40,-0.567232,-0.698132,-0.174533,-0.174533,-0.572973,-0.692455,-0.165046,-0.200381,1.1481,-0.317903,-0.284594,0.775427
28,40,-0.567232,-0.698132,-0.174533,-0.174533,-0.572973,-0.692455,-0.165046,-0.200381,1.1481,-0.317903,-0.284594,0.775427
28,40,-0.567232,-0.698132,-0.174533,-0.174533,-0.572973,-0.692455,-0.165046,-0.200381,1.1481,-0.317903,-0.284594,0.775427
28,40,-0.567232,-0.698132,-0.174533,-0.174533,-0.572973,-0.692455,-0.165046,-0.200381,1.1481,-0.317903,-0.284594,0.775427
28,40,-0.567232,-0.698132,-0.174533,-0.174533,-0.572973,-0.692455,-0.165046,-0.200381,1.1481,-0.317903,-0.284594,0.775427
28,40,-0.567232,-0.698132,-0.174533,-0.174533,-0.572973,-0.692455,-0.165046,-0.200381,1.1481,-0.317903,-0.284594,0.775427
28,40,-0.567232,-0.698132,-0.174533,-0.174533,-0.572973,-0.692455,-0.165046,-0.200381,1.1481,-0.317903,-0.284594,0.775427
28,40,-0.567232,-0.698132,-0.174533,-0.174533,-0.572973,-0.692455,-0.165046,-0.200381,1.1481,-0.317903,-0.284594,0.775427
28,40,-0.567232,-0.698132,-0.174533,-0.174533,-0.572973,-0.692455,-0.165046,-0.200381,1.1481,-0.317903,-0.284594,0.775427
28,40,-0.567232,-0.698132,-0.174533,-0.174533,-0.572973,-0.692455,-0.165046,-0.200381,1.1481,-0.317903,-0.284594,0.775427
28,40,-0.567232,-0.698132,-0.174533,-0.174533,-0.572973,-0.692455,-0.165114,-0.200423,1.1481,-0.317903,-0.28257,0.77671
28,40,-0.567232,-0.698132,-0.174533,-0.174533,-0.572973,-0.692455,-0.165114,-0.200423,1.1481,-0.317903,-0.28257,0.77671
28,40,-0.567232,-0.698132,-0.174533,-0.174533,-0.572973,-0.692455,-0.165114,-0.200423,1.1481,-0.317903,-0.28257,0.77671
28,40,-0.567232,-0.698132,-0.174533,-0.174533,-0.572973,-0.692455,-0.165114,-0.200423,1.1481,-0.317903,-0.28257,0.77671
28,40,-0.567232,-0.698132,-0.174533,-0.174533,-0.572973,-0.692455,-0.165114,-0.200423,1.1481,-0.317903,-0.28257,0.77671
28,40,-0.567232,-0.698132,-0.174533,-0.174533,-0.572973,-0.692455,-0.165114,-0.200423,1.1481,-0.317903,-0.28257,0.77671
28,40,-0.567232,-0.698132,-0.174533,-0.174533,-0.572973,-0.692455,-0.165114,-0.200423,1.1481,-0.317903,-0.28257,0.77671
28,40,-0.567232,-0.698132,-0.174533,-0.174533,-0.572973,-0.692455,-0.165114,-0.200423,1.1481,-0.317903,-0.28257,0.77671
28,40,-0.567232,-0.698132,-0.174533,-0.174533,-0.572973,-0.692455,-0.165111,-0.200364,1.1481,-0.317903,-0.282668,0.774924
28,40,-0.567232,-0.698132,-0.174533,-0.174533,-0.572973,-0.692455,-0.165111,-0.200364,1.1481,-0.317903,-0.282668,0.774924
28,40,-0.567232,-0.698132,-0.174533,-0.174533,-0.572973,-0.692455,-0.165111,-0.200364,1.1481,-0.317903,-0.282668,0.774924
28,40,-0.567232,-0.698132,-0.174533,-0.174533,-0.572973,-0.692455,-0.165111,-0.200364,1.1481,-0.317903,-0.282668,0.774924
28,40,-0.567232,-0.698132,-0.174533,-0.174533,-0.572973,-0.692455,-0.165111,-0.200364,1.1481,-0.317903,-0.282668,0.774924
28,40,-0.567232,-0.698132,-0.174533,-0.174533,-0.572973,-0.692455,-0.165111,-0.200364,1.1481,-0.317903,-0.282668,0.774924
28,40,-0.567232,-0.698132,-0.174533,-0.174533,-0.572973,-0.692455,-0.165111,-0.200364,1.1481,-0.317903,-0.282668,0.774924
28,40,-0.567232,-0.698132,-0.174533,-0.174533,-0.572973,-0.692455,-0.165111,-0.200364,1.1481,-0.317903,-0.282668,0.774924
28,40,-0.567232,-0.698132,-0.174533,-0.174533,-0.572973,-0.692455,-0.165111,-0.200364,1.1481,-0.317903,-0.282668,0.774924
28,40,-0.567232,-0.698132,-0.174533,-0.174533,-0.572973,-0.692455,-0.165111,-0.200364,1.1481,-0.317903,-0.282668,0.774924
28,40,-0.567232,-0.698132,-0.174533,-0.174533,-0.572973,-0.692455,-0.165111,-0.200364,1.1481,-0.317903,-0.282668,0.774924
28,40,-0.567232,-0.698132,-0.174533,-0.174533,-0.572973,-0.692455,-0.165111,-0.200364,1.1481,-0.317903,-0.282668,0.774924
28,40,-0.567232,-0.698132,-0.174533,-0.174533,-0.572973,-0.692455,-0.165111,-0.200364,1.1481,-0.317903,-0.282668,0.774924
28,40,-0.567232,-0.698132,-0.174533,-0.174533,-0.572973,-0.692455,-0.165111,-0.200364,1.1481,-0.317903,-0.282668,0.774924
28,40,-0.567232,-0.698132,-0.174533,-0.174533,-0.572973,-0.692455,-0.165111,-0.200364,1.1481,-0.317903,-0.282668,0.774924
28,40,-0.567232,-0.698132,-0.174533,-0.174533,-0.572973,-0.692455,-0.165111,-0.200364,1.1481,-0.317903,-0.282668,0.774924
28,40,-0.567232,-0.698132,-0.174533,-0.174533,-0.572973,-0.692455,-0.165111,-0.200364,1.1481,-0.317903,-0.282668,0.774924
28,40,-0.567232,-0.698132,-0.174533,-0.174533,-0.572973,-0.692455,-0.165111,-0.200364,1.1481,-0.317903,-0.282668,0.774924
28,40,-0.567232,-0.698132,-0.174533,-0.174533,-0.572973,-0.692455,-0.165111,-0.200364,1.1481,-0.317903,-0.282668,0.774924
28,40,-0.567232,-0.698132,-0.174533,-0.174533,-0.572973,-0.692455,-0.165111,-0.200364,1.1481,-0.317903,-0.282668,0.774924
28,40,-0.567232,-0.698132,-0.174533,-0.174533,-0.572973,-0.692455,-0.165111,-0.200364,1.1481,-0.317903,-0.282668,0.774924
28,40,-0.567232,-0.698132,-0.174533,-0.174533,-0.572973,-0.692455,-0.165107,-0.200304,1.1481,-0.317903,-0.282765,0.773138
28,40,-0.567232,-0.698132,-0.174533,-0.174533,-0.572973,-0.692455,-0.165175,-0.200347,1.1481,-0.317903,-0.280741,0.774421
28,40,-0.567232,-0.698132,-0.174533,-0.174533,-0.572973,-0.692455,-0.165175,-0.200347,1.1481,-0.317903,-0.280741,0.774421
28,40,-0.567232,-0.698132,-0.174533,-0.174533,-0.572973,-0.692455,-0.165172,-0.200287,1.1481,-0.317903,-0.280838,0.772635
28,40,-0.567232,-0.698132,-0.174533,-0.174533,-0.572973,-0.692455,-0.165172,-0.200287,1.1481,-0.317903,-0.280838,0.772635
28,40,-0.567232,-0.698132,-0.174533,-0.174533,-0.572973,-0.692455,-0.165172,-0.200287,1.1481,-0.317903,-0.280838,0.772635
28,40,-0.567232,-0.698132,-0.174533,-0.174533,-0.572973,-0.692455,-0.165172,-0.200287,1.1481,-0.317903,-0.280838,0.772635
28,40,-0.567232,-0.698132,-0.174533,-0.174533,-0.572973,-0.692455,-0.165172,-0.200287,1.1481,-0.317903,-0.280838,0.772635
28,40,-0.567232,-0.698132,-0.174533,-0.174533,-0.572973,-0.692455,-0.165172,-0.200287,1.1481,-0.317903,-0.280838,0.772635
28,40,-0.567232,-0.698132,-0.174533,-0.174533,-0.572973,-0.692455,-0.165168,-0.200228,1.1481,-0.317903,-0.280936,0.770849
28,40,-0.567232,-0.698132,-0.174533,-0.174533,-0.572973,-0.692455,-0.165168,-0.200228,1.1481,-0.317903,-0.280936,0.770849
28,40,-0.567232,-0.698132,-0.174533,-0.174533,-0.572973,-0.692455,-0.165168,-0.200228,1.1481,-0.317903,-0.280936,0.770849
28,40,-0.567232,-0.698132,-0.174533,-0.174533,-0.572973,-0.692455,-0.165168,-0.200228,1.1481,-0.317903,-0.280936,0.770849
28,40,-0.567232,-0.698132,-0.174533,-0.174533,-0.572973,-0.692455,-0.165168,-0.200228,1.1481,-0.317903,-0.280936,0.770849
28,40,-0.567232,-0.698132,-0.174533,-0.174533,-0.572973,-0.692455,-0.165168,-0.200228,1.1481,-0.317903,-0.280936,0.770849
28,40,-0.567232,-0.698132,-0.174533,-0.174533,-0.572973,-0.692455,-0.165168,-0.200228,1.1481,-0.317903,-0.280936,0.770849
28,40,-0.567232,-0.698132,-0.174533,-0.174533,-0.572973,-0.692455,-0.165165,-0.200168,1.1481,-0.317903,-0.28104,0.768934
28,40,-0.567232,-0.698132,-0.174533,-0.174533,-0.572973,-0.692455,-0.165165,-0.200168,1.1481,-0.317903,-0.28104,0.768934
28,40,-0.567232,-0.698132,-0.174533,-0.174533,-0.572973,-0.692455,-0.165165,-0.200168,1.1481,-0.317903,-0.28104,0.768934
28,40,-0.567232,-0.698132,-0.174533,-0.174533,-0.572973,-0.692455,-0.165165,-0.200168,1.1481,-0.317903,-0.28104,0.768934
28,40,-0.567232,-0.698132,-0.174533,-0.174533,-0.572973,-0.692455,-0.165165,-0.200168,1.1481,-0.317903,-0.28104,0.768934
28,40,-0.567232,-0.698132,-0.174533,-0.174533,-0.572973,-0.692455,-0.165165,-0.200168,1.1481,-0.317903,-0.28104,0.768934
28,40,-0.567232,-0.698132,-0.174533,-0.174533,-0.572973,-0.692455,-0.165165,-0.200168,1.1481,-0.317903,-0.28104,0.768934
28,40,-0.567232,-0.698132,-0.174533,-0.174533,-0.572973,-0.692455,-0.165165,-0.200168,1.1481,-0.317903,-0.28104,0.768934
28,40,-0.567232,-0.698132,-0.174533,-0.174533,-0.572973,-0.692455,-0.165165,-0.200168,1.1481,-0.317903,-0.28104,0.768934
28,40,-0.567232,-0.698132,-0.174533,-0.174533,-0.572973,-0.692455,-0.165165,-0.200168,1.1481,-0.317903,-0.28104,0.768934
28,40,-0.567232,-0.698132,-0.174533,-0.174533,-0.572973,-0.692455,-0.165165,-0.200168,1.1481,-0.317903,-0.28104,0.768934
28,40,-0.567232,-0.698132,-0.174533,-0.174533,-0.572973,-0.692455,-0.165165,-0.200168,1.1481,-0.317903,-0.28104,0.768934
28,40,-0.567232,-0.698132,-0.174533,-0.174533,-0.572973,-0.692455,-0.165165,-0.200168,1.1481,-0.317903,-0.28104,0.768934
28,40,-0.567232,-0.698132,-0.174533,-0.174533,-0.572973,-0.692455,-0.165165,-0.200168,1.1481,-0.317903,-0.28104,0.768934
28,40,-0.567232,-0.698132,-0.174533,-0.174533,-0.572973,-0.692455,-0.165165,-0.200168,1.1481,-0.317903,-0.28104,0.768934
28,40,-0.567232,-0.698132,-0.174533,-0.174533,-0.572973,-0.692455,-0.165165,-0.200168,1.1481,-0.317903,-0.28104,0.768934
28,40,-0.567232,-0.698132,-0.174533,-0.174533,-0.572973,-0.692455,-0.165165,-0.200168,1.1481,-0.317903,-0.28104,0.768934
28,40,-0.567232,-0.698132,-0.174533,-0.174533,-0.572973,-0.692455,-0.165165,-0.200168,1.1481,-0.317903,-0.28104,0.768934
28,40,-0.567232,-0.698132,-0.174533,-0.174533,-0.572973,-0.692455,-0.165165,-0.200168,1.1481,-0.317903,-0.28104,0.768934
28,40,-0.567232,-0.698132,-0.174533,-0.174533,-0.572973,-0.692455,-0.165165,-0.200168,1.1481,-0.317903,-0.28104,0.768934
28,40,-0.567232,-0.698132,-0.174533,-0.174533,-0.572973,-0.692455,-0.165165,-0.200168,1.1481,-0.317903,-0.28104,0.768934
28,40,-0.567232,-0.698132,-0.174533,-0.174533,-0.572973,-0.692506,-0.165165,-0.200168,1.1481,-0.315056,-0.28104,0.768934
28,40,-0.567232,-0.698132,-0.174533,-0.174533,-0.572973,-0.692506,-0.165162,-0.200109,1.1481,-0.315056,-0.281137,0.767151
28,40,-0.567232,-0.698132,-0.174533,-0.174533,-0.572973,-0.692506,-0.165162,-0.200109,1.1481,-0.315056,-0.281137,0.767151
28,40,-0.567232,-0.698132,-0.174533,-0.174533,-0.572973,-0.692506,-0.165162,-0.200109,1.1481,-0.315056,-0.281137,0.767151
28,40,-0.567232,-0.698132,-0.174533,-0.174533,-0.572973,-0.692506,-0.165162,-0.200109,1.1481,-0.315056,-0.281137,0.767151
28,40,-0.567232,-0.698132,-0.174533,-0.174533,-0.572973,-0.692506,-0.165162,-0.200109,1.1481,-0.315056,-0.281137,0.767151
28,40,-0.567232,-0.698132,-0.174533,-0.174533,-0.572973,-0.692506,-0.165162,-0.200109,1.1481,-0.315056,-0.281137,0.767151
28,40,-0.567232,-0.698132,-0.174533,-0.174533,-0.572973,-0.692506,-0.165162,-0.200109,1.1481,-0.315056,-0.281137,0.767151
28,40,-0.567232,-0.698132,-0.174533,-0.174533,-0.572973,-0.692506,-0.165162,-0.200109,1.1481,-0.315056,-0.281137,0.767151
28,40,-0.567232,-0.698132,-0.174533,-0.174533,-0.572973,-0.692506,-0.165162,-0.200109,1.1481,-0.315056,-0.281137,0.767151
28,40,-0.567232,-0.698132,-0.174533,-0.174533,-0.572973,-0.692506,-0.165162,-0.200109,1.1481,-0.315056,-0.281137,0.767151
28,40,-0.567232,-0.698132,-0.174533,-0.174533,-0.572973,-0.692506,-0.165162,-0.200109,1.1481,-0.315056,-0.281137,0.767151
28,40,-0.567232,-0.698132,-0.174533,-0.174533,-0.572973,-0.692506,-0.165162,-0.200109,1.1481,-0.315056,-0.281137,0.767151
28,40,-0.567232,-0.698132,-0.174533,-0.174533,-0.572973,-0.692506,-0.165162,-0.200109,1.1481,-0.315056,-0.281137,0.767151
28,40,-0.567232,-0.698132,-0.174533,-0.174533,-0.572973,-0.692506,-0.165162,-0.200109,1.1481,-0.315056,-0.281137,0.767151
28,40,-0.567232,-0.698132,-0.174533,-0.174533,-0.572973,-0.692506,-0.165162,-0.200109,1.1481,-0.315056,-0.281137,0.767151
28,40,-0.567232,-0.698132,-0.174533,-0.174533,-0.572973,-0.692506,-0.165162,-0.200109,1.1481,-0.315056,-0.281137,0.767151
28,40,-0.567232,-0.698132,-0.174533,-0.174533,-0.572973,-0.692506,-0.165162,-0.200109,1.1481,-0.315056,-0.281137,0.767151
28,40,-0.567232,-0.698132,-0.174533,-0.174533,-0.572973,-0.692506,-0.165159,-0.200049,1.1481,-0.315056,-0.281232,0.765397
28,40,-0.567232,-0.698132,-0.174533,-0.174533,-0.572973,-0.692506,-0.165159,-0.200049,1.1481,-0.315056,-0.281232,0.765397
28,40,-0.567232,-0.698132,-0.174533,-0.174533,-0.572973,-0.692506,-0.165226,-0.200092,1.1481,-0.315056,-0.279209,0.76668
28,40,-0.567232,-0.698132,-0.174533,-0.174533,-0.572973,-0.692506,-0.165226,-0.200092,1.1481,-0.315056,-0.279209,0.76668
28,40,-0.567232,-0.698132,-0.174533,-0.174533,-0.572973,-0.692506,-0.165226,-0.200092,1.1481,-0.315056,-0.279209,0.76668
28,40,-0.567232,-0.698132,-0.174533,-0.174533,-0.572973,-0.692506,-0.165226,-0.200092,1.1481,-0.315056,-0.279209,0.76668
28,40,-0.567232,-0.698132,-0.174533,-0.174533,-0.572973,-0.692506,-0.165226,-0.200092,1.1481,-0.315056,-0.279209,0.76668
28,40,-0.567232,-0.698132,-0.174533,-0.174533,-0.572973,-0.692506,-0.165226,-0.200092,1.1481,-0.315056,-0.279209,0.76668
28,40,-0.567232,-0.698132,-0.174533,-0.174533,-0.572973,-0.692506,-0.165226,-0.200092,1.1481,-0.315056,-0.279209,0.76668
28,40,-0.567232,-0.698132,-0.174533,-0.174533,-0.572973,-0.692506,-0.165226,-0.200092,1.1481,-0.315056,-0.279209,0.76668
28,40,-0.567232,-0.698132,-0.174533,-0.174533,-0.572973,-0.692506,-0.165226,-0.200092,1.1481,-0.315056,-0.279209,0.76668
28,40,-0.567232,-0.698132,-0.174533,-0.174533,-0.572973,-0.692506,-0.165226,-0.200092,1.1481,-0.315056,-0.279209,0.76668
28,40,-0.567232,-0.698132,-0.174533,-0.174533,-0.572973,-0.692506,-0.165226,-0.200092,1.1481,-0.315056,-0.279209,0.76668
28,40,-0.567232,-0.698132,-0.174533,-0.174533,-0.572973,-0.692506,-0.165226,-0.200092,1.1481,-0.315056,-0.279209,0.76668
28,40,-0.567232,-0.698132,-0.174533,-0.174533,-0.572973,-0.692506,-0.165226,-0.200092,1.1481,-0.315056,-0.279209,0.76668
28,40,-0.567232,-0.698132,-0.174533,-0.174533,-0.572973,-0.692506,-0.165226,-0.200092,1.1481,-0.315056,-0.279209,0.76668
28,40,-0.567232,-0.698132,-0.174533,-0.174533,-0.572973,-0.692506,-0.165226,-0.200092,1.1481,-0.315056,-0.279209,0.76668
28,40,-0.567232,-0.698132,-0.174533,-0.174533,-0.572973,-0.692506,-0.165226,-0.200092,1.1481,-0.315056,-0.279209,0.76668
28,40,-0.567232,-0.698132,-0.174533,-0.174533,-0.572973,-0.692506,-0.165226,-0.200092,1.1481,-0.315056,-0.279209,0.76668
28,40,-0.567232,-0.698132,-0.174533,-0.174533,-0.572973,-0.692506,-0.165226,-0.200092,1.1481,-0.315056,-0.279209,0.76668
28,40,-0.567232,-0.698132,-0.174533,-0.174533,-0.572973,-0.692506,-0.165226,-0.200092,1.1481,-0.315056,-0.279209,0.76668
28,40,-0.567232,-0.698132,-0.174533,-0.174533,-0.572973,-0.692506,-0.165226,-0.200092,1.1481,-0.315056,-0.279209,0.76668
28,40,-0.567232,-0.698132,-0.174533,-0.174533,-0.572973,-0.692506,-0.165226,-0.200092,1.1481,-0.315056,-0.279209,0.76668
28,40,-0.567232,-0.698132,-0.174533,-0.174533,-0.572973,-0.692506,-0.165226,-0.200092,1.1481,-0.315056,-0.279209,0.76668
28,40,-0.567232,-0.698132,-0.174533,-0.174533,-0.572973,-0.692506,-0.165226,-0.200092,1.1481,-0.315056,-0.279209,0.76668
28,40,-0.567232,-0.698132,-0.174533,-0.174533,-0.572973,-0.692506,-0.165226,-0.200092,1.1481,-0.315056,-0.279209,0.76668
28,40,-0.567232,-0.698132,-0.174533,-0.174533,-0.572973,-0.692506,-0.165226,-0.200092,1.1481,-0.315056,-0.279209,0.76668
28,40,-0.567232,-0.698132,-0.174533,-0.174533,-0.572973,-0.692506,-0.165226,-0.200092,1.1481,-0.315056,-0.279209,0.76668
28,40,-0.567232,-0.698132,-0.174533,-0.174533,-0.572973,-0.692506,-0.165226,-0.200092,1.1481,-0.315056,-0.279209,0.76668
28,40,-0.567232,-0.698132,-0.174533,-0.174533,-0.572973,-0.692506,-0.165226,-0.200092,1.1481,-0.315056,-0.279209,0.76668
28,40,-0.567232,-0.698132,-0.174533,-0.174533,-0.572973,-0.692506,-0.165226,-0.200092,1.1481,-0.315056,-0.279209,0.76668
28,40,-0.567232,-0.698132,-0.174533,-0.174533,-0.572973,-0.692506,-0.165226,-0.200092,1.1481,-0.315056,-0.279209,0.76668
28,40,-0.567232,-0.698132,-0.174533,-0.174533,-0.572973,-0.692506,-0.165226,-0.200092,1.1481,-0.315056,-0.279209,0.76668
28,40,-0.567232,-0.698132,-0.174533,-0.174533,-0.572973,-0.692506,-0.165226,-0.200092,1.1481,-0.315056,-0.279209,0.76668
28,40,-0.567232,-0.698132,-0.174533,-0.174533,-0.572973,-0.692506,-0.165226,-0.200092,1.1481,-0.315056,-0.279209,0.76668
28,40,-0.567232,-0.698132,-0.174533,-0.174533,-0.572973,-0.692506,-0.165226,-0.200092,1.1481,-0.315056,-0.279209,0.76668
28,40,-0.567232,-0.698132,-0.174533,-0.174533,-0.572973,-0.692506,-0.165226,-0.200092,1.1481,-0.315056,-0.279209,0.76668
28,40,-0.567232,-0.698132,-0.174533,-0.174533,-0.572973,-0.692506,-0.165226,-0.200092,1.1481,-0.315056,-0.279209,0.76668
28,40,-0.567232,-0.698132,-0.174533,-0.174533,-0.572973,-0.692506,-0.165226,-0.200092,1.1481,-0.315056,-0.279209,0.76668
28,40,-0.567232,-0.698132,-0.174533,-0.174533,-0.572973,-0.692506,-0.165226,-0.200092,1.1481,-0.315056,-0.279209,0.76668
28,40,-0.567232,-0.698132,-0.174533,-0.174533,-0.572973,-0.692506,-0.165226,-0.200092,1.1481,-0.315056,-0.279209,0.76668
28,40,-0.567232,-0.698132,-0.174533,-0.174533,-0.572973,-0.692506,-0.165226,-0.200092,1.1481,-0.315056,-0.279209,0.76668
28,40,-0.567232,-0.698132,-0.174533,-0.174533,-0.572973,-0.692506,-0.165226,-0.200092,1.1481,-0.315056,-0.279209,0.76668
28,40,-0.567232,-0.698132,-0.174533,-0.174533,-0.572973,-0.692506,-0.165226,-0.200092,1.1481,-0.315056,-0.279209,0.76668
28,40,-0.567232,-0.698132,-0.174533,-0.174533,-0.572973,-0.692506,-0.165226,-0.200092,1.1481,-0.315056,-0.279209,0.76668
28,40,-0.567232,-0.698132,-0.174533,-0.174533,-0.572973,-0.692506,-0.165226,-0.200092,1.1481,-0.315056,-0.279209,0.76668
28,40,-0.567232,-0.698132,-0.174533,-0.174533,-0.572973,-0.692506,-0.165226,-0.200092,1.1481,-0.315056,-0.279209,0.76668
28,40,-0.567232,-0.698132,-0.174533,-0.174533,-0.572973,-0.692506,-0.165226,-0.200092,1.1481,-0.315056,-0.279209,0.76668
28,40,-0.567232,-0.698132,-0.174533,-0.174533,-0.572973,-0.692506,-0.165226,-0.200092,1.1481,-0.315056,-0.279209,0.76668
28,40,-0.567232,-0.698132,-0.174533,-0.174533,-0.572973,-0.692506,-0.165226,-0.200092,1.1481,-0.315056,-0.279209,0.76668
28,40,-0.567232,-0.698132,-0.174533,-0.174533,-0.572973,-0.692506,-0.165226,-0.200092,1.1481,-0.315056,-0.279209,0.76668
28,40,-0.567232,-0.698132,-0.174533,-0.174533,-0.572973,-0.692506,-0.165226,-0.200092,1.1481,-0.315056,-0.279209,0.766681
28,40,-0.567232,-0.698132,-0.174533,-0.174533,-0.572973,-0.692506,-0.165226,-0.200092,1.1481,-0.315056,-0.279209,0.766683
28,40,-0.567232,-0.698132,-0.174533,-0.174533,-0.572973,-0.692506,-0.165226,-0.200092,1.1481,-0.315056,-0.279209,0.766684
28,40,-0.567232,-0.698132,-0.174533,-0.174533,-0.572973,-0.692506,-0.165226,-0.200092,1.1481,-0.315056,-0.279208,0.766686
28,40,-0.567232,-0.698132,-0.174533,-0.174533,-0.572973,-0.692506,-0.165226,-0.200092,1.1481,-0.315056,-0.279208,0.766688
28,40,-0.567232,-0.698132,-0.174533,-0.174533,-0.572973,-0.692506,-0.165226,-0.200092,1.1481,-0.315056,-0.279208,0.766689
28,40,-0.567232,-0.698132,-0.174533,-0.174533,-0.572973,-0.692506,-0.165226,-0.200092,1.1481,-0.315056,-0.279208,0.766691
28,40,-0.567232,-0.698132,-0.174533,-0.174533,-0.572973,-0.692506,-0.165226,-0.200092,1.1481,-0.315056,-0.279208,0.766692
28,40,-0.567232,-0.698132,-0.174533,-0.174533,-0.572973,-0.692506,-0.165226,-0.200092,1.1481,-0.315056,-0.279208,0.766693
28,40,-0.567232,-0.698132,-0.174533,-0.174533,-0.572973,-0.692506,-0.165226,-0.200092,1.1481,-0.315056,-0.279208,0.766695
28,40,-0.567232,-0.698132,-0.174533,-0.174533,-0.572973,-0.692506,-0.165226,-0.200092,1.1481,-0.315056,-0.279208,0.766696
28,40,-0.567232,-0.698132,-0.174533,-0.174533,-0.572973,-0.692506,-0.165226,-0.200092,1.1481,-0.315056,-0.279208,0.766697
28,40,-0.567232,-0.698132,-0.174533,-0.174533,-0.572973,-0.692506,-0.165226,-0.200092,1.1481,-0.315056,-0.279208,0.766699
28,40,-0.567232,-0.698132,-0.174533,-0.174533,-0.572973,-0.692506,-0.165226,-0.200092,1.1481,-0.315056,-0.279208,0.7667
28,40,-0.567232,-0.698132,-0.174533,-0.174533,-0.572973,-0.692506,-0.165226,-0.200092,1.1481,-0.315056,-0.279208,0.766701
28,40,-0.567232,-0.698132,-0.174533,-0.174533,-0.572973,-0.692506,-0.165226,-0.200092,1.1481,-0.315056,-0.279208,0.766702
28,40,-0.567232,-0.698132,-0.174533,-0.174533,-0.572973,-0.692506,-0.165226,-0.200092,1.1481,-0.315056,-0.279207,0.766703
28,40,-0.567232,-0.698132,-0.174533,-0.174533,-0.572973,-0.692506,-0.165226,-0.200092,1.1481,-0.315056,-0.279207,0.766704
28,40,-0.567232,-0.698132,-0.174533,-0.174533,-0.572973,-0.692506,-0.165226,-0.200092,1.1481,-0.315056,-0.279207,0.766705
28,40,-0.567232,-0.698132,-0.174533,-0.174533,-0.572973,-0.692506,-0.165226,-0.200092,1.1481,-0.315056,-0.279207,0.766706
28,40,-0.567232,-0.698132,-0.174533,-0.174533,-0.572973,-0.692506,-0.165226,-0.200092,1.1481,-0.315056,-0.279207,0.766707
28,40,-0.567232,-0.698132,-0.174533,-0.174533,-0.572973,-0.692506,-0.165226,-0.200092,1.1481,-0.315056,-0.279207,0.766708
28,40,-0.567232,-0.698132,-0.174533,-0.174533,-0.572973,-0.692506,-0.165226,-0.200092,1.1481,-0.315056,-0.279207,0.766709
28,40,-0.567232,-0.698132,-0.174533,-0.174533,-0.572973,-0.692506,-0.165226,-0.200092,1.1481,-0.315056,-0.279207,0.766709
28,40,-0.567232,-0.698132,-0.174533,-0.174533,-0.572973,-0.692506,-0.165226,-0.200092,1.1481,-0.315056,-0.279207,0.76671
28,40,-0.567232,-0.698132,-0.174533,-0.174533,-0.572973,-0.692506,-0.165226,-0.200092,1.1481,-0.315056,-0.279207,0.766711
28,40,-0.567232,-0.698132,-0.174533,-0.174533,-0.572973,-0.692506,-0.165226,-0.200092,1.1481,-0.315056,-0.279207,0.766712
28,40,-0.567232,-0.698132,-0.174533,-0.174533,-0.572973,-0.692506,-0.165226,-0.200092,1.1481,-0.315056,-0.279207,0.766713
28,40,-0.567232,-0.698132,-0.174533,-0.174533,-0.572973,-0.692506,-0.165226,-0.200092,1.1481,-0.315056,-0.279207,0.766713
28,40,-0.567232,-0.698132,-0.174533,-0.174533,-0.572973,-0.692506,-0.165226,-0.200092,1.1481,-0.315056,-0.279207,0.766714
28,40,-0.567232,-0.698132,-0.174533,-0.174533,-0.572973,-0.692506,-0.165223,-0.200032,1.1481,-0.315056,-0.279301,0.764987
28,40,-0.567232,-0.698132,-0.174533,-0.174533,-0.572973,-0.692506,-0.165223,-0.200032,1.1481,-0.315056,-0.279301,0.764987
28,40,-0.567232,-0.698132,-0.174533,-0.174533,-0.572973,-0.692506,-0.165223,-0.200032,1.1481,-0.315056,-0.279301,0.764987
28,40,-0.567232,-0.698132,-0.174533,-0.174533,-0.572973,-0.692506,-0.165223,-0.200032,1.1481,-0.315056,-0.279301,0.764987
28,40,-0.567232,-0.698132,-0.174533,-0.174533,-0.572973,-0.692506,-0.165223,-0.200032,1.1481,-0.315056,-0.279301,0.764987
28,40,-0.567232,-0.698132,-0.174533,-0.174533,-0.572973,-0.692506,-0.165223,-0.200032,1.1481,-0.315056,-0.279301,0.764987
28,40,-0.567232,-0.698132,-0.174533,-0.174533,-0.572973,-0.692506,-0.165223,-0.200032,1.1481,-0.315056,-0.279301,0.764987
28,40,-0.567232,-0.698132,-0.174533,-0.174533,-0.572973,-0.692506,-0.165223,-0.200032,1.1481,-0.315056,-0.279301,0.764987
28,40,-0.567232,-0.698132,-0.174533,-0.174533,-0.572973,-0.692506,-0.165223,-0.200032,1.1481,-0.315056,-0.279301,0.764987
28,40,-0.567232,-0.698132,-0.174533,-0.174533,-0.572973,-0.692506,-0.165223,-0.200032,1.1481,-0.315056,-0.279301,0.764987
28,40,-0.567232,-0.698132,-0.174533,-0.174533,-0.572973,-0.692506,-0.165223,-0.200032,1.1481,-0.315056,-0.279301,0.764987
28,40,-0.567232,-0.698132,-0.174533,-0.174533,-0.572973,-0.692506,-0.165223,-0.200032,1.1481,-0.315056,-0.279301,0.764987
28,40,-0.567232,-0.698132,-0.174533,-0.174533,-0.572973,-0.692506,-0.165223,-0.200032,1.1481,-0.315056,-0.279301,0.764987
28,40,-0.567232,-0.698132,-0.174533,-0.174533,-0.572973,-0.692506,-0.165223,-0.200032,1.1481,-0.315056,-0.279301,0.764987
28,40,-0.567232,-0.698132,-0.174533,-0.174533,-0.572973,-0.692506,-0.165223,-0.200032,1.1481,-0.315056,-0.279301,0.764987
28,40,-0.567232,-0.698132,-0.174533,-0.174533,-0.572973,-0.692506,-0.165223,-0.200032,1.1481,-0.315056,-0.279301,0.764987
28,40,-0.567232,-0.698132,-0.174533,-0.174533,-0.572973,-0.692506,-0.165223,-0.200032,1.1481,-0.315056,-0.279301,0.764987
28,40,-0.567232,-0.698132,-0.174533,-0.174533,-0.572973,-0.692506,-0.165223,-0.200032,1.1481,-0.315056,-0.279301,0.764987
28,40,-0.567232,-0.698132,-0.174533,-0.174533,-0.572973,-0.692506,-0.165223,-0.200032,1.1481,-0.315056,-0.279301,0.764987
28,40,-0.567232,-0.698132,-0.174533,-0.174533,-0.572973,-0.692506,-0.165223,-0.200032,1.1481,-0.315056,-0.279301,0.764987
28,40,-0.567232,-0.698132,-0.174533,-0.174533,-0.572973,-0.692506,-0.165162,-0.200051,1.1481,-0.315056,-0.281137,0.765555
28,40,-0.567232,-0.698132,-0.174533,-0.174533,-0.572973,-0.692506,-0.165162,-0.200051,1.1481,-0.315056,-0.281137,0.765555
28,40,-0.567232,-0.698132,-0.174533,-0.174533,-0.572973,-0.692506,-0.165162,-0.200051,1.1481,-0.315056,-0.281137,0.765555
28,40,-0.567232,-0.698132,-0.174533,-0.174533,-0.572973,-0.692506,-0.165162,-0.200051,1.1481,-0.315056,-0.281137,0.765555
28,40,-0.567232,-0.698132,-0.174533,-0.174533,-0.572973,-0.692506,-0.165162,-0.200051,1.1481,-0.315056,-0.281137,0.765555
28,40,-0.567232,-0.698132,-0.174533,-0.174533,-0.572973,-0.692506,-0.165229,-0.200094,1.1481,-0.315056,-0.279113,0.766838
28,40,-0.567232,-0.698132,-0.174533,-0.174533,-0.572973,-0.692506,-0.165229,-0.200094,1.1481,-0.315056,-0.279113,0.766838
28,40,-0.567232,-0.698132,-0.174533,-0.174533,-0.572973,-0.692506,-0.165229,-0.200094,1.1481,-0.315056,-0.279113,0.766838
28,40,-0.567232,-0.698132,-0.174533,-0.174533,-0.572973,-0.692506,-0.165229,-0.200094,1.1481,-0.315056,-0.279113,0.766838
28,40,-0.567232,-0.698132,-0.174533,-0.174533,-0.572973,-0.692506,-0.165229,-0.200094,1.1481,-0.315056,-0.279113,0.766838
28,40,-0.567232,-0.698132,-0.174533,-0.174533,-0.572973,-0.692506,-0.165229,-0.200094,1.1481,-0.315056,-0.279113,0.766838
28,40,-0.567232,-0.698132,-0.174533,-0.174533,-0.572973,-0.692506,-0.165229,-0.200094,1.1481,-0.315056,-0.279113,0.766838
28,40,-0.567232,-0.698132,-0.174533,-0.174533,-0.572973,-0.692506,-0.165229,-0.200094,1.1481,-0.315056,-0.279113,0.766838
28,40,-0.567232,-0.698132,-0.174533,-0.174533,-0.572973,-0.692506,-0.165229,-0.200094,1.1481,-0.315056,-0.279113,0.766838
28,40,-0.567232,-0.698132,-0.174533,-0.174533,-0.572973,-0.692506,-0.165229,-0.200094,1.1481,-0.315056,-0.279113,0.766838
28,40,-0.567232,-0.698132,-0.174533,-0.174533,-0.572973,-0.692506,-0.165229,-0.200094,1.1481,-0.315056,-0.279113,0.766838
28,40,-0.567232,-0.698132,-0.174533,-0.174533,-0.572973,-0.692506,-0.165229,-0.200094,1.1481,-0.315056,-0.279113,0.766838
28,40,-0.567232,-0.698132,-0.174533,-0.174533,-0.572973,-0.692506,-0.165229,-0.200094,1.1481,-0.315056,-0.279113,0.766838
28,40,-0.567232,-0.698132,-0.174533,-0.174533,-0.572973,-0.692506,-0.165229,-0.200094,1.1481,-0.315056,-0.279113,0.766838
28,40,-0.567232,-0.698132,-0.174533,-0.174533,-0.572973,-0.692506,-0.165229,-0.200094,1.1481,-0.315056,-0.279113,0.766838
28,40,-0.567232,-0.698132,-0.174533,-0.174533,-0.572973,-0.692506,-0.165229,-0.200094,1.1481,-0.315056,-0.279113,0.766838
28,40,-0.567232,-0.698132,-0.174533,-0.174533,-0.572973,-0.692506,-0.165229,-0.200094,1.1481,-0.315056,-0.279113,0.766838
28,40,-0.567232,-0.698132,-0.174533,-0.174533,-0.572973,-0.692506,-0.165229,-0.200094,1.1481,-0.315056,-0.279113,0.766838
28,40,-0.567232,-0.698132,-0.174533,-0.174533,-0.572973,-0.692506,-0.165229,-0.200094,1.1481,-0.315056,-0.279113,0.766838
28,40,-0.567232,-0.698132,-0.174533,-0.174533,-0.572973,-0.692506,-0.165229,-0.200094,1.1481,-0.315056,-0.279113,0.766838
28,40,-0.567232,-0.698132,-0.174533,-0.174533,-0.572973,-0.692506,-0.165229,-0.200094,1.1481,-0.315056,-0.279113,0.766838
28,40,-0.567232,-0.698132,-0.174533,-0.174533,-0.572973,-0.692506,-0.165229,-0.200094,1.1481,-0.315056,-0.279113,0.766838
28,40,-0.567232,-0.698132,-0.174533,-0.174533,-0.572973,-0.692506,-0.165229,-0.200094,1.1481,-0.315056,-0.279113,0.766838
28,40,-0.567232,-0.698132,-0.174533,-0.174533,-0.572973,-0.692506,-0.165229,-0.200094,1.1481,-0.315056,-0.279113,0.766838
28,40,-0.567232,-0.698132,-0.174533,-0.174533,-0.572973,-0.692506,-0.165229,-0.200094,1.1481,-0.315056,-0.279113,0.766838
28,40,-0.567232,-0.698132,-0.174533,-0.174533,-0.572973,-0.692506,-0.165229,-0.200094,1.1481,-0.315056,-0.279113,0.766838
28,40,-0.567232,-0.698132,-0.174533,-0.174533,-0.572973,-0.692506,-0.165229,-0.200094,1.1481,-0.315056,-0.279113,0.766838
28,40,-0.567232,-0.698132,-0.174533,-0.174533,-0.572973,-0.692506,-0.165229,-0.200094,1.1481,-0.315056,-0.279113,0.766838
28,40,-0.567232,-0.698132,-0.174533,-0.174533,-0.572973,-0.692506,-0.165229,-0.200094,1.1481,-0.315056,-0.279113,0.766838
28,40,-0.567232,-0.698132,-0.174533,-0.174533,-0.572973,-0.692506,-0.165229,-0.200094,1.1481,-0.315056,-0.279113,0.766838
28,40,-0.567232,-0.698132,-0.174533,-0.174533,-0.572973,-0.692506,-0.165229,-0.200094,1.1481,-0.315056,-0.279113,0.766838
28,40,-0.567232,-0.698132,-0.174533,-0.174533,-0.572973,-0.692506,-0.165229,-0.200094,1.1481,-0.315056,-0.279113,0.766838
28,40,-0.567232,-0.698132,-0.174533,-0.174533,-0.572973,-0.692506,-0.165229,-0.200094,1.1481,-0.315056,-0.279113,0.766838
28,40,-0.567232,-0.698132,-0.174533,-0.174533,-0.572973,-0.692506,-0.165297,-0.200137,1.1481,-0.315056,-0.277089,0.768122
28,40,-0.567232,-0.698132,-0.174533,-0.174533,-0.572973,-0.692506,-0.165297,-0.200137,1.1481,-0.315056,-0.277089,0.768122
28,40,-0.567232,-0.698132,-0.174533,-0.174533,-0.572973,-0.692506,-0.165297,-0.200137,1.1481,-0.315056,-0.277089,0.768122
28,40,-0.567232,-0.698132,-0.174533,-0.174533,-0.572973,-0.692506,-0.165297,-0.200137,1.1481,-0.315056,-0.277089,0.768122
28,40,-0.567232,-0.698132,-0.174533,-0.174533,-0.572973,-0.692506,-0.165297,-0.200137,1.1481,-0.315056,-0.277089,0.768122
28,40,-0.567232,-0.698132,-0.174533,-0.174533,-0.572973,-0.692506,-0.165297,-0.200137,1.1481,-0.315056,-0.277089,0.768122
28,40,-0.567232,-0.698132,-0.174533,-0.174533,-0.572973,-0.692506,-0.165297,-0.200137,1.1481,-0.315056,-0.277089,0.768122
28,40,-0.567232,-0.698132,-0.174533,-0.174533,-0.572973,-0.692506,-0.165297,-0.200137,1.1481,-0.315056,-0.277089,0.768122
28,40,-0.567232,-0.698132,-0.174533,-0.174533,-0.572973,-0.692506,-0.165297,-0.200137,1.1481,-0.315056,-0.277089,0.768122
28,40,-0.567232,-0.698132,-0.174533,-0.174533,-0.572973,-0.692506,-0.165297,-0.200137,1.1481,-0.315056,-0.277089,0.768122
28,40,-0.567232,-0.698132,-0.174533,-0.174533,-0.572973,-0.692506,-0.165297,-0.200137,1.1481,-0.315056,-0.277089,0.768122
28,40,-0.567232,-0.698132,-0.174533,-0.174533,-0.572973,-0.692506,-0.165297,-0.200137,1.1481,-0.315056,-0.277089,0.768122
28,40,-0.567232,-0.698132,-0.174533,-0.174533,-0.572973,-0.692506,-0.165297,-0.200137,1.1481,-0.315056,-0.277089,0.768122
28,40,-0.567232,-0.698132,-0.174533,-0.174533,-0.572973,-0.692506,-0.165297,-0.200137,1.1481,-0.315056,-0.277089,0.768122
28,40,-0.567232,-0.698132,-0.174533,-0.174533,-0.572973,-0.692506,-0.165297,-0.200137,1.1481,-0.315056,-0.277089,0.768122
28,40,-0.567232,-0.698132,-0.174533,-0.174533,-0.572973,-0.692506,-0.165297,-0.200137,1.1481,-0.315056,-0.277089,0.768122
28,40,-0.567232,-0.698132,-0.174533,-0.174533,-0.572973,-0.692506,-0.165297,-0.200137,1.1481,-0.315056,-0.277089,0.768122
28,40,-0.567232,-0.698132,-0.174533,-0.174533,-0.572973,-0.692506,-0.165297,-0.200137,1.1481,-0.315056,-0.277089,0.768122
28,40,-0.567232,-0.698132,-0.174533,-0.174533,-0.572973,-0.692506,-0.165297,-0.200137,1.1481,-0.315056,-0.277089,0.768122
28,40,-0.567232,-0.698132,-0.174533,-0.174533,-0.572973,-0.692506,-0.165297,-0.200137,1.1481,-0.315056,-0.277089,0.768122
28,40,-0.567232,-0.698132,-0.174533,-0.174533,-0.572973,-0.692506,-0.165297,-0.200137,1.1481,-0.315056,-0.277089,0.768122
28,40,-0.567232,-0.698132,-0.174533,-0.174533,-0.572973,-0.692506,-0.165297,-0.200137,1.1481,-0.315056,-0.277089,0.768122
28,40,-0.567232,-0.698132,-0.174533,-0.174533,-0.572973,-0.692506,-0.165297,-0.200137,1.1481,-0.315056,-0.277089,0.768122
28,40,-0.567232,-0.698132,-0.174533,-0.174533,-0.572973,-0.692506,-0.165297,-0.200137,1.1481,-0.315056,-0.277089,0.768122
28,40,-0.567232,-0.698132,-0.174533,-0.174533,-0.572973,-0.692506,-0.165297,-0.200137,1.1481,-0.315056,-0.277089,0.768122
28,40,-0.567232,-0.698132,-0.174533,-0.174533,-0.572973,-0.692506,-0.165297,-0.200137,1.1481,-0.315056,-0.277089,0.768122
28,40,-0.567232,-0.698132,-0.174533,-0.174533,-0.572973,-0.692506,-0.165297,-0.200137,1.1481,-0.315056,-0.277089,0.768122
28,40,-0.567232,-0.698132,-0.174533,-0.174533,-0.572973,-0.692506,-0.165297,-0.200137,1.1481,-0.315056,-0.277089,0.768122
28,40,-0.567232,-0.698132,-0.174533,-0.174533,-0.572973,-0.692506,-0.165297,-0.200137,1.1481,-0.315056,-0.277089,0.768122
28,40,-0.567232,-0.698132,-0.174533,-0.174533,-0.572973,-0.692506,-0.165297,-0.200137,1.1481,-0.315056,-0.277089,0.768122
28,40,-0.567232,-0.698132,-0.174533,-0.174533,-0.572973,-0.692506,-0.165297,-0.200137,1.1481,-0.315056,-0.277089,0.768122
28,40,-0.567232,-0.698132,-0.174533,-0.174533,-0.572973,-0.692506,-0.165297,-0.200137,1.1481,-0.315056,-0.277089,0.768122
28,40,-0.567232,-0.698132,-0.174533,-0.174533,-0.572973,-0.692506,-0.165297,-0.200137,1.1481,-0.315056,-0.277089,0.768122
28,40,-0.567232,-0.698132,-0.174533,-0.174533,-0.572973,-0.692506,-0.165297,-0.200137,1.1481,-0.315056,-0.277089,0.768122
28,40,-0.567232,-0.698132,-0.174533,-0.174533,-0.572973,-0.692506,-0.165364,-0.20018,1.1481,-0.315056,-0.275065,0.769405
28,40,-0.567232,-0.698132,-0.174533,-0.174533,-0.572973,-0.692506,-0.165364,-0.20018,1.1481,-0.315056,-0.275065,0.769405
28,40,-0.567232,-0.698132,-0.174533,-0.174533,-0.572973,-0.692506,-0.165364,-0.20018,1.1481,-0.315056,-0.275065,0.769405
28,40,-0.567232,-0.698132,-0.174533,-0.174533,-0.572973,-0.692506,-0.165364,-0.20018,1.1481,-0.315056,-0.275065,0.769405
28,40,-0.567232,-0.698132,-0.174533,-0.174533,-0.572973,-0.692506,-0.165364,-0.20018,1.1481,-0.315056,-0.275065,0.769405
28,40,-0.567232,-0.698132,-0.174533,-0.174533,-0.572973,-0.692506,-0.165364,-0.20018,1.1481,-0.315056,-0.275065,0.769405
28,40,-0.567232,-0.698132,-0.174533,-0.174533,-0.572973,-0.692506,-0.165364,-0.20018,1.1481,-0.315056,-0.275065,0.769405
28,40,-0.567232,-0.698132,-0.174533,-0.174533,-0.572973,-0.692506,-0.165364,-0.20018,1.1481,-0.315056,-0.275065,0.769405
28,40,-0.567232,-0.698132,-0.174533,-0.174533,-0.572973,-0.692506,-0.165364,-0.20018,1.1481,-0.315056,-0.275065,0.769405
28,40,-0.567232,-0.698132,-0.174533,-0.174533,-0.572973,-0.692506,-0.165364,-0.20018,1.1481,-0.315056,-0.275065,0.769405
28,40,-0.567232,-0.698132,-0.174533,-0.174533,-0.572973,-0.692506,-0.165303,-0.200199,1.1481,-0.315056,-0.276901,0.769973
28,40,-0.567232,-0.698132,-0.174533,-0.174533,-0.572973,-0.692506,-0.165303,-0.200199,1.1481,-0.315056,-0.276901,0.769973
28,40,-0.567232,-0.698132,-0.174533,-0.174533,-0.572973,-0.692506,-0.165303,-0.200199,1.1481,-0.315056,-0.276901,0.769973
28,40,-0.567232,-0.698132,-0.174533,-0.174533,-0.572973,-0.692506,-0.165303,-0.200199,1.1481,-0.315056,-0.276901,0.769973
28,40,-0.567232,-0.698132,-0.174533,-0.174533,-0.572973,-0.692506,-0.165303,-0.200199,1.1481,-0.315056,-0.276901,0.769973
28,40,-0.567232,-0.698132,-0.174533,-0.174533,-0.572973,-0.692506,-0.165303,-0.200199,1.1481,-0.315056,-0.276901,0.769973
28,40,-0.567232,-0.698132,-0.174533,-0.174533,-0.572973,-0.692506,-0.165303,-0.200199,1.1481,-0.315056,-0.276901,0.769973
28,40,-0.567232,-0.698132,-0.174533,-0.174533,-0.572973,-0.692506,-0.165303,-0.200199,1.1481,-0.315056,-0.276901,0.769973
28,40,-0.567232,-0.698132,-0.174533,-0.174533,-0.572973,-0.692506,-0.165303,-0.200199,1.1481,-0.315056,-0.276901,0.769973
28,40,-0.567232,-0.698132,-0.174533,-0.174533,-0.572973,-0.692506,-0.165303,-0.200199,1.1481,-0.315056,-0.276901,0.769973
28,40,-0.567232,-0.698132,-0.174533,-0.174533,-0.572973,-0.692506,-0.165303,-0.200199,1.1481,-0.315056,-0.276901,0.769973
28,40,-0.567232,-0.698132,-0.174533,-0.174533,-0.572973,-0.692506,-0.165303,-0.200199,1.1481,-0.315056,-0.276901,0.769973
28,40,-0.567232,-0.698132,-0.174533,-0.174533,-0.572973,-0.692506,-0.165303,-0.200199,1.1481,-0.315056,-0.276901,0.769973
28,40,-0.567232,-0.698132,-0.174533,-0.174533,-0.572973,-0.692506,-0.165303,-0.200199,1.1481,-0.315056,-0.276901,0.769973
28,40,-0.567232,-0.698132,-0.174533,-0.174533,-0.572973,-0.692506,-0.165303,-0.200199,1.1481,-0.315056,-0.276901,0.769973
28,40,-0.567232,-0.698132,-0.174533,-0.174533,-0.572973,-0.692506,-0.165303,-0.200199,1.1481,-0.315056,-0.276901,0.769973
28,40,-0.567232,-0.698132,-0.174533,-0.174533,-0.572973,-0.692506,-0.165303,-0.200199,1.1481,-0.315056,-0.276901,0.769973
28,40,-0.567232,-0.698132,-0.174533,-0.174533,-0.572973,-0.692506,-0.165303,-0.200199,1.1481,-0.315056,-0.276901,0.769973
28,40,-0.567232,-0.698132,-0.174533,-0.174533,-0.572973,-0.692506,-0.165303,-0.200199,1.1481,-0.315056,-0.276901,0.769973
28,40,-0.567232,-0.698132,-0.174533,-0.174533,-0.572973,-0.692506,-0.165303,-0.200199,1.1481,-0.315056,-0.276901,0.769973
28,40,-0.567232,-0.698132,-0.174533,-0.174533,-0.572973,-0.692506,-0.165303,-0.200199,1.1481,-0.315056,-0.276901,0.769973
28,40,-0.567232,-0.698132,-0.174533,-0.174533,-0.572973,-0.692506,-0.165303,-0.200199,1.1481,-0.315056,-0.276901,0.769973
28,40,-0.567232,-0.698132,-0.174533,-0.174533,-0.572973,-0.692506,-0.165303,-0.200199,1.1481,-0.315056,-0.276901,0.769973
28,40,-0.567232,-0.698132,-0.174533,-0.174533,-0.572973,-0.692506,-0.165303,-0.200199,1.1481,-0.315056,-0.276901,0.769973
28,40,-0.567232,-0.698132,-0.174533,-0.174533,-0.572973,-0.692506,-0.16537,-0.200241,1.1481,-0.315056,-0.274876,0.771256
28,40,-0.567232,-0.698132,-0.174533,-0.174533,-0.572973,-0.692506,-0.16537,-0.200241,1.1481,-0.315056,-0.274876,0.771256
28,40,-0.567232,-0.698132,-0.174533,-0.174533,-0.572973,-0.692506,-0.16537,-0.200241,1.1481,-0.315056,-0.274876,0.771256
28,40,-0.567232,-0.698132,-0.174533,-0.174533,-0.572973,-0.692506,-0.16537,-0.200241,1.1481,-0.315056,-0.274876,0.771256
28,40,-0.567232,-0.698132,-0.174533,-0.174533,-0.572973,-0.692506,-0.16537,-0.200241,1.1481,-0.315056,-0.274876,0.771256
28,40,-0.567232,-0.698132,-0.174533,-0.174533,-0.572973,-0.692506,-0.16537,-0.200241,1.1481,-0.315056,-0.274876,0.771256
28,40,-0.567232,-0.698132,-0.174533,-0.174533,-0.572973,-0.692506,-0.16537,-0.200241,1.1481,-0.315056,-0.274876,0.771256
28,40,-0.567232,-0.698132,-0.174533,-0.174533,-0.572973,-0.692506,-0.16537,-0.200241,1.1481,-0.315056,-0.274876,0.771256
28,40,-0.567232,-0.698132,-0.174533,-0.174533,-0.572973,-0.692506,-0.16537,-0.200241,1.1481,-0.315056,-0.274876,0.771256
28,40,-0.567232,-0.698132,-0.174533,-0.174533,-0.572973,-0.692506,-0.16537,-0.200241,1.1481,-0.315056,-0.274876,0.771256
28,40,-0.567232,-0.698132,-0.174533,-0.174533,-0.572973,-0.692506,-0.16537,-0.200241,1.1481,-0.315056,-0.274876,0.771256
28,40,-0.567232,-0.698132,-0.174533,-0.174533,-0.572973,-0.692506,-0.16537,-0.200241,1.1481,-0.315056,-0.274876,0.771256
28,40,-0.567232,-0.698132,-0.174533,-0.174533,-0.572973,-0.692506,-0.16537,-0.200241,1.1481,-0.315056,-0.274876,0.771256
28,40,-0.567232,-0.698132,-0.174533,-0.174533,-0.572973,-0.692506,-0.16537,-0.200241,1.1481,-0.315056,-0.274876,0.771256
28,40,-0.567232,-0.698132,-0.174533,-0.174533,-0.572973,-0.692506,-0.16537,-0.200241,1.1481,-0.315056,-0.274876,0.771256
28,40,-0.567232,-0.698132,-0.174533,-0.174533,-0.572973,-0.692506,-0.16537,-0.200241,1.1481,-0.315056,-0.274876,0.771256
28,40,-0.567232,-0.698132,-0.174533,-0.174533,-0.572973,-0.692506,-0.16537,-0.200241,1.1481,-0.315056,-0.274876,0.771256
28,40,-0.567232,-0.698132,-0.174533,-0.174533,-0.572973,-0.692506,-0.16537,-0.200241,1.1481,-0.315056,-0.274876,0.771256
28,40,-0.567232,-0.698132,-0.174533,-0.174533,-0.572973,-0.692506,-0.16537,-0.200241,1.1481,-0.315056,-0.274876,0.771256
28,40,-0.567232,-0.698132,-0.174533,-0.174533,-0.572973,-0.692506,-0.16537,-0.200241,1.1481,-0.315056,-0.274876,0.771256
28,40,-0.567232,-0.698132,-0.174533,-0.174533,-0.572973,-0.692506,-0.16537,-0.200241,1.1481,-0.315056,-0.274876,0.771256
28,40,-0.567232,-0.698132,-0.174533,-0.174533,-0.572973,-0.692506,-0.16537,-0.200241,1.1481,-0.315056,-0.274876,0.771256
28,40,-0.567232,-0.698132,-0.174533,-0.174533,-0.572973,-0.692506,-0.16537,-0.200241,1.1481,-0.315056,-0.274876,0.771256
28,40,-0.567232,-0.698132,-0.174533,-0.174533,-0.572973,-0.692506,-0.16537,-0.200241,1.1481,-0.315056,-0.274876,0.771256
28,40,-0.567232,-0.698132,-0.174533,-0.174533,-0.572973,-0.692506,-0.16537,-0.200241,1.1481,-0.315056,-0.274876,0.771256
28,40,-0.567232,-0.698132,-0.174533,-0.174533,-0.572973,-0.692506,-0.16537,-0.200241,1.1481,-0.315056,-0.274876,0.771256
28,40,-0.567232,-0.698132,-0.174533,-0.174533,-0.572973,-0.692506,-0.16537,-0.200241,1.1481,-0.315056,-0.274876,0.771256
28,40,-0.567232,-0.698132,-0.174533,-0.174533,-0.572973,-0.692506,-0.16537,-0.200241,1.1481,-0.315056,-0.274876,0.771256
28,40,-0.567232,-0.698132,-0.174533,-0.174533,-0.572973,-0.692506,-0.165309,-0.20026,1.1481,-0.315056,-0.276712,0.771824
28,40,-0.567232,-0.698132,-0.174533,-0.174533,-0.572973,-0.692506,-0.165309,-0.20026,1.1481,-0.315056,-0.276712,0.771824
28,40,-0.567232,-0.698132,-0.174533,-0.174533,-0.572973,-0.692506,-0.165309,-0.20026,1.1481,-0.315056,-0.276712,0.771824
28,40,-0.567232,-0.698132,-0.174533,-0.174533,-0.572973,-0.692506,-0.165309,-0.20026,1.1481,-0.315056,-0.276712,0.771824
28,40,-0.567232,-0.698132,-0.174533,-0.174533,-0.572973,-0.692506,-0.165309,-0.20026,1.1481,-0.315056,-0.276712,0.771824
28,40,-0.567232,-0.698132,-0.174533,-0.174533,-0.572973,-0.692506,-0.165309,-0.20026,1.1481,-0.315056,-0.276712,0.771824
28,40,-0.567232,-0.698132,-0.174533,-0.174533,-0.572973,-0.692506,-0.165309,-0.20026,1.1481,-0.315056,-0.276712,0.771824
28,40,-0.567232,-0.698132,-0.174533,-0.174533,-0.572973,-0.692506,-0.165309,-0.20026,1.1481,-0.315056,-0.276712,0.771824
28,40,-0.567232,-0.698132,-0.174533,-0.174533,-0.572973,-0.692506,-0.165309,-0.20026,1.1481,-0.315056,-0.276712,0.771824
28,40,-0.567232,-0.698132,-0.174533,-0.174533,-0.572973,-0.692506,-0.165309,-0.20026,1.1481,-0.315056,-0.276712,0.771824
28,40,-0.567232,-0.698132,-0.174533,-0.174533,-0.572973,-0.692506,-0.165309,-0.20026,1.1481,-0.315056,-0.276712,0.771824
28,40,-0.567232,-0.698132,-0.174533,-0.174533,-0.572973,-0.692506,-0.165309,-0.20026,1.1481,-0.315056,-0.276712,0.771824
28,40,-0.567232,-0.698132,-0.174533,-0.174533,-0.572973,-0.692506,-0.165309,-0.20026,1.1481,-0.315056,-0.276712,0.771824
28,40,-0.567232,-0.698132,-0.174533,-0.174533,-0.572973,-0.692506,-0.165309,-0.20026,1.1481,-0.315056,-0.276712,0.771824
28,40,-0.567232,-0.698132,-0.174533,-0.174533,-0.572973,-0.692506,-0.165309,-0.20026,1.1481,-0.315056,-0.276712,0.771824
28,40,-0.567232,-0.698132,-0.174533,-0.174533,-0.572973,-0.692506,-0.165309,-0.20026,1.1481,-0.315056,-0.276712,0.771824
28,40,-0.567232,-0.698132,-0.174533,-0.174533,-0.572973,-0.692506,-0.165309,-0.20026,1.1481,-0.315056,-0.276712,0.771824
28,40,-0.567232,-0.698132,-0.174533,-0.174533,-0.572973,-0.692506,-0.165309,-0.20026,1.1481,-0.315056,-0.276712,0.771824
28,40,-0.567232,-0.698132,-0.174533,-0.174533,-0.572973,-0.692506,-0.165309,-0.20026,1.1481,-0.315056,-0.276712,0.771824
28,40,-0.567232,-0.698132,-0.174533,-0.174533,-0.572973,-0.692506,-0.165309,-0.20026,1.1481,-0.315056,-0.276712,0.771824
28,40,-0.567232,-0.698132,-0.174533,-0.174533,-0.572973,-0.692506,-0.165309,-0.20026,1.1481,-0.315056,-0.276712,0.771824
28,40,-0.567232,-0.698132,-0.174533,-0.174533,-0.572973,-0.692506,-0.165309,-0.20026,1.1481,-0.315056,-0.276712,0.771824
28,40,-0.567232,-0.698132,-0.174533,-0.174533,-0.572973,-0.692506,-0.165309,-0.20026,1.1481,-0.315056,-0.276712,0.771824
28,40,-0.567232,-0.698132,-0.174533,-0.174533,-0.572973,-0.692506,-0.165309,-0.20026,1.1481,-0.315056,-0.276712,0.771824
28,40,-0.567232,-0.698132,-0.174533,-0.174533,-0.572973,-0.692506,-0.165309,-0.20026,1.1481,-0.315056,-0.276712,0.771824
28,40,-0.567232,-0.698132,-0.174533,-0.174533,-0.572973,-0.692506,-0.165309,-0.20026,1.1481,-0.315056,-0.276712,0.771824
28,40,-0.567232,-0.698132,-0.174533,-0.174533,-0.572973,-0.692506,-0.165309,-0.20026,1.1481,-0.315056,-0.276712,0.771824
28,40,-0.567232,-0.698132,-0.174533,-0.174533,-0.572973,-0.692506,-0.165309,-0.20026,1.1481,-0.315056,-0.276712,0.771824
28,40,-0.567232,-0.698132,-0.174533,-0.174533,-0.572973,-0.692506,-0.165309,-0.20026,1.1481,-0.315056,-0.276712,0.771824
28,40,-0.567232,-0.698132,-0.174533,-0.174533,-0.572973,-0.692506,-0.165309,-0.20026,1.1481,-0.315056,-0.276712,0.771824
28,40,-0.567232,-0.698132,-0.174533,-0.174533,-0.572973,-0.692506,-0.165309,-0.20026,1.1481,-0.315056,-0.276712,0.771824
28,40,-0.567232,-0.698132,-0.174533,-0.174533,-0.572973,-0.692506,-0.165306,-0.200201,1.1481,-0.315056,-0.27681,0.770038
28,40,-0.567232,-0.698132,-0.174533,-0.174533,-0.572973,-0.692506,-0.165306,-0.200201,1.1481,-0.315056,-0.27681,0.770038
28,40,-0.567232,-0.698132,-0.174533,-0.174533,-0.572973,-0.692506,-0.165306,-0.200201,1.1481,-0.315056,-0.27681,0.770038
28,40,-0.567232,-0.698132,-0.174533,-0.174533,-0.572973,-0.692506,-0.165306,-0.200201,1.1481,-0.315056,-0.27681,0.770038
28,40,-0.567232,-0.698132,-0.174533,-0.174533,-0.572973,-0.692506,-0.165306,-0.200201,1.1481,-0.315056,-0.27681,0.770038
28,40,-0.567232,-0.698132,-0.174533,-0.174533,-0.572973,-0.692506,-0.165306,-0.200201,1.1481,-0.315056,-0.27681,0.770038
28,40,-0.567232,-0.698132,-0.174533,-0.174533,-0.572973,-0.692506,-0.165306,-0.200201,1.1481,-0.315056,-0.27681,0.770038
28,40,-0.567232,-0.698132,-0.174533,-0.174533,-0.572973,-0.692506,-0.165306,-0.200201,1.1481,-0.315056,-0.27681,0.770038
28,40,-0.567232,-0.698132,-0.174533,-0.174533,-0.572973,-0.692506,-0.165306,-0.200201,1.1481,-0.315056,-0.27681,0.770038
28,40,-0.567232,-0.698132,-0.174533,-0.174533,-0.572973,-0.692506,-0.165306,-0.200201,1.1481,-0.315056,-0.27681,0.770038
28,40,-0.567232,-0.698132,-0.174533,-0.174533,-0.572973,-0.692506,-0.165306,-0.200201,1.1481,-0.315056,-0.27681,0.770038
28,40,-0.567232,-0.698132,-0.174533,-0.174533,-0.572973,-0.692506,-0.165306,-0.200201,1.1481,-0.315056,-0.27681,0.770038
28,40,-0.567232,-0.698132,-0.174533,-0.174533,-0.572973,-0.692506,-0.165306,-0.200201,1.1481,-0.315056,-0.27681,0.770038
28,40,-0.567232,-0.698132,-0.174533,-0.174533,-0.572973,-0.692506,-0.165306,-0.200201,1.1481,-0.315056,-0.27681,0.770038
28,40,-0.567232,-0.698132,-0.174533,-0.174533,-0.572973,-0.692506,-0.165306,-0.200201,1.1481,-0.315056,-0.27681,0.770038
28,40,-0.567232,-0.698132,-0.174533,-0.174533,-0.572973,-0.692506,-0.165306,-0.200201,1.1481,-0.315056,-0.27681,0.770038
28,40,-0.567232,-0.698132,-0.174533,-0.174533,-0.572973,-0.692506,-0.165306,-0.200201,1.1481,-0.315056,-0.27681,0.770038
28,40,-0.567232,-0.698132,-0.174533,-0.174533,-0.572973,-0.692506,-0.165306,-0.200201,1.1481,-0.315056,-0.27681,0.770038
28,40,-0.567232,-0.698132,-0.174533,-0.174533,-0.572973,-0.692506,-0.165306,-0.200201,1.1481,-0.315056,-0.27681,0.770038
28,40,-0.567232,-0.698132,-0.174533,-0.174533,-0.572973,-0.692506,-0.165306,-0.200201,1.1481,-0.315056,-0.27681,0.770038
28,40,-0.567232,-0.698132,-0.174533,-0.174533,-0.572973,-0.692506,-0.165306,-0.200201,1.1481,-0.315056,-0.27681,0.770038
28,40,-0.567232,-0.698132,-0.174533,-0.174533,-0.572973,-0.692506,-0.165306,-0.200201,1.1481,-0.315056,-0.27681,0.770038
28,40,-0.567232,-0.698132,-0.174533,-0.174533,-0.572973,-0.692506,-0.165306,-0.200201,1.1481,-0.315056,-0.27681,0.770038
28,40,-0.567232,-0.698132,-0.174533,-0.174533,-0.572973,-0.692506,-0.165306,-0.200201,1.1481,-0.315056,-0.27681,0.770038
28,40,-0.567232,-0.698132,-0.174533,-0.174533,-0.572973,-0.692506,-0.165306,-0.200201,1.1481,-0.315056,-0.27681,0.770038
28,40,-0.567232,-0.698132,-0.174533,-0.174533,-0.572973,-0.692506,-0.165306,-0.200201,1.1481,-0.315056,-0.27681,0.770038
28,40,-0.567232,-0.698132,-0.174533,-0.174533,-0.572973,-0.692506,-0.165306,-0.200201,1.1481,-0.315056,-0.27681,0.770038
28,40,-0.567232,-0.698132,-0.174533,-0.174533,-0.572973,-0.692506,-0.165306,-0.200201,1.1481,-0.315056,-0.27681,0.770038
28,40,-0.567232,-0.698132,-0.174533,-0.174533,-0.572973,-0.692506,-0.165306,-0.200201,1.1481,-0.315056,-0.27681,0.770038
28,40,-0.567232,-0.698132,-0.174533,-0.174533,-0.572973,-0.692506,-0.165306,-0.200201,1.1481,-0.315056,-0.27681,0.770038
28,40,-0.567232,-0.698132,-0.174533,-0.174533,-0.572973,-0.692506,-0.165306,-0.200201,1.1481,-0.315056,-0.27681,0.770038
28,40,-0.567232,-0.698132,-0.174533,-0.174533,-0.572973,-0.692506,-0.165306,-0.200201,1.1481,-0.315056,-0.27681,0.770038
28,40,-0.567232,-0.698132,-0.174533,-0.174533,-0.572973,-0.692506,-0.165306,-0.200201,1.1481,-0.315056,-0.27681,0.770038
28,40,-0.567232,-0.698132,-0.174533,-0.174533,-0.572973,-0.692506,-0.165306,-0.200201,1.1481,-0.315056,-0.27681,0.770038
28,40,-0.567232,-0.698132,-0.174533,-0.174533,-0.572973,-0.692506,-0.165306,-0.200201,1.1481,-0.315056,-0.27681,0.770038
28,40,-0.567232,-0.698132,-0.174533,-0.174533,-0.572973,-0.692506,-0.165306,-0.200201,1.1481,-0.315056,-0.27681,0.770038
28,40,-0.567232,-0.698132,-0.174533,-0.174533,-0.572973,-0.692506,-0.165306,-0.200201,1.1481,-0.315056,-0.27681,0.770038
28,40,-0.567232,-0.698132,-0.174533,-0.174533,-0.572973,-0.692506,-0.165306,-0.200201,1.1481,-0.315056,-0.27681,0.770038
28,40,-0.567232,-0.698132,-0.174533,-0.174533,-0.572973,-0.692506,-0.165306,-0.200201,1.1481,-0.315056,-0.27681,0.770038
28,40,-0.567232,-0.698132,-0.174533,-0.174533,-0.572973,-0.692506,-0.165306,-0.200201,1.1481,-0.315056,-0.27681,0.770038
28,40,-0.567232,-0.698132,-0.174533,-0.174533,-0.572973,-0.692506,-0.165306,-0.200201,1.1481,-0.315056,-0.27681,0.770038
28,40,-0.567232,-0.698132,-0.174533,-0.174533,-0.572973,-0.692506,-0.165306,-0.200201,1.1481,-0.315056,-0.27681,0.770038
28,40,-0.567232,-0.698132,-0.174533,-0.174533,-0.572973,-0.692506,-0.165306,-0.200201,1.1481,-0.315056,-0.27681,0.770038
28,40,-0.567232,-0.698132,-0.174533,-0.174533,-0.572973,-0.692506,-0.165373,-0.200244,1.1481,-0.315056,-0.274785,0.771322
28,40,-0.567232,-0.698132,-0.174533,-0.174533,-0.572973,-0.692506,-0.165373,-0.200244,1.1481,-0.315056,-0.274785,0.771322
28,40,-0.567232,-0.698132,-0.174533,-0.174533,-0.572973,-0.692506,-0.165373,-0.200244,1.1481,-0.315056,-0.274785,0.771322
28,40,-0.567232,-0.698132,-0.174533,-0.174533,-0.572973,-0.692506,-0.165373,-0.200244,1.1481,-0.315056,-0.274785,0.771322
28,40,-0.567232,-0.698132,-0.174533,-0.174533,-0.572973,-0.692506,-0.165373,-0.200244,1.1481,-0.315056,-0.274785,0.771322
28,40,-0.567232,-0.698132,-0.174533,-0.174533,-0.572973,-0.692506,-0.165373,-0.200244,1.1481,-0.315056,-0.274785,0.771322
28,40,-0.567232,-0.698132,-0.174533,-0.174533,-0.572973,-0.692506,-0.165312,-0.200263,1.1481,-0.315056,-0.276622,0.77189
28,40,-0.567232,-0.698132,-0.174533,-0.174533,-0.572973,-0.692506,-0.165312,-0.200263,1.1481,-0.315056,-0.276622,0.77189
28,40,-0.567232,-0.698132,-0.174533,-0.174533,-0.572973,-0.692506,-0.165312,-0.200263,1.1481,-0.315056,-0.276622,0.77189
28,40,-0.567232,-0.698132,-0.174533,-0.174533,-0.572973,-0.692506,-0.165312,-0.200263,1.1481,-0.315056,-0.276622,0.77189
28,40,-0.567232,-0.698132,-0.174533,-0.174533,-0.572973,-0.692506,-0.165312,-0.200263,1.1481,-0.315056,-0.276622,0.77189
28,40,-0.567232,-0.698132,-0.174533,-0.174533,-0.572973,-0.692506,-0.165312,-0.200263,1.1481,-0.315056,-0.276622,0.77189
28,40,-0.567232,-0.698132,-0.174533,-0.174533,-0.572973,-0.692506,-0.165312,-0.200263,1.1481,-0.315056,-0.276622,0.77189
28,40,-0.567232,-0.698132,-0.174533,-0.174533,-0.572973,-0.692506,-0.165312,-0.200263,1.1481,-0.315056,-0.276622,0.77189
28,40,-0.567232,-0.698132,-0.174533,-0.174533,-0.572973,-0.692506,-0.165312,-0.200263,1.1481,-0.315056,-0.276622,0.77189
28,40,-0.567232,-0.698132,-0.174533,-0.174533,-0.572973,-0.692506,-0.165312,-0.200263,1.1481,-0.315056,-0.276622,0.77189
28,40,-0.567232,-0.698132,-0.174533,-0.174533,-0.572973,-0.692506,-0.165312,-0.200263,1.1481,-0.315056,-0.276622,0.77189
28,40,-0.567232,-0.698132,-0.174533,-0.174533,-0.572973,-0.692506,-0.165309,-0.200203,1.1481,-0.315056,-0.276719,0.770103
28,40,-0.567232,-0.698132,-0.174533,-0.174533,-0.572973,-0.692506,-0.165309,-0.200203,1.1481,-0.315056,-0.276719,0.770103
28,40,-0.567232,-0.698132,-0.174533,-0.174533,-0.572973,-0.692506,-0.165309,-0.200203,1.1481,-0.315056,-0.276719,0.770103
28,40,-0.567232,-0.698132,-0.174533,-0.174533,-0.572973,-0.692506,-0.165309,-0.200203,1.1481,-0.315056,-0.276719,0.770103
28,40,-0.567232,-0.698132,-0.174533,-0.174533,-0.572973,-0.692506,-0.165309,-0.200203,1.1481,-0.315056,-0.276719,0.770103
28,40,-0.567232,-0.698132,-0.174533,-0.174533,-0.572973,-0.692506,-0.165309,-0.200203,1.1481,-0.315056,-0.276719,0.770103
28,40,-0.567232,-0.698132,-0.174533,-0.174533,-0.572973,-0.692506,-0.165309,-0.200203,1.1481,-0.315056,-0.276719,0.770103
28,40,-0.567232,-0.698132,-0.174533,-0.174533,-0.572973,-0.692506,-0.165309,-0.200203,1.1481,-0.315056,-0.276719,0.770103
28,40,-0.567232,-0.698132,-0.174533,-0.174533,-0.572973,-0.692506,-0.165309,-0.200203,1.1481,-0.315056,-0.276719,0.770103
28,40,-0.567232,-0.698132,-0.174533,-0.174533,-0.572973,-0.692506,-0.165309,-0.200203,1.1481,-0.315056,-0.276719,0.770103
28,40,-0.567232,-0.698132,-0.174533,-0.174533,-0.572973,-0.692506,-0.165309,-0.200203,1.1481,-0.315056,-0.276719,0.770103
28,40,-0.567232,-0.698132,-0.174533,-0.174533,-0.572973,-0.692506,-0.165309,-0.200203,1.1481,-0.315056,-0.276719,0.770103
28,40,-0.567232,-0.698132,-0.174533,-0.174533,-0.572973,-0.692506,-0.165309,-0.200203,1.1481,-0.315056,-0.276719,0.770103
28,40,-0.567232,-0.698132,-0.174533,-0.174533,-0.572973,-0.692506,-0.165309,-0.200203,1.1481,-0.315056,-0.276719,0.770103
28,40,-0.567232,-0.698132,-0.174533,-0.174533,-0.572973,-0.692506,-0.165309,-0.200203,1.1481,-0.315056,-0.276719,0.770103
28,40,-0.567232,-0.698132,-0.174533,-0.174533,-0.572973,-0.692506,-0.165309,-0.200203,1.1481,-0.315056,-0.276719,0.770103
28,40,-0.567232,-0.698132,-0.174533,-0.174533,-0.572973,-0.692506,-0.165309,-0.200203,1.1481,-0.315056,-0.276719,0.770103
28,40,-0.567232,-0.698132,-0.174533,-0.174533,-0.572973,-0.692506,-0.165309,-0.200203,1.1481,-0.315056,-0.276719,0.770103
28,40,-0.567232,-0.698132,-0.174533,-0.174533,-0.572973,-0.692506,-0.165309,-0.200203,1.1481,-0.315056,-0.276719,0.770103
28,40,-0.567232,-0.698132,-0.174533,-0.174533,-0.572973,-0.692506,-0.165309,-0.200203,1.1481,-0.315056,-0.276719,0.770103
28,40,-0.567232,-0.698132,-0.174533,-0.174533,-0.572973,-0.692506,-0.165309,-0.200203,1.1481,-0.315056,-0.276719,0.770103
28,40,-0.567232,-0.698132,-0.174533,-0.174533,-0.572973,-0.692506,-0.165309,-0.200203,1.1481,-0.315056,-0.276719,0.770103
28,40,-0.567232,-0.698132,-0.174533,-0.174533,-0.572973,-0.692506,-0.165309,-0.200203,1.1481,-0.315056,-0.276719,0.770103
28,40,-0.567232,-0.698132,-0.174533,-0.174533,-0.572973,-0.692506,-0.165309,-0.200203,1.1481,-0.315056,-0.276719,0.770103
28,40,-0.567232,-0.698132,-0.174533,-0.174533,-0.572973,-0.692506,-0.165309,-0.200203,1.1481,-0.315056,-0.276719,0.770103
28,40,-0.567232,-0.698132,-0.174533,-0.174533,-0.572973,-0.692506,-0.165309,-0.200203,1.1481,-0.315056,-0.276719,0.770103
28,40,-0.567232,-0.698132,-0.174533,-0.174533,-0.572973,-0.692506,-0.165309,-0.200203,1.1481,-0.315056,-0.276719,0.770103
28,40,-0.567232,-0.698132,-0.174533,-0.174533,-0.572973,-0.692506,-0.165309,-0.200203,1.1481,-0.315056,-0.276719,0.770103
28,40,-0.567232,-0.698132,-0.174533,-0.174533,-0.572973,-0.692506,-0.165309,-0.200203,1.1481,-0.315056,-0.276719,0.770103
28,40,-0.567232,-0.698132,-0.174533,-0.174533,-0.572973,-0.692506,-0.165309,-0.200203,1.1481,-0.315056,-0.276719,0.770103
28,40,-0.567232,-0.698132,-0.174533,-0.174533,-0.572973,-0.692506,-0.165309,-0.200203,1.1481,-0.315056,-0.276719,0.770103
28,40,-0.567232,-0.698132,-0.174533,-0.174533,-0.572973,-0.692506,-0.165309,-0.200203,1.1481,-0.315056,-0.276719,0.770103
28,40,-0.567232,-0.698132,-0.174533,-0.174533,-0.572973,-0.692506,-0.165309,-0.200203,1.1481,-0.315056,-0.276719,0.770103
28,40,-0.567232,-0.698132,-0.174533,-0.174533,-0.572973,-0.692506,-0.165309,-0.200203,1.1481,-0.315056,-0.276719,0.770103
28,40,-0.567232,-0.698132,-0.174533,-0.174533,-0.572973,-0.692506,-0.165309,-0.200203,1.1481,-0.315056,-0.276719,0.770103
28,40,-0.567232,-0.698132,-0.174533,-0.174533,-0.572973,-0.692506,-0.165309,-0.200203,1.1481,-0.315056,-0.276719,0.770103
28,40,-0.567232,-0.698132,-0.174533,-0.174533,-0.572973,-0.692506,-0.165309,-0.200203,1.1481,-0.315056,-0.276719,0.770103
28,40,-0.567232,-0.698132,-0.174533,-0.174533,-0.572973,-0.692506,-0.165309,-0.200203,1.1481,-0.315056,-0.276719,0.770103
28,40,-0.567232,-0.698132,-0.174533,-0.174533,-0.572973,-0.692506,-0.165309,-0.200203,1.1481,-0.315056,-0.276719,0.770103
28,40,-0.567232,-0.698132,-0.174533,-0.174533,-0.572973,-0.692506,-0.165309,-0.200203,1.1481,-0.315056,-0.276719,0.770103
28,40,-0.567232,-0.698132,-0.174533,-0.174533,-0.572973,-0.692506,-0.165309,-0.200203,1.1481,-0.315056,-0.276719,0.770103
28,40,-0.567232,-0.698132,-0.174533,-0.174533,-0.572973,-0.692506,-0.165309,-0.200203,1.1481,-0.315056,-0.276719,0.770103
28,40,-0.567232,-0.698132,-0.174533,-0.174533,-0.572973,-0.692506,-0.165309,-0.200203,1.1481,-0.315056,-0.276719,0.770103
28,40,-0.567232,-0.698132,-0.174533,-0.174533,-0.572973,-0.692506,-0.165309,-0.200203,1.1481,-0.315056,-0.276719,0.770103
28,40,-0.567232,-0.698132,-0.174533,-0.174533,-0.572973,-0.692506,-0.165376,-0.200246,1.1481,-0.315056,-0.274695,0.771387
28,40,-0.567232,-0.698132,-0.174533,-0.174533,-0.572973,-0.692506,-0.165376,-0.200246,1.1481,-0.315056,-0.274695,0.771387
28,40,-0.567232,-0.698132,-0.174533,-0.174533,-0.572973,-0.692506,-0.165376,-0.200246,1.1481,-0.315056,-0.274695,0.771387
28,40,-0.567232,-0.698132,-0.174533,-0.174533,-0.572973,-0.692506,-0.165376,-0.200246,1.1481,-0.315056,-0.274695,0.771387
28,40,-0.567232,-0.698132,-0.174533,-0.174533,-0.572973,-0.692506,-0.165376,-0.200246,1.1481,-0.315056,-0.274695,0.771387
28,40,-0.567232,-0.698132,-0.174533,-0.174533,-0.572973,-0.692506,-0.165376,-0.200246,1.1481,-0.315056,-0.274695,0.771387
28,40,-0.567232,-0.698132,-0.174533,-0.174533,-0.572973,-0.692506,-0.165376,-0.200246,1.1481,-0.315056,-0.274695,0.771387
28,40,-0.567232,-0.698132,-0.174533,-0.174533,-0.572973,-0.692506,-0.165376,-0.200246,1.1481,-0.315056,-0.274695,0.771387
28,40,-0.567232,-0.698132,-0.174533,-0.174533,-0.572973,-0.692506,-0.165376,-0.200246,1.1481,-0.315056,-0.274695,0.771387
28,40,-0.567232,-0.698132,-0.174533,-0.174533,-0.572973,-0.692506,-0.165376,-0.200246,1.1481,-0.315056,-0.274695,0.771387
28,40,-0.567232,-0.698132,-0.174533,-0.174533,-0.572973,-0.692506,-0.165376,-0.200246,1.1481,-0.315056,-0.274695,0.771387
28,40,-0.567232,-0.698132,-0.174533,-0.174533,-0.572973,-0.692506,-0.165376,-0.200246,1.1481,-0.315056,-0.274695,0.771387
28,40,-0.567232,-0.698132,-0.174533,-0.174533,-0.572973,-0.692506,-0.165376,-0.200246,1.1481,-0.315056,-0.274695,0.771387
28,40,-0.567232,-0.698132,-0.174533,-0.174533,-0.572973,-0.692506,-0.165376,-0.200246,1.1481,-0.315056,-0.274695,0.771387
28,40,-0.567232,-0.698132,-0.174533,-0.174533,-0.572973,-0.692506,-0.165376,-0.200246,1.1481,-0.315056,-0.274695,0.771387
28,40,-0.567232,-0.698132,-0.174533,-0.174533,-0.572973,-0.692506,-0.165376,-0.200246,1.1481,-0.315056,-0.274695,0.771387
28,40,-0.567232,-0.698132,-0.174533,-0.174533,-0.572973,-0.692506,-0.165376,-0.200246,1.1481,-0.315056,-0.274695,0.771387
28,40,-0.567232,-0.698132,-0.174533,-0.174533,-0.572973,-0.692506,-0.165376,-0.200246,1.1481,-0.315056,-0.274695,0.771387
28,40,-0.567232,-0.698132,-0.174533,-0.174533,-0.572973,-0.692506,-0.165376,-0.200246,1.1481,-0.315056,-0.274695,0.771387
28,40,-0.567232,-0.698132,-0.174533,-0.174533,-0.572973,-0.692506,-0.165376,-0.200246,1.1481,-0.315056,-0.274695,0.771387
28,40,-0.567232,-0.698132,-0.174533,-0.174533,-0.572973,-0.692506,-0.165376,-0.200246,1.1481,-0.315056,-0.274695,0.771387
28,40,-0.567232,-0.698132,-0.174533,-0.174533,-0.572973,-0.692506,-0.165376,-0.200246,1.1481,-0.315056,-0.274695,0.771387
28,40,-0.567232,-0.698132,-0.174533,-0.174533,-0.572973,-0.692506,-0.165376,-0.200246,1.1481,-0.315056,-0.274695,0.771387
28,40,-0.567232,-0.698132,-0.174533,-0.174533,-0.572973,-0.692506,-0.165376,-0.200246,1.1481,-0.315056,-0.274695,0.771387
28,40,-0.567232,-0.698132,-0.174533,-0.174533,-0.572973,-0.692506,-0.165376,-0.200246,1.1481,-0.315056,-0.274695,0.771387
28,40,-0.567232,-0.698132,-0.174533,-0.174533,-0.572973,-0.692506,-0.165376,-0.200246,1.1481,-0.315056,-0.274695,0.771387
28,40,-0.567232,-0.698132,-0.174533,-0.174533,-0.572973,-0.692506,-0.165376,-0.200246,1.1481,-0.315056,-0.274695,0.771387
28,40,-0.567232,-0.698132,-0.174533,-0.174533,-0.572973,-0.692506,-0.165376,-0.200246,1.1481,-0.315056,-0.274695,0.771387
28,40,-0.567232,-0.698132,-0.174533,-0.174533,-0.572973,-0.692506,-0.165376,-0.200246,1.1481,-0.315056,-0.274695,0.771387
28,40,-0.567232,-0.698132,-0.174533,-0.174533,-0.572973,-0.692506,-0.165376,-0.200246,1.1481,-0.315056,-0.274695,0.771387
28,40,-0.567232,-0.698132,-0.174533,-0.174533,-0.572973,-0.692506,-0.165315,-0.200265,1.1481,-0.315056,-0.276531,0.771955
28,40,-0.567232,-0.698132,-0.174533,-0.174533,-0.572973,-0.692506,-0.165315,-0.200265,1.1481,-0.315056,-0.276531,0.771955
28,40,-0.567232,-0.698132,-0.174533,-0.174533,-0.572973,-0.692506,-0.165315,-0.200265,1.1481,-0.315056,-0.276531,0.771955
28,40,-0.567232,-0.698132,-0.174533,-0.174533,-0.572973,-0.692506,-0.165315,-0.200265,1.1481,-0.315056,-0.276531,0.771955
28,40,-0.567232,-0.698132,-0.174533,-0.174533,-0.572973,-0.692506,-0.165315,-0.200265,1.1481,-0.315056,-0.276531,0.771955
28,40,-0.567232,-0.698132,-0.174533,-0.174533,-0.572973,-0.692506,-0.165315,-0.200265,1.1481,-0.315056,-0.276531,0.771955
28,40,-0.567232,-0.698132,-0.174533,-0.174533,-0.572973,-0.692506,-0.165315,-0.200265,1.1481,-0.315056,-0.276531,0.771955
28,40,-0.567232,-0.698132,-0.174533,-0.174533,-0.572973,-0.692506,-0.165315,-0.200265,1.1481,-0.315056,-0.276531,0.771955
28,40,-0.567232,-0.698132,-0.174533,-0.174533,-0.572973,-0.692506,-0.165315,-0.200265,1.1481,-0.315056,-0.276531,0.771955
28,40,-0.567232,-0.698132,-0.174533,-0.174533,-0.572973,-0.692506,-0.165315,-0.200265,1.1481,-0.315056,-0.276531,0.771955
28,40,-0.567232,-0.698132,-0.174533,-0.174533,-0.572973,-0.692506,-0.165315,-0.200265,1.1481,-0.315056,-0.276531,0.771955
28,40,-0.567232,-0.698132,-0.174533,-0.174533,-0.572973,-0.692506,-0.165315,-0.200265,1.1481,-0.315056,-0.276531,0.771955
28,40,-0.567232,-0.698132,-0.174533,-0.174533,-0.572973,-0.692506,-0.165315,-0.200265,1.1481,-0.315056,-0.276531,0.771955
28,40,-0.567232,-0.698132,-0.174533,-0.174533,-0.572973,-0.692506,-0.165315,-0.200265,1.1481,-0.315056,-0.276531,0.771955
28,40,-0.567232,-0.698132,-0.174533,-0.174533,-0.572973,-0.692506,-0.165315,-0.200265,1.1481,-0.315056,-0.276531,0.771955
28,40,-0.567232,-0.698132,-0.174533,-0.174533,-0.572973,-0.692506,-0.165315,-0.200265,1.1481,-0.315056,-0.276531,0.771955
28,40,-0.567232,-0.698132,-0.174533,-0.174533,-0.572973,-0.692506,-0.165315,-0.200265,1.1481,-0.315056,-0.276531,0.771955
28,40,-0.567232,-0.698132,-0.174533,-0.174533,-0.572973,-0.692506,-0.165315,-0.200265,1.1481,-0.315056,-0.276531,0.771955
28,40,-0.567232,-0.698132,-0.174533,-0.174533,-0.572973,-0.692506,-0.165315,-0.200265,1.1481,-0.315056,-0.276531,0.771955
28,40,-0.567232,-0.698132,-0.174533,-0.174533,-0.572973,-0.692506,-0.165315,-0.200265,1.1481,-0.315056,-0.276531,0.771955
28,40,-0.567232,-0.698132,-0.174533,-0.174533,-0.572973,-0.692506,-0.165315,-0.200265,1.1481,-0.315056,-0.276531,0.771955
28,40,-0.567232,-0.698132,-0.174533,-0.174533,-0.572973,-0.692506,-0.165315,-0.200265,1.1481,-0.315056,-0.276531,0.771955
28,40,-0.567232,-0.698132,-0.174533,-0.174533,-0.572973,-0.692506,-0.165315,-0.200265,1.1481,-0.315056,-0.276531,0.771955
28,40,-0.567232,-0.698132,-0.174533,-0.174533,-0.572973,-0.692506,-0.165315,-0.200265,1.1481,-0.315056,-0.276531,0.771955
28,40,-0.567232,-0.698132,-0.174533,-0.174533,-0.572973,-0.692506,-0.165315,-0.200265,1.1481,-0.315056,-0.276531,0.771955
28,40,-0.567232,-0.698132,-0.174533,-0.174533,-0.572973,-0.692506,-0.165315,-0.200265,1.1481,-0.315056,-0.276531,0.771955
28,40,-0.567232,-0.698132,-0.174533,-0.174533,-0.572973,-0.692506,-0.165315,-0.200265,1.1481,-0.315056,-0.276531,0.771955
28,40,-0.567232,-0.698132,-0.174533,-0.174533,-0.572973,-0.692506,-0.165315,-0.200265,1.1481,-0.315056,-0.276531,0.771955
28,40,-0.567232,-0.698132,-0.174533,-0.174533,-0.572973,-0.692506,-0.165315,-0.200265,1.1481,-0.315056,-0.276531,0.771955
28,40,-0.567232,-0.698132,-0.174533,-0.174533,-0.572973,-0.692506,-0.165315,-0.200265,1.1481,-0.315056,-0.276531,0.771955
28,40,-0.567232,-0.698132,-0.174533,-0.174533,-0.572973,-0.692506,-0.165315,-0.200265,1.1481,-0.315056,-0.276531,0.771955
28,40,-0.567232,-0.698132,-0.174533,-0.174533,-0.572973,-0.692506,-0.165315,-0.200265,1.1481,-0.315056,-0.276531,0.771955
28,40,-0.567232,-0.698132,-0.174533,-0.174533,-0.572973,-0.692506,-0.165315,-0.200265,1.1481,-0.315056,-0.276531,0.771955
28,40,-0.567232,-0.698132,-0.174533,-0.174533,-0.572973,-0.692506,-0.165315,-0.200265,1.1481,-0.315056,-0.276531,0.771955
28,40,-0.567232,-0.698132,-0.174533,-0.174533,-0.572973,-0.692506,-0.165315,-0.200265,1.1481,-0.315056,-0.276531,0.771955
28,40,-0.567232,-0.698132,-0.174533,-0.174533,-0.572973,-0.692506,-0.165315,-0.200265,1.1481,-0.315056,-0.276531,0.771955
28,40,-0.567232,-0.698132,-0.174533,-0.174533,-0.572973,-0.692506,-0.165315,-0.200265,1.1481,-0.315056,-0.276531,0.771955
28,40,-0.567232,-0.698132,-0.174533,-0.174533,-0.572973,-0.692506,-0.165315,-0.200265,1.1481,-0.315056,-0.276531,0.771955
28,40,-0.567232,-0.698132,-0.174533,-0.174533,-0.572973,-0.692506,-0.165315,-0.200265,1.1481,-0.315056,-0.276531,0.771955
28,40,-0.567232,-0.698132,-0.174533,-0.174533,-0.572973,-0.692506,-0.165315,-0.200265,1.1481,-0.315056,-0.276531,0.771955
28,40,-0.567232,-0.698132,-0.174533,-0.174533,-0.572973,-0.692506,-0.165315,-0.200265,1.1481,-0.315056,-0.276531,0.771955
28,40,-0.567232,-0.698132,-0.174533,-0.174533,-0.572973,-0.692506,-0.165315,-0.200265,1.1481,-0.315056,-0.276531,0.771955
28,40,-0.567232,-0.698132,-0.174533,-0.174533,-0.572973,-0.692506,-0.165315,-0.200265,1.1481,-0.315056,-0.276531,0.771955
28,40,-0.567232,-0.698132,-0.174533,-0.174533,-0.572973,-0.692506,-0.165315,-0.200265,1.1481,-0.315056,-0.276531,0.771955
28,40,-0.567232,-0.698132,-0.174533,-0.174533,-0.572973,-0.692506,-0.165315,-0.200265,1.1481,-0.315056,-0.276531,0.771955
28,40,-0.567232,-0.698132,-0.174533,-0.174533,-0.572973,-0.692506,-0.165315,-0.200265,1.1481,-0.315056,-0.276531,0.771955
28,40,-0.567232,-0.698132,-0.174533,-0.174533,-0.572973,-0.692506,-0.165315,-0.200265,1.1481,-0.315056,-0.276531,0.771955
28,40,-0.567232,-0.698132,-0.174533,-0.174533,-0.572973,-0.692506,-0.165315,-0.200265,1.1481,-0.315056,-0.276531,0.771955
28,40,-0.567232,-0.698132,-0.174533,-0.174533,-0.572973,-0.692506,-0.165315,-0.200265,1.1481,-0.315056,-0.276531,0.771955
28,40,-0.567232,-0.698132,-0.174533,-0.174533,-0.572973,-0.692506,-0.165315,-0.200265,1.1481,-0.315056,-0.276531,0.771955
28,40,-0.567232,-0.698132,-0.174533,-0.174533,-0.572973,-0.692506,-0.165315,-0.200265,1.1481,-0.315056,-0.276531,0.771955
28,40,-0.567232,-0.698132,-0.174533,-0.174533,-0.572973,-0.692506,-0.165315,-0.200265,1.1481,-0.315056,-0.276531,0.771955
28,40,-0.567232,-0.698132,-0.174533,-0.174533,-0.572973,-0.692506,-0.165315,-0.200265,1.1481,-0.315056,-0.276531,0.771955
28,40,-0.567232,-0.698132,-0.174533,-0.174533,-0.572973,-0.692506,-0.165315,-0.200265,1.1481,-0.315056,-0.276531,0.771955
28,40,-0.567232,-0.698132,-0.174533,-0.174533,-0.572973,-0.692506,-0.165315,-0.200265,1.1481,-0.315056,-0.276531,0.771955
28,40,-0.567232,-0.698132,-0.174533,-0.174533,-0.572973,-0.692506,-0.165315,-0.200265,1.1481,-0.315056,-0.276531,0.771955
28,40,-0.567232,-0.698132,-0.174533,-0.174533,-0.572973,-0.692506,-0.165315,-0.200265,1.1481,-0.315056,-0.276531,0.771955
28,40,-0.567232,-0.698132,-0.174533,-0.174533,-0.572973,-0.692506,-0.165315,-0.200265,1.1481,-0.315056,-0.276531,0.771955
28,40,-0.567232,-0.698132,-0.174533,-0.174533,-0.572973,-0.692506,-0.165315,-0.200265,1.1481,-0.315056,-0.276531,0.771955
28,40,-0.567232,-0.698132,-0.174533,-0.174533,-0.572973,-0.692506,-0.165315,-0.200265,1.1481,-0.315056,-0.276531,0.771955
28,40,-0.567232,-0.698132,-0.174533,-0.174533,-0.572973,-0.692506,-0.165315,-0.200265,1.1481,-0.315056,-0.276531,0.771955
28,40,-0.567232,-0.698132,-0.174533,-0.174533,-0.572973,-0.692506,-0.165383,-0.200308,1.1481,-0.315056,-0.274506,0.773238
28,40,-0.567232,-0.698132,-0.174533,-0.174533,-0.572973,-0.692506,-0.165383,-0.200308,1.1481,-0.315056,-0.274506,0.773238
28,40,-0.567232,-0.698132,-0.174533,-0.174533,-0.572973,-0.692506,-0.165383,-0.200308,1.1481,-0.315056,-0.274506,0.773238
28,40,-0.567232,-0.698132,-0.174533,-0.174533,-0.572973,-0.692506,-0.165383,-0.200308,1.1481,-0.315056,-0.274506,0.773238
28,40,-0.567232,-0.698132,-0.174533,-0.174533,-0.572973,-0.692506,-0.165383,-0.200308,1.1481,-0.315056,-0.274506,0.773238
28,40,-0.567232,-0.698132,-0.174533,-0.174533,-0.572973,-0.692506,-0.165383,-0.200308,1.1481,-0.315056,-0.274506,0.773238
28,40,-0.567232,-0.698132,-0.174533,-0.174533,-0.572973,-0.692506,-0.165383,-0.200308,1.1481,-0.315056,-0.274506,0.773238
28,40,-0.567232,-0.698132,-0.174533,-0.174533,-0.572973,-0.692506,-0.165383,-0.200308,1.1481,-0.315056,-0.274506,0.773238
28,40,-0.567232,-0.698132,-0.174533,-0.174533,-0.572973,-0.692506,-0.165383,-0.200308,1.1481,-0.315056,-0.274506,0.773238
28,40,-0.567232,-0.698132,-0.174533,-0.174533,-0.572973,-0.692506,-0.165379,-0.200248,1.1481,-0.315056,-0.274604,0.771452
28,40,-0.567232,-0.698132,-0.174533,-0.174533,-0.572973,-0.692506,-0.165379,-0.200248,1.1481,-0.315056,-0.274604,0.771452
28,40,-0.567232,-0.698132,-0.174533,-0.174533,-0.572973,-0.692506,-0.165379,-0.200248,1.1481,-0.315056,-0.274604,0.771452
28,40,-0.567232,-0.698132,-0.174533,-0.174533,-0.572973,-0.692506,-0.165379,-0.200248,1.1481,-0.315056,-0.274604,0.771452
28,40,-0.567232,-0.698132,-0.174533,-0.174533,-0.572973,-0.692506,-0.165379,-0.200248,1.1481,-0.315056,-0.274604,0.771452
28,40,-0.567232,-0.698132,-0.174533,-0.174533,-0.572973,-0.692506,-0.165379,-0.200248,1.1481,-0.315056,-0.274604,0.771452
28,40,-0.567232,-0.698132,-0.174533,-0.174533,-0.572973,-0.692506,-0.165379,-0.200248,1.1481,-0.315056,-0.274604,0.771452
28,40,-0.567232,-0.698132,-0.174533,-0.174533,-0.572973,-0.692506,-0.165379,-0.200248,1.1481,-0.315056,-0.274604,0.771452
28,40,-0.567232,-0.698132,-0.174533,-0.174533,-0.572973,-0.692506,-0.165379,-0.200248,1.1481,-0.315056,-0.274604,0.771452
28,40,-0.567232,-0.698132,-0.174533,-0.174533,-0.572973,-0.692506,-0.165379,-0.200248,1.1481,-0.315056,-0.274604,0.771452
28,40,-0.567232,-0.698132,-0.174533,-0.174533,-0.572973,-0.692506,-0.165379,-0.200248,1.1481,-0.315056,-0.274604,0.771452
28,40,-0.567232,-0.698132,-0.174533,-0.174533,-0.572973,-0.692506,-0.165379,-0.200248,1.1481,-0.315056,-0.274604,0.771452
28,40,-0.567232,-0.698132,-0.174533,-0.174533,-0.572973,-0.692506,-0.165379,-0.200248,1.1481,-0.315056,-0.274604,0.771452
28,40,-0.567232,-0.698132,-0.174533,-0.174533,-0.572973,-0.692506,-0.165379,-0.200248,1.1481,-0.315056,-0.274604,0.771452
28,40,-0.567232,-0.698132,-0.174533,-0.174533,-0.572973,-0.692506,-0.165379,-0.200248,1.1481,-0.315056,-0.274604,0.771452
28,40,-0.567232,-0.698132,-0.174533,-0.174533,-0.572973,-0.692506,-0.165379,-0.200248,1.1481,-0.315056,-0.274604,0.771452
28,40,-0.567232,-0.698132,-0.174533,-0.174533,-0.572973,-0.692506,-0.165379,-0.200248,1.1481,-0.315056,-0.274604,0.771452
28,40,-0.567232,-0.698132,-0.174533,-0.174533,-0.572973,-0.692506,-0.165379,-0.200248,1.1481,-0.315056,-0.274604,0.771452
28,40,-0.567232,-0.698132,-0.174533,-0.174533,-0.572973,-0.692506,-0.165379,-0.200248,1.1481,-0.315056,-0.274604,0.771452
28,40,-0.567232,-0.698132,-0.174533,-0.174533,-0.572973,-0.692506,-0.165379,-0.200248,1.1481,-0.315056,-0.274604,0.771452
28,40,-0.567232,-0.698132,-0.174533,-0.174533,-0.572973,-0.692506,-0.165379,-0.200248,1.1481,-0.315056,-0.274604,0.771452
28,40,-0.567232,-0.698132,-0.174533,-0.174533,-0.572973,-0.692506,-0.165379,-0.200248,1.1481,-0.315056,-0.274604,0.771452
28,40,-0.567232,-0.698132,-0.174533,-0.174533,-0.572973,-0.692506,-0.165379,-0.200248,1.1481,-0.315056,-0.274604,0.771452
28,40,-0.567232,-0.698132,-0.174533,-0.174533,-0.572973,-0.692506,-0.165379,-0.200248,1.1481,-0.315056,-0.274604,0.771452
28,40,-0.567232,-0.698132,-0.174533,-0.174533,-0.572973,-0.692506,-0.165379,-0.200248,1.1481,-0.315056,-0.274604,0.771452
28,40,-0.567232,-0.698132,-0.174533,-0.174533,-0.572973,-0.692506,-0.165379,-0.200248,1.1481,-0.315056,-0.274604,0.771452
28,40,-0.567232,-0.698132,-0.174533,-0.174533,-0.572973,-0.692506,-0.165379,-0.200248,1.1481,-0.315056,-0.274604,0.771452
28,40,-0.567232,-0.698132,-0.174533,-0.174533,-0.572973,-0.692506,-0.165379,-0.200248,1.1481,-0.315056,-0.274604,0.771452
28,40,-0.567232,-0.698132,-0.174533,-0.174533,-0.572973,-0.692506,-0.165379,-0.200248,1.1481,-0.315056,-0.274604,0.771452
28,40,-0.567232,-0.698132,-0.174533,-0.174533,-0.572973,-0.692506,-0.165379,-0.200248,1.1481,-0.315056,-0.274604,0.771452
28,40,-0.567232,-0.698132,-0.174533,-0.174533,-0.572973,-0.692506,-0.165379,-0.200248,1.1481,-0.315056,-0.274604,0.771452
28,40,-0.567232,-0.698132,-0.174533,-0.174533,-0.572973,-0.692506,-0.165379,-0.200248,1.1481,-0.315056,-0.274604,0.771452
28,40,-0.567232,-0.698132,-0.174533,-0.174533,-0.572973,-0.692506,-0.165379,-0.200248,1.1481,-0.315056,-0.274604,0.771452
28,40,-0.567232,-0.698132,-0.174533,-0.174533,-0.572973,-0.692506,-0.165379,-0.200248,1.1481,-0.315056,-0.274604,0.771452
28,40,-0.567232,-0.698132,-0.174533,-0.174533,-0.572973,-0.692506,-0.165379,-0.200248,1.1481,-0.315056,-0.274604,0.771452
28,40,-0.567232,-0.698132,-0.174533,-0.174533,-0.572973,-0.692506,-0.165379,-0.200248,1.1481,-0.315056,-0.274604,0.771452
28,40,-0.567232,-0.698132,-0.174533,-0.174533,-0.572973,-0.692506,-0.165379,-0.200248,1.1481,-0.315056,-0.274604,0.771452
28,40,-0.567232,-0.698132,-0.174533,-0.174533,-0.572973,-0.692506,-0.165379,-0.200248,1.1481,-0.315056,-0.274604,0.771452
28,40,-0.567232,-0.698132,-0.174533,-0.174533,-0.572973,-0.692506,-0.165379,-0.200248,1.1481,-0.315056,-0.274604,0.771452
28,40,-0.567232,-0.698132,-0.174533,-0.174533,-0.572973,-0.692506,-0.165379,-0.200248,1.1481,-0.315056,-0.274604,0.771452
28,40,-0.567232,-0.698132,-0.174533,-0.174533,-0.572973,-0.692506,-0.165379,-0.200248,1.1481,-0.315056,-0.274604,0.771452
28,40,-0.567232,-0.698132,-0.174533,-0.174533,-0.572973,-0.692506,-0.165379,-0.200248,1.1481,-0.315056,-0.274604,0.771452
28,40,-0.567232,-0.698132,-0.174533,-0.174533,-0.572973,-0.692506,-0.165379,-0.200248,1.1481,-0.315056,-0.274604,0.771452
28,40,-0.567232,-0.698132,-0.174533,-0.174533,-0.572973,-0.692506,-0.165379,-0.200248,1.1481,-0.315056,-0.274604,0.771452
28,40,-0.567232,-0.698132,-0.174533,-0.174533,-0.572973,-0.692506,-0.165379,-0.200248,1.1481,-0.315056,-0.274604,0.771452
28,40,-0.567232,-0.698132,-0.174533,-0.174533,-0.572973,-0.692506,-0.165379,-0.200248,1.1481,-0.315056,-0.274604,0.771452
28,40,-0.567232,-0.698132,-0.174533,-0.174533,-0.572973,-0.692506,-0.165379,-0.200248,1.1481,-0.315056,-0.274604,0.771452
28,40,-0.567232,-0.698132,-0.174533,-0.174533,-0.572973,-0.692506,-0.165379,-0.200248,1.1481,-0.315056,-0.274604,0.771452
28,40,-0.567232,-0.698132,-0.174533,-0.174533,-0.572973,-0.692506,-0.165379,-0.200248,1.1481,-0.315056,-0.274604,0.771452
28,40,-0.567232,-0.698132,-0.174533,-0.174533,-0.572973,-0.692506,-0.165379,-0.200248,1.1481,-0.315056,-0.274604,0.771452
28,40,-0.567232,-0.698132,-0.174533,-0.174533,-0.572973,-0.692506,-0.165379,-0.200248,1.1481,-0.315056,-0.274604,0.771452
28,40,-0.567232,-0.698132,-0.174533,-0.174533,-0.572973,-0.692506,-0.165379,-0.200248,1.1481,-0.315056,-0.274604,0.771452
28,40,-0.567232,-0.698132,-0.174533,-0.174533,-0.572973,-0.692506,-0.165379,-0.200248,1.1481,-0.315056,-0.274604,0.771452
28,40,-0.567232,-0.698132,-0.174533,-0.174533,-0.572973,-0.692506,-0.165379,-0.200248,1.1481,-0.315056,-0.274604,0.771452
28,40,-0.567232,-0.698132,-0.174533,-0.174533,-0.572973,-0.692506,-0.165379,-0.200248,1.1481,-0.315056,-0.274604,0.771452
28,40,-0.567232,-0.698132,-0.174533,-0.174533,-0.572973,-0.692506,-0.165379,-0.200248,1.1481,-0.315056,-0.274604,0.771452
28,40,-0.567232,-0.698132,-0.174533,-0.174533,-0.572973,-0.692506,-0.165379,-0.200248,1.1481,-0.315056,-0.274604,0.771452
28,40,-0.567232,-0.698132,-0.174533,-0.174533,-0.572973,-0.692506,-0.165379,-0.200248,1.1481,-0.315056,-0.274604,0.771452
28,40,-0.567232,-0.698132,-0.174533,-0.174533,-0.572973,-0.692506,-0.165379,-0.200248,1.1481,-0.315056,-0.274604,0.771452
28,40,-0.567232,-0.698132,-0.174533,-0.174533,-0.572973,-0.692506,-0.165379,-0.200248,1.1481,-0.315056,-0.274604,0.771452
28,40,-0.567232,-0.698132,-0.174533,-0.174533,-0.572973,-0.692506,-0.165379,-0.200248,1.1481,-0.315056,-0.274604,0.771452
28,40,-0.567232,-0.698132,-0.174533,-0.174533,-0.572973,-0.692506,-0.165379,-0.200248,1.1481,-0.315056,-0.274604,0.771452
28,40,-0.567232,-0.698132,-0.174533,-0.174533,-0.572973,-0.692506,-0.165379,-0.200248,1.1481,-0.315056,-0.274604,0.771452
28,40,-0.567232,-0.698132,-0.174533,-0.174533,-0.572973,-0.692506,-0.165447,-0.200291,1.1481,-0.315056,-0.272579,0.772736
28,40,-0.567232,-0.698132,-0.174533,-0.174533,-0.572973,-0.692506,-0.165447,-0.200291,1.1481,-0.315056,-0.272579,0.772736
28,40,-0.567232,-0.698132,-0.174533,-0.174533,-0.572973,-0.692506,-0.165447,-0.200291,1.1481,-0.315056,-0.272579,0.772736
28,40,-0.567232,-0.698132,-0.174533,-0.174533,-0.572973,-0.692506,-0.165447,-0.200291,1.1481,-0.315056,-0.272579,0.772736
28,40,-0.567232,-0.698132,-0.174533,-0.174533,-0.572973,-0.692506,-0.165447,-0.200291,1.1481,-0.315056,-0.272579,0.772736
28,40,-0.567232,-0.698132,-0.174533,-0.174533,-0.572973,-0.692506,-0.165447,-0.200291,1.1481,-0.315056,-0.272579,0.772736
28,40,-0.567232,-0.698132,-0.174533,-0.174533,-0.572973,-0.692506,-0.165447,-0.200291,1.1481,-0.315056,-0.272579,0.772736
28,40,-0.567232,-0.698132,-0.174533,-0.174533,-0.572973,-0.692506,-0.165447,-0.200291,1.1481,-0.315056,-0.272579,0.772736
28,40,-0.567232,-0.698132,-0.174533,-0.174533,-0.572973,-0.692506,-0.165447,-0.200291,1.1481,-0.315056,-0.272579,0.772736
28,40,-0.567232,-0.698132,-0.174533,-0.174533,-0.572973,-0.692506,-0.165447,-0.200291,1.1481,-0.315056,-0.272579,0.772736
28,40,-0.567232,-0.698132,-0.174533,-0.174533,-0.572973,-0.692506,-0.165447,-0.200291,1.1481,-0.315056,-0.272579,0.772736
28,40,-0.567232,-0.698132,-0.174533,-0.174533,-0.572973,-0.692506,-0.165447,-0.200291,1.1481,-0.315056,-0.272579,0.772736
28,40,-0.567232,-0.698132,-0.174533,-0.174533,-0.572973,-0.692506,-0.165447,-0.200291,1.1481,-0.315056,-0.272579,0.772736
28,40,-0.567232,-0.698132,-0.174533,-0.174533,-0.572973,-0.692506,-0.165447,-0.200291,1.1481,-0.315056,-0.272579,0.772736
28,40,-0.567232,-0.698132,-0.174533,-0.174533,-0.572973,-0.692506,-0.165447,-0.200291,1.1481,-0.315056,-0.272579,0.772736
28,40,-0.567232,-0.698132,-0.174533,-0.174533,-0.572973,-0.692506,-0.165386,-0.20031,1.1481,-0.315056,-0.274415,0.773304
28,40,-0.567232,-0.698132,-0.174533,-0.174533,-0.572973,-0.692506,-0.165386,-0.20031,1.1481,-0.315056,-0.274415,0.773304
28,40,-0.567232,-0.698132,-0.174533,-0.174533,-0.572973,-0.692506,-0.165386,-0.20031,1.1481,-0.315056,-0.274415,0.773304
28,40,-0.567232,-0.698132,-0.174533,-0.174533,-0.572973,-0.692506,-0.165386,-0.20031,1.1481,-0.315056,-0.274415,0.773304
28,40,-0.567232,-0.698132,-0.174533,-0.174533,-0.572973,-0.692506,-0.165386,-0.20031,1.1481,-0.315056,-0.274415,0.773304
28,40,-0.567232,-0.698132,-0.174533,-0.174533,-0.572973,-0.692506,-0.165386,-0.20031,1.1481,-0.315056,-0.274415,0.773304
28,40,-0.567232,-0.698132,-0.174533,-0.174533,-0.572973,-0.692506,-0.165386,-0.20031,1.1481,-0.315056,-0.274415,0.773304
28,40,-0.567232,-0.698132,-0.174533,-0.174533,-0.572973,-0.692506,-0.165386,-0.20031,1.1481,-0.315056,-0.274415,0.773304
28,40,-0.567232,-0.698132,-0.174533,-0.174533,-0.572973,-0.692506,-0.165386,-0.20031,1.1481,-0.315056,-0.274415,0.773304
28,40,-0.567232,-0.698132,-0.174533,-0.174533,-0.572973,-0.692506,-0.165386,-0.20031,1.1481,-0.315056,-0.274415,0.773304
28,40,-0.567232,-0.698132,-0.174533,-0.174533,-0.572973,-0.692506,-0.165386,-0.20031,1.1481,-0.315056,-0.274415,0.773304
28,40,-0.567232,-0.698132,-0.174533,-0.174533,-0.572973,-0.692506,-0.165386,-0.20031,1.1481,-0.315056,-0.274415,0.773304
28,40,-0.567232,-0.698132,-0.174533,-0.174533,-0.572973,-0.692506,-0.165386,-0.20031,1.1481,-0.315056,-0.274415,0.773304
28,40,-0.567232,-0.698132,-0.174533,-0.174533,-0.572973,-0.692506,-0.165386,-0.20031,1.1481,-0.315056,-0.274415,0.773304
28,40,-0.567232,-0.698132,-0.174533,-0.174533,-0.572973,-0.692506,-0.165386,-0.20031,1.1481,-0.315056,-0.274415,0.773304
28,40,-0.567232,-0.698132,-0.174533,-0.174533,-0.572973,-0.692506,-0.165386,-0.20031,1.1481,-0.315056,-0.274415,0.773304
28,40,-0.567232,-0.698132,-0.174533,-0.174533,-0.572973,-0.692506,-0.165386,-0.20031,1.1481,-0.315056,-0.274415,0.773304
28,40,-0.567232,-0.698132,-0.174533,-0.174533,-0.572973,-0.692506,-0.165386,-0.20031,1.1481,-0.315056,-0.274415,0.773304
28,40,-0.567232,-0.698132,-0.174533,-0.174533,-0.572973,-0.692506,-0.165386,-0.20031,1.1481,-0.315056,-0.274415,0.773304
28,40,-0.567232,-0.698132,-0.174533,-0.174533,-0.572973,-0.692506,-0.165386,-0.20031,1.1481,-0.315056,-0.274415,0.773304
28,40,-0.567232,-0.698132,-0.174533,-0.174533,-0.572973,-0.692506,-0.165386,-0.20031,1.1481,-0.315056,-0.274415,0.773304
28,40,-0.567232,-0.698132,-0.174533,-0.174533,-0.572973,-0.692506,-0.165386,-0.20031,1.1481,-0.315056,-0.274415,0.773304
28,40,-0.567232,-0.698132,-0.174533,-0.174533,-0.572973,-0.692506,-0.165386,-0.20031,1.1481,-0.315056,-0.274415,0.773304
28,40,-0.567232,-0.698132,-0.174533,-0.174533,-0.572973,-0.692506,-0.165386,-0.20031,1.1481,-0.315056,-0.274415,0.773304
28,40,-0.567232,-0.698132,-0.174533,-0.174533,-0.572973,-0.692506,-0.165386,-0.20031,1.1481,-0.315056,-0.274415,0.773304
28,40,-0.567232,-0.698132,-0.174533,-0.174533,-0.572973,-0.692506,-0.165386,-0.20031,1.1481,-0.315056,-0.274415,0.773304
28,40,-0.567232,-0.698132,-0.174533,-0.174533,-0.572973,-0.692506,-0.165386,-0.20031,1.1481,-0.315056,-0.274415,0.773304
28,40,-0.567232,-0.698132,-0.174533,-0.174533,-0.572973,-0.692506,-0.165386,-0.20031,1.1481,-0.315056,-0.274415,0.773304
28,40,-0.567232,-0.698132,-0.174533,-0.174533,-0.572973,-0.692506,-0.165386,-0.20031,1.1481,-0.315056,-0.274415,0.773304
28,40,-0.567232,-0.698132,-0.174533,-0.174533,-0.572973,-0.692506,-0.165386,-0.20031,1.1481,-0.315056,-0.274415,0.773304
28,40,-0.567232,-0.698132,-0.174533,-0.174533,-0.572973,-0.692506,-0.165386,-0.20031,1.1481,-0.315056,-0.274415,0.773304
28,40,-0.567232,-0.698132,-0.174533,-0.174533,-0.572973,-0.692506,-0.165386,-0.20031,1.1481,-0.315056,-0.274415,0.773304
28,40,-0.567232,-0.698132,-0.174533,-0.174533,-0.572973,-0.692506,-0.165386,-0.20031,1.1481,-0.315056,-0.274415,0.773304
28,40,-0.567232,-0.698132,-0.174533,-0.174533,-0.572973,-0.692506,-0.165386,-0.20031,1.1481,-0.315056,-0.274415,0.773304
28,40,-0.567232,-0.698132,-0.174533,-0.174533,-0.572973,-0.692506,-0.165386,-0.20031,1.1481,-0.315056,-0.274415,0.773304
28,40,-0.567232,-0.698132,-0.174533,-0.174533,-0.572973,-0.692506,-0.165386,-0.20031,1.1481,-0.315056,-0.274415,0.773304
28,40,-0.567232,-0.698132,-0.174533,-0.174533,-0.572973,-0.692506,-0.165386,-0.20031,1.1481,-0.315056,-0.274415,0.773304
28,40,-0.567232,-0.698132,-0.174533,-0.174533,-0.572973,-0.692506,-0.165386,-0.20031,1.1481,-0.315056,-0.274415,0.773304
28,40,-0.567232,-0.698132,-0.174533,-0.174533,-0.572973,-0.692506,-0.165386,-0.20031,1.1481,-0.315056,-0.274415,0.773304
28,40,-0.567232,-0.698132,-0.174533,-0.174533,-0.572973,-0.692506,-0.165386,-0.20031,1.1481,-0.315056,-0.274415,0.773304
28,40,-0.567232,-0.698132,-0.174533,-0.174533,-0.572973,-0.692506,-0.165386,-0.20031,1.1481,-0.315056,-0.274415,0.773304
28,40,-0.567232,-0.698132,-0.174533,-0.174533,-0.572973,-0.692506,-0.165386,-0.20031,1.1481,-0.315056,-0.274415,0.773304
28,40,-0.567232,-0.698132,-0.174533,-0.174533,-0.572973,-0.692506,-0.165386,-0.20031,1.1481,-0.315056,-0.274415,0.773304
28,40,-0.567232,-0.698132,-0.174533,-0.174533,-0.572973,-0.692506,-0.165386,-0.20031,1.1481,-0.315056,-0.274415,0.773304
28,40,-0.567232,-0.698132,-0.174533,-0.174533,-0.572973,-0.692506,-0.165386,-0.20031,1.1481,-0.315056,-0.274415,0.773304
28,40,-0.567232,-0.698132,-0.174533,-0.174533,-0.572973,-0.692506,-0.165386,-0.20031,1.1481,-0.315056,-0.274415,0.773304
28,40,-0.567232,-0.698132,-0.174533,-0.174533,-0.572973,-0.692506,-0.165386,-0.20031,1.1481,-0.315056,-0.274415,0.773304
28,40,-0.567232,-0.698132,-0.174533,-0.174533,-0.572973,-0.692506,-0.165386,-0.20031,1.1481,-0.315056,-0.274415,0.773304
28,40,-0.567232,-0.698132,-0.174533,-0.174533,-0.572973,-0.692506,-0.165386,-0.20031,1.1481,-0.315056,-0.274415,0.773304
28,40,-0.567232,-0.698132,-0.174533,-0.174533,-0.572973,-0.692506,-0.165386,-0.20031,1.1481,-0.315056,-0.274415,0.773304
28,40,-0.567232,-0.698132,-0.174533,-0.174533,-0.572973,-0.692506,-0.165386,-0.20031,1.1481,-0.315056,-0.274415,0.773304
28,40,-0.567232,-0.698132,-0.174533,-0.174533,-0.572973,-0.692506,-0.165386,-0.20031,1.1481,-0.315056,-0.274415,0.773304
28,40,-0.567232,-0.698132,-0.174533,-0.174533,-0.572973,-0.692506,-0.165386,-0.20031,1.1481,-0.315056,-0.274415,0.773304
28,40,-0.567232,-0.698132,-0.174533,-0.174533,-0.572973,-0.692506,-0.165386,-0.20031,1.1481,-0.315056,-0.274415,0.773304
28,40,-0.567232,-0.698132,-0.174533,-0.174533,-0.572973,-0.692506,-0.165386,-0.20031,1.1481,-0.315056,-0.274415,0.773304
28,40,-0.567232,-0.698132,-0.174533,-0.174533,-0.572973,-0.692506,-0.165386,-0.20031,1.1481,-0.315056,-0.274415,0.773304
28,40,-0.567232,-0.698132,-0.174533,-0.174533,-0.572973,-0.692506,-0.165386,-0.20031,1.1481,-0.315056,-0.274415,0.773304
28,40,-0.567232,-0.698132,-0.174533,-0.174533,-0.572973,-0.692506,-0.165386,-0.20031,1.1481,-0.315056,-0.274415,0.773304
28,40,-0.567232,-0.698132,-0.174533,-0.174533,-0.572973,-0.692506,-0.165386,-0.20031,1.1481,-0.315056,-0.274415,0.773304
28,40,-0.567232,-0.698132,-0.174533,-0.174533,-0.572973,-0.692506,-0.165386,-0.20031,1.1481,-0.315056,-0.274415,0.773304
28,40,-0.567232,-0.698132,-0.174533,-0.174533,-0.572973,-0.692506,-0.165386,-0.20031,1.1481,-0.315056,-0.274415,0.773304
28,40,-0.567232,-0.698132,-0.174533,-0.174533,-0.572973,-0.692506,-0.165386,-0.20031,1.1481,-0.315056,-0.274415,0.773304
28,40,-0.567232,-0.698132,-0.174533,-0.174533,-0.572973,-0.692506,-0.165386,-0.20031,1.1481,-0.315056,-0.274415,0.773304
28,40,-0.567232,-0.698132,-0.174533,-0.174533,-0.572973,-0.692506,-0.165386,-0.20031,1.1481,-0.315056,-0.274415,0.773304
28,40,-0.567232,-0.698132,-0.174533,-0.174533,-0.572973,-0.692506,-0.165386,-0.20031,1.1481,-0.315056,-0.274415,0.773304
28,40,-0.567232,-0.698132,-0.174533,-0.174533,-0.572973,-0.692506,-0.165386,-0.20031,1.1481,-0.315056,-0.274415,0.773304
28,40,-0.567232,-0.698132,-0.174533,-0.174533,-0.572973,-0.692506,-0.165386,-0.20031,1.1481,-0.315056,-0.274415,0.773304
28,40,-0.567232,-0.698132,-0.174533,-0.174533,-0.572973,-0.692506,-0.165386,-0.20031,1.1481,-0.315056,-0.274415,0.773304
28,40,-0.567232,-0.698132,-0.174533,-0.174533,-0.572973,-0.692506,-0.165386,-0.20031,1.1481,-0.315056,-0.274415,0.773304
28,40,-0.567232,-0.698132,-0.174533,-0.174533,-0.572973,-0.692506,-0.165386,-0.20031,1.1481,-0.315056,-0.274415,0.773304
28,40,-0.567232,-0.698132,-0.174533,-0.174533,-0.572973,-0.692506,-0.165386,-0.20031,1.1481,-0.315056,-0.274415,0.773304
28,40,-0.567232,-0.698132,-0.174533,-0.174533,-0.572973,-0.692506,-0.165386,-0.20031,1.1481,-0.315056,-0.274415,0.773304
28,40,-0.567232,-0.698132,-0.174533,-0.174533,-0.572973,-0.692506,-0.165386,-0.20031,1.1481,-0.315056,-0.274415,0.773304
28,40,-0.567232,-0.698132,-0.174533,-0.174533,-0.572973,-0.692506,-0.165386,-0.20031,1.1481,-0.315056,-0.274415,0.773304
28,40,-0.567232,-0.698132,-0.174533,-0.174533,-0.572973,-0.692506,-0.165386,-0.20031,1.1481,-0.315056,-0.274415,0.773304
28,40,-0.567232,-0.698132,-0.174533,-0.174533,-0.572973,-0.692506,-0.165386,-0.20031,1.1481,-0.315056,-0.274415,0.773304
28,40,-0.567232,-0.698132,-0.174533,-0.174533,-0.572973,-0.692506,-0.165386,-0.20031,1.1481,-0.315056,-0.274415,0.773304
28,40,-0.567232,-0.698132,-0.174533,-0.174533,-0.572973,-0.692506,-0.165386,-0.20031,1.1481,-0.315056,-0.274415,0.773304
28,40,-0.567232,-0.698132,-0.174533,-0.174533,-0.572973,-0.692506,-0.165325,-0.200329,1.1481,-0.315056,-0.276251,0.773872
28,40,-0.567232,-0.698132,-0.174533,-0.174533,-0.572973,-0.692506,-0.165325,-0.200329,1.1481,-0.315056,-0.276251,0.773872
28,40,-0.567232,-0.698132,-0.174533,-0.174533,-0.572973,-0.692506,-0.165325,-0.200329,1.1481,-0.315056,-0.276251,0.773872
28,40,-0.567232,-0.698132,-0.174533,-0.174533,-0.572973,-0.692506,-0.165325,-0.200329,1.1481,-0.315056,-0.276251,0.773872
28,40,-0.567232,-0.698132,-0.174533,-0.174533,-0.572973,-0.692506,-0.165321,-0.200269,1.1481,-0.315056,-0.276349,0.772085
28,40,-0.567232,-0.698132,-0.174533,-0.174533,-0.572973,-0.692506,-0.165321,-0.200269,1.1481,-0.315056,-0.276349,0.772085
28,40,-0.567232,-0.698132,-0.174533,-0.174533,-0.572973,-0.692506,-0.165321,-0.200269,1.1481,-0.315056,-0.276349,0.772085
28,40,-0.567232,-0.698132,-0.174533,-0.174533,-0.572973,-0.692506,-0.165321,-0.200269,1.1481,-0.315056,-0.276349,0.772085
28,40,-0.567232,-0.698132,-0.174533,-0.174533,-0.572973,-0.692506,-0.165321,-0.200269,1.1481,-0.315056,-0.276349,0.772085
28,40,-0.567232,-0.698132,-0.174533,-0.174533,-0.572973,-0.692506,-0.165321,-0.200269,1.1481,-0.315056,-0.276349,0.772085
28,40,-0.567232,-0.698132,-0.174533,-0.174533,-0.572973,-0.692506,-0.165321,-0.200269,1.1481,-0.315056,-0.276349,0.772085
28,40,-0.567232,-0.698132,-0.174533,-0.174533,-0.572973,-0.692506,-0.165321,-0.200269,1.1481,-0.315056,-0.276349,0.772085
28,40,-0.567232,-0.698132,-0.174533,-0.174533,-0.572973,-0.692506,-0.165321,-0.200269,1.1481,-0.315056,-0.276349,0.772085
28,40,-0.567232,-0.698132,-0.174533,-0.174533,-0.572973,-0.692506,-0.165321,-0.200269,1.1481,-0.315056,-0.276349,0.772085
28,40,-0.567232,-0.698132,-0.174533,-0.174533,-0.572973,-0.692506,-0.165321,-0.200269,1.1481,-0.315056,-0.276349,0.772085
28,40,-0.567232,-0.698132,-0.174533,-0.174533,-0.572973,-0.692506,-0.165321,-0.200269,1.1481,-0.315056,-0.276349,0.772085
28,40,-0.567232,-0.698132,-0.174533,-0.174533,-0.572973,-0.692506,-0.165321,-0.200269,1.1481,-0.315056,-0.276349,0.772085
28,40,-0.567232,-0.698132,-0.174533,-0.174533,-0.572973,-0.692506,-0.165321,-0.200269,1.1481,-0.315056,-0.276349,0.772085
28,40,-0.567232,-0.698132,-0.174533,-0.174533,-0.572973,-0.692506,-0.165321,-0.200269,1.1481,-0.315056,-0.276349,0.772085
28,40,-0.567232,-0.698132,-0.174533,-0.174533,-0.572973,-0.692506,-0.165321,-0.200269,1.1481,-0.315056,-0.276349,0.772085
28,40,-0.567232,-0.698132,-0.174533,-0.174533,-0.572973,-0.692506,-0.165321,-0.200269,1.1481,-0.315056,-0.276349,0.772085
28,40,-0.567232,-0.698132,-0.174533,-0.174533,-0.572973,-0.692506,-0.165321,-0.200269,1.1481,-0.315056,-0.276349,0.772085
28,40,-0.567232,-0.698132,-0.174533,-0.174533,-0.572973,-0.692506,-0.165321,-0.200269,1.1481,-0.315056,-0.276349,0.772085
28,40,-0.567232,-0.698132,-0.174533,-0.174533,-0.572973,-0.692506,-0.165321,-0.200269,1.1481,-0.315056,-0.276349,0.772085
28,40,-0.567232,-0.698132,-0.174533,-0.174533,-0.572973,-0.692506,-0.165321,-0.200269,1.1481,-0.315056,-0.276349,0.772085
28,40,-0.567232,-0.698132,-0.174533,-0.174533,-0.572973,-0.692506,-0.165321,-0.200269,1.1481,-0.315056,-0.276349,0.772085
28,40,-0.567232,-0.698132,-0.174533,-0.174533,-0.572973,-0.692506,-0.165321,-0.200269,1.1481,-0.315056,-0.276349,0.772085
28,40,-0.567232,-0.698132,-0.174533,-0.174533,-0.572973,-0.692506,-0.165321,-0.200269,1.1481,-0.315056,-0.276349,0.772085
28,40,-0.567232,-0.698132,-0.174533,-0.174533,-0.572973,-0.692506,-0.165321,-0.200269,1.1481,-0.315056,-0.276349,0.772085
28,40,-0.567232,-0.698132,-0.174533,-0.174533,-0.572973,-0.692506,-0.165321,-0.200269,1.1481,-0.315056,-0.276349,0.772085
28,40,-0.567232,-0.698132,-0.174533,-0.174533,-0.572973,-0.692506,-0.165321,-0.200269,1.1481,-0.315056,-0.276349,0.772085
28,40,-0.567232,-0.698132,-0.174533,-0.174533,-0.572973,-0.692506,-0.165321,-0.200269,1.1481,-0.315056,-0.276349,0.772085
28,40,-0.567232,-0.698132,-0.174533,-0.174533,-0.572973,-0.692506,-0.165321,-0.200269,1.1481,-0.315056,-0.276349,0.772085
28,40,-0.567232,-0.698132,-0.174533,-0.174533,-0.572973,-0.692506,-0.165321,-0.200269,1.1481,-0.315056,-0.276349,0.772085
28,40,-0.567232,-0.698132,-0.174533,-0.174533,-0.572973,-0.692506,-0.165321,-0.200269,1.1481,-0.315056,-0.276349,0.772085
28,40,-0.567232,-0.698132,-0.174533,-0.174533,-0.572973,-0.692506,-0.165321,-0.200269,1.1481,-0.315056,-0.276349,0.772085
28,40,-0.567232,-0.698132,-0.174533,-0.174533,-0.572973,-0.692506,-0.165321,-0.200269,1.1481,-0.315056,-0.276349,0.772085
28,40,-0.567232,-0.698132,-0.174533,-0.174533,-0.572973,-0.692506,-0.165321,-0.200269,1.1481,-0.315056,-0.276349,0.772085
28,40,-0.567232,-0.698132,-0.174533,-0.174533,-0.572973,-0.692506,-0.165321,-0.200269,1.1481,-0.315056,-0.276349,0.772085
28,40,-0.567232,-0.698132,-0.174533,-0.174533,-0.572973,-0.692506,-0.165321,-0.200269,1.1481,-0.315056,-0.276349,0.772085
28,40,-0.567232,-0.698132,-0.174533,-0.174533,-0.572973,-0.692506,-0.165389,-0.200312,1.1481,-0.315056,-0.274324,0.773369
28,40,-0.567232,-0.698132,-0.174533,-0.174533,-0.572973,-0.692506,-0.165389,-0.200312,1.1481,-0.315056,-0.274324,0.773369
28,40,-0.567232,-0.698132,-0.174533,-0.174533,-0.572973,-0.692506,-0.165389,-0.200312,1.1481,-0.315056,-0.274324,0.773369
28,40,-0.567232,-0.698132,-0.174533,-0.174533,-0.572973,-0.692506,-0.165389,-0.200312,1.1481,-0.315056,-0.274324,0.773369
28,40,-0.567232,-0.698132,-0.174533,-0.174533,-0.572973,-0.692506,-0.165389,-0.200312,1.1481,-0.315056,-0.274324,0.773369
28,40,-0.567232,-0.698132,-0.174533,-0.174533,-0.572973,-0.692506,-0.165389,-0.200312,1.1481,-0.315056,-0.274324,0.773369
28,40,-0.567232,-0.698132,-0.174533,-0.174533,-0.572973,-0.692506,-0.165389,-0.200312,1.1481,-0.315056,-0.274324,0.773369
28,40,-0.567232,-0.698132,-0.174533,-0.174533,-0.572973,-0.692506,-0.165389,-0.200312,1.1481,-0.315056,-0.274324,0.773369
28,40,-0.567232,-0.698132,-0.174533,-0.174533,-0.572973,-0.692506,-0.165389,-0.200312,1.1481,-0.315056,-0.274324,0.773369
28,40,-0.567232,-0.698132,-0.174533,-0.174533,-0.572973,-0.692506,-0.165389,-0.200312,1.1481,-0.315056,-0.274324,0.773369
28,40,-0.567232,-0.698132,-0.174533,-0.174533,-0.572973,-0.692506,-0.165389,-0.200312,1.1481,-0.315056,-0.274324,0.773369
28,40,-0.567232,-0.698132,-0.174533,-0.174533,-0.572973,-0.692506,-0.165389,-0.200312,1.1481,-0.315056,-0.274324,0.773369
28,40,-0.567232,-0.698132,-0.174533,-0.174533,-0.572973,-0.692506,-0.165389,-0.200312,1.1481,-0.315056,-0.274324,0.773369
28,40,-0.567232,-0.698132,-0.174533,-0.174533,-0.572973,-0.692506,-0.165389,-0.200312,1.1481,-0.315056,-0.274324,0.773369
28,40,-0.567232,-0.698132,-0.174533,-0.174533,-0.572973,-0.692506,-0.165389,-0.200312,1.1481,-0.315056,-0.274324,0.773369
28,40,-0.567232,-0.698132,-0.174533,-0.174533,-0.572973,-0.692506,-0.165389,-0.200312,1.1481,-0.315056,-0.274324,0.773369
28,40,-0.567232,-0.698132,-0.174533,-0.174533,-0.572973,-0.692506,-0.165389,-0.200312,1.1481,-0.315056,-0.274324,0.773369
28,40,-0.567232,-0.698132,-0.174533,-0.174533,-0.572973,-0.692506,-0.165389,-0.200312,1.1481,-0.315056,-0.274324,0.773369
28,40,-0.567232,-0.698132,-0.174533,-0.174533,-0.572973,-0.692506,-0.165389,-0.200312,1.1481,-0.315056,-0.274324,0.773369
28,40,-0.567232,-0.698132,-0.174533,-0.174533,-0.572973,-0.692506,-0.165389,-0.200312,1.1481,-0.315056,-0.274324,0.773369
28,40,-0.567232,-0.698132,-0.174533,-0.174533,-0.572973,-0.692506,-0.165389,-0.200312,1.1481,-0.315056,-0.274324,0.773369
28,40,-0.567232,-0.698132,-0.174533,-0.174533,-0.572973,-0.692506,-0.165389,-0.200312,1.1481,-0.315056,-0.274324,0.773369
28,40,-0.567232,-0.698132,-0.174533,-0.174533,-0.572973,-0.692506,-0.165389,-0.200312,1.1481,-0.315056,-0.274324,0.773369
28,40,-0.567232,-0.698132,-0.174533,-0.174533,-0.572973,-0.692506,-0.165389,-0.200312,1.1481,-0.315056,-0.274324,0.773369
28,40,-0.567232,-0.698132,-0.174533,-0.174533,-0.572973,-0.692506,-0.165389,-0.200312,1.1481,-0.315056,-0.274324,0.773369
28,40,-0.567232,-0.698132,-0.174533,-0.174533,-0.572973,-0.692506,-0.165389,-0.200312,1.1481,-0.315056,-0.274324,0.773369
28,40,-0.567232,-0.698132,-0.174533,-0.174533,-0.572973,-0.692506,-0.165389,-0.200312,1.1481,-0.315056,-0.274324,0.773369
28,40,-0.567232,-0.698132,-0.174533,-0.174533,-0.572973,-0.692506,-0.165389,-0.200312,1.1481,-0.315056,-0.274324,0.773369
28,40,-0.567232,-0.698132,-0.174533,-0.174533,-0.572973,-0.692506,-0.165389,-0.200312,1.1481,-0.315056,-0.274324,0.773369
28,40,-0.567232,-0.698132,-0.174533,-0.174533,-0.572973,-0.692506,-0.165389,-0.200312,1.1481,-0.315056,-0.274324,0.773369
28,40,-0.567232,-0.698132,-0.174533,-0.174533,-0.572973,-0.692506,-0.165389,-0.200312,1.1481,-0.315056,-0.274324,0.773369
28,40,-0.567232,-0.698132,-0.174533,-0.174533,-0.572973,-0.692506,-0.165389,-0.200312,1.1481,-0.315056,-0.274324,0.773369
28,40,-0.567232,-0.698132,-0.174533,-0.174533,-0.572973,-0.692506,-0.165389,-0.200312,1.1481,-0.315056,-0.274324,0.773369
28,40,-0.567232,-0.698132,-0.174533,-0.174533,-0.572973,-0.692506,-0.165389,-0.200312,1.1481,-0.315056,-0.274324,0.773369
28,40,-0.567232,-0.698132,-0.174533,-0.174533,-0.572973,-0.692506,-0.165389,-0.200312,1.1481,-0.315056,-0.274324,0.773369
28,40,-0.567232,-0.698132,-0.174533,-0.174533,-0.572973,-0.692506,-0.165389,-0.200312,1.1481,-0.315056,-0.274324,0.773369
28,40,-0.567232,-0.698132,-0.174533,-0.174533,-0.572973,-0.692506,-0.165389,-0.200312,1.1481,-0.315056,-0.274324,0.773369
28,40,-0.567232,-0.698132,-0.174533,-0.174533,-0.572973,-0.692506,-0.165389,-0.200312,1.1481,-0.315056,-0.274324,0.773369
28,40,-0.567232,-0.698132,-0.174533,-0.174533,-0.572973,-0.692506,-0.165389,-0.200312,1.1481,-0.315056,-0.274324,0.773369
28,40,-0.567232,-0.698132,-0.174533,-0.174533,-0.572973,-0.692506,-0.165389,-0.200312,1.1481,-0.315056,-0.274324,0.773369
28,40,-0.567232,-0.698132,-0.174533,-0.174533,-0.572973,-0.692506,-0.165389,-0.200312,1.1481,-0.315056,-0.274324,0.773369
28,40,-0.567232,-0.698132,-0.174533,-0.174533,-0.572973,-0.692506,-0.165389,-0.200312,1.1481,-0.315056,-0.274324,0.773369
28,40,-0.567232,-0.698132,-0.174533,-0.174533,-0.572973,-0.692506,-0.165389,-0.200312,1.1481,-0.315056,-0.274324,0.773369
28,40,-0.567232,-0.698132,-0.174533,-0.174533,-0.572973,-0.692506,-0.165389,-0.200312,1.1481,-0.315056,-0.274324,0.773369
28,40,-0.567232,-0.698132,-0.174533,-0.174533,-0.572973,-0.692506,-0.165389,-0.200312,1.1481,-0.315056,-0.274324,0.773369
28,40,-0.567232,-0.698132,-0.174533,-0.174533,-0.572973,-0.692506,-0.165389,-0.200312,1.1481,-0.315056,-0.274324,0.773369
28,40,-0.567232,-0.698132,-0.174533,-0.174533,-0.572973,-0.692506,-0.165389,-0.200312,1.1481,-0.315056,-0.274324,0.773369
28,40,-0.567232,-0.698132,-0.174533,-0.174533,-0.572973,-0.692506,-0.165389,-0.200312,1.1481,-0.315056,-0.274324,0.773369
28,40,-0.567232,-0.698132,-0.174533,-0.174533,-0.572973,-0.692506,-0.165456,-0.200355,1.1481,-0.315056,-0.272299,0.774653
28,40,-0.567232,-0.698132,-0.174533,-0.174533,-0.572973,-0.692506,-0.165456,-0.200355,1.1481,-0.315056,-0.272299,0.774653
28,40,-0.567232,-0.698132,-0.174533,-0.174533,-0.572973,-0.692506,-0.165456,-0.200355,1.1481,-0.315056,-0.272299,0.774653
28,40,-0.567232,-0.698132,-0.174533,-0.174533,-0.572973,-0.692506,-0.165456,-0.200355,1.1481,-0.315056,-0.272299,0.774653
28,40,-0.567232,-0.698132,-0.174533,-0.174533,-0.572973,-0.692506,-0.165456,-0.200355,1.1481,-0.315056,-0.272299,0.774653
28,40,-0.567232,-0.698132,-0.174533,-0.174533,-0.572973,-0.692506,-0.165456,-0.200355,1.1481,-0.315056,-0.272299,0.774653
28,40,-0.567232,-0.698132,-0.174533,-0.174533,-0.572973,-0.692506,-0.165456,-0.200355,1.1481,-0.315056,-0.272299,0.774653
28,40,-0.567232,-0.698132,-0.174533,-0.174533,-0.572973,-0.692506,-0.165456,-0.200355,1.1481,-0.315056,-0.272299,0.774653
28,40,-0.567232,-0.698132,-0.174533,-0.174533,-0.572973,-0.692506,-0.165456,-0.200355,1.1481,-0.315056,-0.272299,0.774653
28,40,-0.567232,-0.698132,-0.174533,-0.174533,-0.572973,-0.692506,-0.165456,-0.200355,1.1481,-0.315056,-0.272299,0.774653
28,40,-0.567232,-0.698132,-0.174533,-0.174533,-0.572973,-0.692506,-0.165453,-0.200295,1.1481,-0.315056,-0.272397,0.772866
28,40,-0.567232,-0.698132,-0.174533,-0.174533,-0.572973,-0.692506,-0.165453,-0.200295,1.1481,-0.315056,-0.272397,0.772866
28,40,-0.567232,-0.698132,-0.174533,-0.174533,-0.572973,-0.692506,-0.165453,-0.200295,1.1481,-0.315056,-0.272397,0.772866
28,40,-0.567232,-0.698132,-0.174533,-0.174533,-0.572973,-0.692506,-0.165453,-0.200295,1.1481,-0.315056,-0.272397,0.772866
28,40,-0.567232,-0.698132,-0.174533,-0.174533,-0.572973,-0.692506,-0.165453,-0.200295,1.1481,-0.315056,-0.272397,0.772866
28,40,-0.567232,-0.698132,-0.174533,-0.174533,-0.572973,-0.692506,-0.165453,-0.200295,1.1481,-0.315056,-0.272397,0.772866
28,40,-0.567232,-0.698132,-0.174533,-0.174533,-0.572973,-0.692506,-0.165453,-0.200295,1.1481,-0.315056,-0.272397,0.772866
28,40,-0.567232,-0.698132,-0.174533,-0.174533,-0.572973,-0.692506,-0.165453,-0.200295,1.1481,-0.315056,-0.272397,0.772866
28,40,-0.567232,-0.698132,-0.174533,-0.174533,-0.572973,-0.692506,-0.165453,-0.200295,1.1481,-0.315056,-0.272397,0.772866
28,40,-0.567232,-0.698132,-0.174533,-0.174533,-0.572973,-0.692506,-0.165453,-0.200295,1.1481,-0.315056,-0.272397,0.772866
28,40,-0.567232,-0.698132,-0.174533,-0.174533,-0.572973,-0.692506,-0.165453,-0.200295,1.1481,-0.315056,-0.272397,0.772866
28,40,-0.567232,-0.698132,-0.174533,-0.174533,-0.572973,-0.692506,-0.165453,-0.200295,1.1481,-0.315056,-0.272397,0.772866
28,40,-0.567232,-0.698132,-0.174533,-0.174533,-0.572973,-0.692506,-0.165453,-0.200295,1.1481,-0.315056,-0.272397,0.772866
28,40,-0.567232,-0.698132,-0.174533,-0.174533,-0.572973,-0.692506,-0.165453,-0.200295,1.1481,-0.315056,-0.272397,0.772866
28,40,-0.567232,-0.698132,-0.174533,-0.174533,-0.572973,-0.692506,-0.165453,-0.200295,1.1481,-0.315056,-0.272397,0.772866
28,40,-0.567232,-0.698132,-0.174533,-0.174533,-0.572973,-0.692506,-0.165453,-0.200295,1.1481,-0.315056,-0.272397,0.772866
28,40,-0.567232,-0.698132,-0.174533,-0.174533,-0.572973,-0.692506,-0.165453,-0.200295,1.1481,-0.315056,-0.272397,0.772866
28,40,-0.567232,-0.698132,-0.174533,-0.174533,-0.572973,-0.692506,-0.165453,-0.200295,1.1481,-0.315056,-0.272397,0.772866
28,40,-0.567232,-0.698132,-0.174533,-0.174533,-0.572973,-0.692506,-0.165521,-0.200338,1.1481,-0.315056,-0.270372,0.77415
28,40,-0.567232,-0.698132,-0.174533,-0.174533,-0.572973,-0.692506,-0.165521,-0.200338,1.1481,-0.315056,-0.270372,0.77415
28,40,-0.567232,-0.698132,-0.174533,-0.174533,-0.572973,-0.692506,-0.165521,-0.200338,1.1481,-0.315056,-0.270372,0.77415
28,40,-0.567232,-0.698132,-0.174533,-0.174533,-0.572973,-0.692506,-0.165521,-0.200338,1.1481,-0.315056,-0.270372,0.77415
28,40,-0.567232,-0.698132,-0.174533,-0.174533,-0.572973,-0.692506,-0.165521,-0.200338,1.1481,-0.315056,-0.270372,0.77415
28,40,-0.567232,-0.698132,-0.174533,-0.174533,-0.572973,-0.692506,-0.165521,-0.200338,1.1481,-0.315056,-0.270372,0.77415
28,40,-0.567232,-0.698132,-0.174533,-0.174533,-0.572973,-0.692506,-0.165521,-0.200338,1.1481,-0.315056,-0.270372,0.77415
28,40,-0.567232,-0.698132,-0.174533,-0.174533,-0.572973,-0.692506,-0.165521,-0.200338,1.1481,-0.315056,-0.270372,0.77415
28,40,-0.567232,-0.698132,-0.174533,-0.174533,-0.572973,-0.692506,-0.165521,-0.200338,1.1481,-0.315056,-0.270372,0.77415
28,40,-0.567232,-0.698132,-0.174533,-0.174533,-0.572973,-0.692506,-0.165521,-0.200338,1.1481,-0.315056,-0.270372,0.77415
28,40,-0.567232,-0.698132,-0.174533,-0.174533,-0.572973,-0.692506,-0.165521,-0.200338,1.1481,-0.315056,-0.270372,0.77415
28,40,-0.567232,-0.698132,-0.174533,-0.174533,-0.572973,-0.692506,-0.165521,-0.200338,1.1481,-0.315056,-0.270372,0.77415
28,40,-0.567232,-0.698132,-0.174533,-0.174533,-0.572973,-0.692506,-0.165521,-0.200338,1.1481,-0.315056,-0.270372,0.77415
28,40,-0.567232,-0.698132,-0.174533,-0.174533,-0.572973,-0.692506,-0.165521,-0.200338,1.1481,-0.315056,-0.270372,0.77415
28,40,-0.567232,-0.698132,-0.174533,-0.174533,-0.572973,-0.692506,-0.165521,-0.200338,1.1481,-0.315056,-0.270372,0.77415
28,40,-0.567232,-0.698132,-0.174533,-0.174533,-0.572973,-0.692506,-0.165521,-0.200338,1.1481,-0.315056,-0.270372,0.77415
28,40,-0.567232,-0.698132,-0.174533,-0.174533,-0.572973,-0.692506,-0.165521,-0.200338,1.1481,-0.315056,-0.270372,0.77415
28,40,-0.567232,-0.698132,-0.174533,-0.174533,-0.572973,-0.692506,-0.165521,-0.200338,1.1481,-0.315056,-0.270372,0.77415
28,40,-0.567232,-0.698132,-0.174533,-0.174533,-0.572973,-0.692506,-0.165521,-0.200338,1.1481,-0.315056,-0.270372,0.77415
28,40,-0.567232,-0.698132,-0.174533,-0.174533,-0.572973,-0.692506,-0.165521,-0.200338,1.1481,-0.315056,-0.270372,0.77415
28,40,-0.567232,-0.698132,-0.174533,-0.174533,-0.572973,-0.692506,-0.165521,-0.200338,1.1481,-0.315056,-0.270372,0.77415
28,40,-0.567232,-0.698132,-0.174533,-0.174533,-0.572973,-0.692506,-0.165521,-0.200338,1.1481,-0.315056,-0.270372,0.77415
28,40,-0.567232,-0.698132,-0.174533,-0.174533,-0.572973,-0.692506,-0.165459,-0.200357,1.1481,-0.315056,-0.272208,0.774718
28,40,-0.567232,-0.698132,-0.174533,-0.174533,-0.572973,-0.692506,-0.165459,-0.200357,1.1481,-0.315056,-0.272208,0.774718
28,40,-0.567232,-0.698132,-0.174533,-0.174533,-0.572973,-0.692506,-0.165459,-0.200357,1.1481,-0.315056,-0.272208,0.774718
28,40,-0.567232,-0.698132,-0.174533,-0.174533,-0.572973,-0.692506,-0.165459,-0.200357,1.1481,-0.315056,-0.272208,0.774718
28,40,-0.567232,-0.698132,-0.174533,-0.174533,-0.572973,-0.692506,-0.165459,-0.200357,1.1481,-0.315056,-0.272208,0.774718
28,40,-0.567232,-0.698132,-0.174533,-0.174533,-0.572973,-0.692506,-0.165459,-0.200357,1.1481,-0.315056,-0.272208,0.774718
28,40,-0.567232,-0.698132,-0.174533,-0.174533,-0.572973,-0.692506,-0.165459,-0.200357,1.1481,-0.315056,-0.272208,0.774718
28,40,-0.567232,-0.698132,-0.174533,-0.174533,-0.572973,-0.692506,-0.165459,-0.200357,1.1481,-0.315056,-0.272208,0.774718
28,40,-0.567232,-0.698132,-0.174533,-0.174533,-0.572973,-0.692506,-0.165459,-0.200357,1.1481,-0.315056,-0.272208,0.774718
28,40,-0.567232,-0.698132,-0.174533,-0.174533,-0.572973,-0.692506,-0.165459,-0.200357,1.1481,-0.315056,-0.272208,0.774718
28,40,-0.567232,-0.698132,-0.174533,-0.174533,-0.572973,-0.692506,-0.165459,-0.200357,1.1481,-0.315056,-0.272208,0.774718
28,40,-0.567232,-0.698132,-0.174533,-0.174533,-0.572973,-0.692506,-0.165459,-0.200357,1.1481,-0.315056,-0.272208,0.774718
28,40,-0.567232,-0.698132,-0.174533,-0.174533,-0.572973,-0.692506,-0.165459,-0.200357,1.1481,-0.315056,-0.272208,0.774718
28,40,-0.567232,-0.698132,-0.174533,-0.174533,-0.572973,-0.692506,-0.165459,-0.200357,1.1481,-0.315056,-0.272208,0.774718
28,40,-0.567232,-0.698132,-0.174533,-0.174533,-0.572973,-0.692506,-0.165459,-0.200357,1.1481,-0.315056,-0.272208,0.774718
28,40,-0.567232,-0.698132,-0.174533,-0.174533,-0.572973,-0.692506,-0.165459,-0.200357,1.1481,-0.315056,-0.272208,0.774718
28,40,-0.567232,-0.698132,-0.174533,-0.174533,-0.572973,-0.692506,-0.165459,-0.200357,1.1481,-0.315056,-0.272208,0.774718
28,40,-0.567232,-0.698132,-0.174533,-0.174533,-0.572973,-0.692506,-0.165459,-0.200357,1.1481,-0.315056,-0.272208,0.774718
28,40,-0.567232,-0.698132,-0.174533,-0.174533,-0.572973,-0.692506,-0.165459,-0.200357,1.1481,-0.315056,-0.272208,0.774718
28,40,-0.567232,-0.698132,-0.174533,-0.174533,-0.572973,-0.692506,-0.165456,-0.200297,1.1481,-0.315056,-0.272306,0.772932
28,40,-0.567232,-0.698132,-0.174533,-0.174533,-0.572973,-0.692506,-0.165456,-0.200297,1.1481,-0.315056,-0.272306,0.772932
28,40,-0.567232,-0.698132,-0.174533,-0.174533,-0.572973,-0.692506,-0.165456,-0.200297,1.1481,-0.315056,-0.272306,0.772932
28,40,-0.567232,-0.698132,-0.174533,-0.174533,-0.572973,-0.692506,-0.165456,-0.200297,1.1481,-0.315056,-0.272306,0.772932
28,40,-0.567232,-0.698132,-0.174533,-0.174533,-0.572973,-0.692506,-0.165456,-0.200297,1.1481,-0.315056,-0.272306,0.772932
28,40,-0.567232,-0.698132,-0.174533,-0.174533,-0.572973,-0.692506,-0.165524,-0.20034,1.1481,-0.315056,-0.270281,0.774215
28,40,-0.567232,-0.698132,-0.174533,-0.174533,-0.572973,-0.692506,-0.165524,-0.20034,1.1481,-0.315056,-0.270281,0.774215
28,40,-0.567232,-0.698132,-0.174533,-0.174533,-0.572973,-0.692506,-0.165524,-0.20034,1.1481,-0.315056,-0.270281,0.774215
28,40,-0.567232,-0.698132,-0.174533,-0.174533,-0.572973,-0.692506,-0.165524,-0.20034,1.1481,-0.315056,-0.270281,0.774215
28,40,-0.567232,-0.698132,-0.174533,-0.174533,-0.572973,-0.692506,-0.165524,-0.20034,1.1481,-0.315056,-0.270281,0.774215
28,40,-0.567232,-0.698132,-0.174533,-0.174533,-0.572973,-0.692506,-0.165524,-0.20034,1.1481,-0.315056,-0.270281,0.774215
28,40,-0.567232,-0.698132,-0.174533,-0.174533,-0.572973,-0.692506,-0.165524,-0.20034,1.1481,-0.315056,-0.270281,0.774215
28,40,-0.567232,-0.698132,-0.174533,-0.174533,-0.572973,-0.692506,-0.165524,-0.20034,1.1481,-0.315056,-0.270281,0.774215
28,40,-0.567232,-0.698132,-0.174533,-0.174533,-0.572973,-0.692506,-0.165524,-0.20034,1.1481,-0.315056,-0.270281,0.774215
28,40,-0.567232,-0.698132,-0.174533,-0.174533,-0.572973,-0.692506,-0.165524,-0.20034,1.1481,-0.315056,-0.270281,0.774215
28,40,-0.567232,-0.698132,-0.174533,-0.174533,-0.572973,-0.692506,-0.16552,-0.200281,1.1481,-0.315056,-0.270379,0.772429
28,40,-0.567232,-0.698132,-0.174533,-0.174533,-0.572973,-0.692506,-0.16552,-0.200281,1.1481,-0.315056,-0.270379,0.772429
