stim_pw [us],stim_amp [mA],com_elbow_fe [rad],com_forearm_ps [rad],com_wrist_fe [rad],com_wrist_ru [rad],act_elbow_fe [rad],act_forearm_ps [rad],act_wrist_fe [rad],act_wrist_ru [rad],elbow_fe_trq [Nm],forearm_ps_trq [Nm],wrist_fe_trq [Nm],wrist_ru_trq [Nm]
28,40,-0.567232,-0.698132,-0.174533,-0.174533,-0.572257,-0.690726,-0.162377,-0.200652,1.00493,-0.414705,-0.364792,0.783783
28,40,-0.567232,-0.698132,-0.174533,-0.174533,-0.572257,-0.690726,-0.162377,-0.200652,1.00493,-0.414705,-0.364792,0.783783
28,40,-0.567232,-0.698132,-0.174533,-0.174533,-0.572257,-0.690726,-0.162377,-0.200652,1.00493,-0.414705,-0.364792,0.783783
28,40,-0.567232,-0.698132,-0.174533,-0.174533,-0.572257,-0.690726,-0.162377,-0.200652,1.00493,-0.414705,-0.364792,0.783783
28,40,-0.567232,-0.698132,-0.174533,-0.174533,-0.572257,-0.690726,-0.162377,-0.200652,1.00493,-0.414705,-0.364792,0.783783
28,40,-0.567232,-0.698132,-0.174533,-0.174533,-0.572257,-0.690726,-0.162377,-0.200652,1.00493,-0.414705,-0.364792,0.783783
28,40,-0.567232,-0.698132,-0.174533,-0.174533,-0.572257,-0.690726,-0.162377,-0.200652,1.00493,-0.414705,-0.364792,0.783783
28,40,-0.567232,-0.698132,-0.174533,-0.174533,-0.572257,-0.690726,-0.162377,-0.200652,1.00493,-0.414705,-0.364792,0.783783
28,40,-0.567232,-0.698132,-0.174533,-0.174533,-0.572257,-0.690726,-0.162377,-0.200652,1.00493,-0.414705,-0.364792,0.783783
28,40,-0.567232,-0.698132,-0.174533,-0.174533,-0.572257,-0.690726,-0.162377,-0.200652,1.00493,-0.414705,-0.364792,0.783783
28,40,-0.567232,-0.698132,-0.174533,-0.174533,-0.572257,-0.690726,-0.162444,-0.200695,1.00493,-0.414705,-0.362827,0.785028
28,40,-0.567232,-0.698132,-0.174533,-0.174533,-0.572257,-0.690726,-0.162444,-0.200695,1.00493,-0.414705,-0.362827,0.785028
28,40,-0.567232,-0.698132,-0.174533,-0.174533,-0.572257,-0.690726,-0.162444,-0.200695,1.00493,-0.414705,-0.362827,0.785028
28,40,-0.567232,-0.698132,-0.174533,-0.174533,-0.572257,-0.690726,-0.162383,-0.200714,1.00493,-0.414705,-0.364541,0.785563
28,40,-0.567232,-0.698132,-0.174533,-0.174533,-0.572257,-0.690726,-0.16238,-0.200654,1.00493,-0.414705,-0.364632,0.78378
28,40,-0.567232,-0.698132,-0.174533,-0.174533,-0.572257,-0.690726,-0.16238,-0.200654,1.00493,-0.414705,-0.364632,0.78378
28,40,-0.567232,-0.698132,-0.174533,-0.174533,-0.572257,-0.690726,-0.16238,-0.200654,1.00493,-0.414705,-0.364632,0.78378
28,40,-0.567232,-0.698132,-0.174533,-0.174533,-0.572257,-0.690726,-0.16238,-0.200654,1.00493,-0.414705,-0.364632,0.78378
28,40,-0.567232,-0.698132,-0.174533,-0.174533,-0.572257,-0.690726,-0.16238,-0.200654,1.00493,-0.414705,-0.364632,0.78378
28,40,-0.567232,-0.698132,-0.174533,-0.174533,-0.572257,-0.690726,-0.162377,-0.200595,1.00493,-0.414705,-0.364723,0.781998
28,40,-0.567232,-0.698132,-0.174533,-0.174533,-0.572257,-0.690726,-0.162377,-0.200595,1.00493,-0.414705,-0.364723,0.781998
28,40,-0.567232,-0.698132,-0.174533,-0.174533,-0.572257,-0.690726,-0.162377,-0.200595,1.00493,-0.414705,-0.364723,0.781998
28,40,-0.567232,-0.698132,-0.174533,-0.174533,-0.572257,-0.690726,-0.162377,-0.200595,1.00493,-0.414705,-0.364723,0.781998
28,40,-0.567232,-0.698132,-0.174533,-0.174533,-0.572257,-0.690726,-0.162377,-0.200595,1.00493,-0.414705,-0.364723,0.781998
28,40,-0.567232,-0.698132,-0.174533,-0.174533,-0.572257,-0.690726,-0.162377,-0.200595,1.00493,-0.414705,-0.364723,0.781998
28,40,-0.567232,-0.698132,-0.174533,-0.174533,-0.572257,-0.690726,-0.162374,-0.200535,1.00493,-0.414705,-0.364814,0.780215
28,40,-0.567232,-0.698132,-0.174533,-0.174533,-0.572257,-0.690726,-0.162374,-0.200535,1.00493,-0.414705,-0.364814,0.780215
28,40,-0.567232,-0.698132,-0.174533,-0.174533,-0.572257,-0.690726,-0.162374,-0.200535,1.00493,-0.414705,-0.364814,0.780215
28,40,-0.567232,-0.698132,-0.174533,-0.174533,-0.572257,-0.690726,-0.162374,-0.200535,1.00493,-0.414705,-0.364814,0.780215
28,40,-0.567232,-0.698132,-0.174533,-0.174533,-0.572257,-0.690726,-0.162371,-0.200476,1.00493,-0.414705,-0.364909,0.778351
28,40,-0.567232,-0.698132,-0.174533,-0.174533,-0.572257,-0.690726,-0.162371,-0.200476,1.00493,-0.414705,-0.364909,0.778351
28,40,-0.567232,-0.698132,-0.174533,-0.174533,-0.572257,-0.690726,-0.162371,-0.200476,1.00493,-0.414705,-0.364909,0.778351
28,40,-0.567232,-0.698132,-0.174533,-0.174533,-0.572257,-0.690726,-0.162371,-0.200476,1.00493,-0.414705,-0.364909,0.778351
28,40,-0.567232,-0.698132,-0.174533,-0.174533,-0.572257,-0.690726,-0.162371,-0.200476,1.00493,-0.414705,-0.364909,0.778351
28,40,-0.567232,-0.698132,-0.174533,-0.174533,-0.572257,-0.690726,-0.162368,-0.200417,1.00493,-0.414705,-0.365007,0.776422
28,40,-0.567232,-0.698132,-0.174533,-0.174533,-0.572257,-0.690726,-0.162435,-0.200459,1.00493,-0.414705,-0.363035,0.777671
28,40,-0.567232,-0.698132,-0.174533,-0.174533,-0.572257,-0.690726,-0.162435,-0.200459,1.00493,-0.414705,-0.363035,0.777671
28,40,-0.567232,-0.698132,-0.174533,-0.174533,-0.572257,-0.690726,-0.162435,-0.200459,1.00493,-0.414705,-0.363035,0.777671
28,40,-0.567232,-0.698132,-0.174533,-0.174533,-0.572257,-0.690726,-0.162435,-0.200459,1.00493,-0.414705,-0.363035,0.777671
28,40,-0.567232,-0.698132,-0.174533,-0.174533,-0.572257,-0.690726,-0.162435,-0.200459,1.00493,-0.414705,-0.363035,0.777671
28,40,-0.567232,-0.698132,-0.174533,-0.174533,-0.572257,-0.690726,-0.162435,-0.200459,1.00493,-0.414705,-0.363035,0.777671
28,40,-0.567232,-0.698132,-0.174533,-0.174533,-0.572257,-0.690726,-0.162435,-0.200459,1.00493,-0.414705,-0.363031,0.77767
28,40,-0.567232,-0.698132,-0.174533,-0.174533,-0.572257,-0.690726,-0.162435,-0.200459,1.00493,-0.414705,-0.363025,0.777668
28,40,-0.567232,-0.698132,-0.174533,-0.174533,-0.572257,-0.690726,-0.162435,-0.200459,1.00493,-0.414705,-0.36302,0.777666
28,40,-0.567232,-0.698132,-0.174533,-0.174533,-0.572257,-0.690726,-0.162432,-0.2004,1.00493,-0.414705,-0.363104,0.775921
28,40,-0.567232,-0.698132,-0.174533,-0.174533,-0.572257,-0.690726,-0.162432,-0.2004,1.00493,-0.414705,-0.363099,0.775919
28,40,-0.567232,-0.698132,-0.174533,-0.174533,-0.572257,-0.690726,-0.162432,-0.2004,1.00493,-0.414705,-0.363095,0.775918
28,40,-0.567232,-0.698132,-0.174533,-0.174533,-0.572257,-0.690726,-0.162432,-0.2004,1.00493,-0.414705,-0.363091,0.775917
28,40,-0.567232,-0.698132,-0.174533,-0.174533,-0.572257,-0.690726,-0.162432,-0.2004,1.00493,-0.414705,-0.363087,0.775915
28,40,-0.567232,-0.698132,-0.174533,-0.174533,-0.572257,-0.690726,-0.162432,-0.2004,1.00493,-0.414705,-0.363083,0.775914
28,40,-0.567232,-0.698132,-0.174533,-0.174533,-0.572257,-0.690726,-0.162432,-0.2004,1.00493,-0.414705,-0.36308,0.775913
28,40,-0.567232,-0.698132,-0.174533,-0.174533,-0.572257,-0.690726,-0.16237,-0.200419,1.00493,-0.414705,-0.36486,0.776469
28,40,-0.567232,-0.698132,-0.174533,-0.174533,-0.572257,-0.690726,-0.16237,-0.200419,1.00493,-0.414705,-0.36486,0.776469
28,40,-0.567232,-0.698132,-0.174533,-0.174533,-0.572257,-0.690726,-0.16237,-0.200419,1.00493,-0.414705,-0.36486,0.776469
28,40,-0.567232,-0.698132,-0.174533,-0.174533,-0.572257,-0.690726,-0.16237,-0.200419,1.00493,-0.414705,-0.36486,0.776469
28,40,-0.567232,-0.698132,-0.174533,-0.174533,-0.572257,-0.690726,-0.162367,-0.200359,1.00493,-0.414705,-0.36495,0.774721
28,40,-0.567232,-0.698132,-0.174533,-0.174533,-0.572257,-0.690726,-0.162434,-0.200402,1.00493,-0.414705,-0.362965,0.775979
28,40,-0.567232,-0.698132,-0.174533,-0.174533,-0.572257,-0.690726,-0.162434,-0.200402,1.00493,-0.414705,-0.362965,0.775979
28,40,-0.567232,-0.698132,-0.174533,-0.174533,-0.572257,-0.690726,-0.162434,-0.200402,1.00493,-0.414705,-0.362965,0.775979
28,40,-0.567232,-0.698132,-0.174533,-0.174533,-0.572257,-0.690726,-0.162434,-0.200402,1.00493,-0.414705,-0.362965,0.775979
28,40,-0.567232,-0.698132,-0.174533,-0.174533,-0.572257,-0.690777,-0.162434,-0.200402,1.00493,-0.411858,-0.362965,0.775979
28,40,-0.567232,-0.698132,-0.174533,-0.174533,-0.572257,-0.690777,-0.162434,-0.200402,1.00493,-0.411858,-0.362965,0.775979
28,40,-0.567232,-0.698132,-0.174533,-0.174533,-0.572257,-0.690777,-0.162434,-0.200402,1.00493,-0.411858,-0.362965,0.775979
28,40,-0.567232,-0.698132,-0.174533,-0.174533,-0.572257,-0.690777,-0.162434,-0.200402,1.00493,-0.411858,-0.362965,0.775979
28,40,-0.567232,-0.698132,-0.174533,-0.174533,-0.572257,-0.690777,-0.162434,-0.200402,1.00493,-0.411858,-0.362965,0.775979
28,40,-0.567232,-0.698132,-0.174533,-0.174533,-0.572257,-0.690777,-0.162434,-0.200402,1.00493,-0.411858,-0.362965,0.775979
28,40,-0.567232,-0.698132,-0.174533,-0.174533,-0.572257,-0.690777,-0.162434,-0.200402,1.00493,-0.411858,-0.362965,0.775979
28,40,-0.567232,-0.698132,-0.174533,-0.174533,-0.572257,-0.690777,-0.162434,-0.200402,1.00493,-0.411858,-0.362965,0.775979
28,40,-0.567232,-0.698132,-0.174533,-0.174533,-0.572257,-0.690777,-0.162431,-0.200342,1.00493,-0.411858,-0.363054,0.774229
28,40,-0.567232,-0.698132,-0.174533,-0.174533,-0.572257,-0.690777,-0.162498,-0.200385,1.00493,-0.411858,-0.36105,0.775499
28,40,-0.567232,-0.698132,-0.174533,-0.174533,-0.572257,-0.690777,-0.162498,-0.200385,1.00493,-0.411858,-0.36105,0.775499
28,40,-0.567232,-0.698132,-0.174533,-0.174533,-0.572257,-0.690777,-0.162498,-0.200385,1.00493,-0.411858,-0.36105,0.775499
28,40,-0.567232,-0.698132,-0.174533,-0.174533,-0.572257,-0.690777,-0.162498,-0.200385,1.00493,-0.411858,-0.36105,0.775499
28,40,-0.567232,-0.698132,-0.174533,-0.174533,-0.572257,-0.690777,-0.162498,-0.200385,1.00493,-0.411858,-0.36105,0.775499
28,40,-0.567232,-0.698132,-0.174533,-0.174533,-0.572257,-0.690777,-0.162498,-0.200385,1.00493,-0.411858,-0.36105,0.775499
28,40,-0.567232,-0.698132,-0.174533,-0.174533,-0.572257,-0.690777,-0.162498,-0.200385,1.00493,-0.411858,-0.36105,0.775499
28,40,-0.567232,-0.698132,-0.174533,-0.174533,-0.572257,-0.690777,-0.162498,-0.200385,1.00493,-0.411858,-0.36105,0.775499
28,40,-0.567232,-0.698132,-0.174533,-0.174533,-0.572257,-0.690777,-0.162498,-0.200385,1.00493,-0.411858,-0.36105,0.775499
28,40,-0.567232,-0.698132,-0.174533,-0.174533,-0.572257,-0.690777,-0.162498,-0.200385,1.00493,-0.411858,-0.36105,0.775499
28,40,-0.567232,-0.698132,-0.174533,-0.174533,-0.572257,-0.690777,-0.162498,-0.200385,1.00493,-0.411858,-0.36105,0.775499
28,40,-0.567232,-0.698132,-0.174533,-0.174533,-0.572257,-0.690777,-0.162498,-0.200385,1.00493,-0.411858,-0.36105,0.775499
28,40,-0.567232,-0.698132,-0.174533,-0.174533,-0.572257,-0.690777,-0.162498,-0.200385,1.00493,-0.411858,-0.36105,0.775499
28,40,-0.567232,-0.698132,-0.174533,-0.174533,-0.572257,-0.690777,-0.162498,-0.200385,1.00493,-0.411858,-0.36105,0.775499
28,40,-0.567232,-0.698132,-0.174533,-0.174533,-0.572257,-0.690777,-0.162498,-0.200385,1.00493,-0.411858,-0.36105,0.775499
28,40,-0.567232,-0.698132,-0.174533,-0.174533,-0.572257,-0.690777,-0.162498,-0.200385,1.00493,-0.411858,-0.36105,0.775499
28,40,-0.567232,-0.698132,-0.174533,-0.174533,-0.572257,-0.690777,-0.162498,-0.200385,1.00493,-0.411858,-0.36105,0.775499
28,40,-0.567232,-0.698132,-0.174533,-0.174533,-0.572257,-0.690777,-0.162437,-0.200404,1.00493,-0.411858,-0.362803,0.776046
28,40,-0.567232,-0.698132,-0.174533,-0.174533,-0.572257,-0.690777,-0.162437,-0.200404,1.00493,-0.411858,-0.362803,0.776046
28,40,-0.567232,-0.698132,-0.174533,-0.174533,-0.572257,-0.690777,-0.162437,-0.200404,1.00493,-0.411858,-0.362803,0.776046
28,40,-0.567232,-0.698132,-0.174533,-0.174533,-0.572257,-0.690777,-0.162437,-0.200404,1.00493,-0.411858,-0.362803,0.776046
28,40,-0.567232,-0.698132,-0.174533,-0.174533,-0.572257,-0.690777,-0.162504,-0.200446,1.00493,-0.411858,-0.360798,0.777317
28,40,-0.567232,-0.698132,-0.174533,-0.174533,-0.572257,-0.690777,-0.162504,-0.200446,1.00493,-0.411858,-0.360798,0.777317
28,40,-0.567232,-0.698132,-0.174533,-0.174533,-0.572257,-0.690777,-0.162504,-0.200446,1.00493,-0.411858,-0.360798,0.777317
28,40,-0.567232,-0.698132,-0.174533,-0.174533,-0.572257,-0.690777,-0.162504,-0.200446,1.00493,-0.411858,-0.360798,0.777317
28,40,-0.567232,-0.698132,-0.174533,-0.174533,-0.572257,-0.690777,-0.162504,-0.200446,1.00493,-0.411858,-0.360798,0.777317
28,40,-0.567232,-0.698132,-0.174533,-0.174533,-0.572257,-0.690777,-0.162504,-0.200446,1.00493,-0.411858,-0.360798,0.777317
28,40,-0.567232,-0.698132,-0.174533,-0.174533,-0.572257,-0.690777,-0.162504,-0.200446,1.00493,-0.411858,-0.360798,0.777317
28,40,-0.567232,-0.698132,-0.174533,-0.174533,-0.572257,-0.690777,-0.162504,-0.200446,1.00493,-0.411858,-0.360798,0.777317
28,40,-0.567232,-0.698132,-0.174533,-0.174533,-0.572257,-0.690777,-0.162504,-0.200446,1.00493,-0.411858,-0.360798,0.777317
28,40,-0.567232,-0.698132,-0.174533,-0.174533,-0.572257,-0.690777,-0.162501,-0.200387,1.00493,-0.411858,-0.360887,0.775584
28,40,-0.567232,-0.698132,-0.174533,-0.174533,-0.572257,-0.690777,-0.162501,-0.200387,1.00493,-0.411858,-0.360887,0.775584
28,40,-0.567232,-0.698132,-0.174533,-0.174533,-0.572257,-0.690777,-0.162501,-0.200387,1.00493,-0.411858,-0.360887,0.775584
28,40,-0.567232,-0.698132,-0.174533,-0.174533,-0.572257,-0.690777,-0.162501,-0.200387,1.00493,-0.411858,-0.360887,0.775584
28,40,-0.567232,-0.698132,-0.174533,-0.174533,-0.572257,-0.690777,-0.16244,-0.200406,1.00493,-0.411858,-0.362718,0.776156
28,40,-0.567232,-0.698132,-0.174533,-0.174533,-0.572257,-0.690777,-0.16244,-0.200406,1.00493,-0.411858,-0.362718,0.776156
28,40,-0.567232,-0.698132,-0.174533,-0.174533,-0.572257,-0.690777,-0.16244,-0.200406,1.00493,-0.411858,-0.362718,0.776156
28,40,-0.567232,-0.698132,-0.174533,-0.174533,-0.572257,-0.690777,-0.16244,-0.200406,1.00493,-0.411858,-0.362718,0.776156
28,40,-0.567232,-0.698132,-0.174533,-0.174533,-0.572257,-0.690777,-0.16244,-0.200406,1.00493,-0.411858,-0.362718,0.776156
28,40,-0.567232,-0.698132,-0.174533,-0.174533,-0.572257,-0.690777,-0.16244,-0.200406,1.00493,-0.411858,-0.362718,0.776156
28,40,-0.567232,-0.698132,-0.174533,-0.174533,-0.572257,-0.690777,-0.16244,-0.200406,1.00493,-0.411858,-0.362718,0.776156
28,40,-0.567232,-0.698132,-0.174533,-0.174533,-0.572257,-0.690777,-0.16244,-0.200406,1.00493,-0.411858,-0.362718,0.776156
28,40,-0.567232,-0.698132,-0.174533,-0.174533,-0.572257,-0.690777,-0.16244,-0.200406,1.00493,-0.411858,-0.362718,0.776156
28,40,-0.567232,-0.698132,-0.174533,-0.174533,-0.572257,-0.690777,-0.16244,-0.200406,1.00493,-0.411858,-0.362718,0.776156
28,40,-0.567232,-0.698132,-0.174533,-0.174533,-0.572257,-0.690777,-0.16244,-0.200406,1.00493,-0.411858,-0.362718,0.776156
28,40,-0.567232,-0.698132,-0.174533,-0.174533,-0.572257,-0.690777,-0.162379,-0.200425,1.00493,-0.411858,-0.36455,0.776728
28,40,-0.567232,-0.698132,-0.174533,-0.174533,-0.572257,-0.690777,-0.162379,-0.200425,1.00493,-0.411858,-0.36455,0.776728
28,40,-0.567232,-0.698132,-0.174533,-0.174533,-0.572257,-0.690777,-0.162379,-0.200425,1.00493,-0.411858,-0.36455,0.776728
28,40,-0.567232,-0.698132,-0.174533,-0.174533,-0.572257,-0.690777,-0.162379,-0.200425,1.00493,-0.411858,-0.36455,0.776728
28,40,-0.567232,-0.698132,-0.174533,-0.174533,-0.572257,-0.690777,-0.162379,-0.200425,1.00493,-0.411858,-0.36455,0.776728
28,40,-0.567232,-0.698132,-0.174533,-0.174533,-0.572257,-0.690777,-0.162379,-0.200425,1.00493,-0.411858,-0.36455,0.776728
28,40,-0.567232,-0.698132,-0.174533,-0.174533,-0.572257,-0.690777,-0.162379,-0.200425,1.00493,-0.411858,-0.36455,0.776728
28,40,-0.567232,-0.698132,-0.174533,-0.174533,-0.572257,-0.690777,-0.162379,-0.200425,1.00493,-0.411858,-0.36455,0.776728
28,40,-0.567232,-0.698132,-0.174533,-0.174533,-0.572257,-0.690777,-0.162379,-0.200425,1.00493,-0.411858,-0.36455,0.776728
28,40,-0.567232,-0.698132,-0.174533,-0.174533,-0.572257,-0.690777,-0.162379,-0.200425,1.00493,-0.411858,-0.36455,0.776728
28,40,-0.567232,-0.698132,-0.174533,-0.174533,-0.572257,-0.690777,-0.162379,-0.200425,1.00493,-0.411858,-0.36455,0.776728
28,40,-0.567232,-0.698132,-0.174533,-0.174533,-0.572257,-0.690777,-0.162379,-0.200425,1.00493,-0.411858,-0.36455,0.776728
28,40,-0.567232,-0.698132,-0.174533,-0.174533,-0.572257,-0.690777,-0.162379,-0.200425,1.00493,-0.411858,-0.36455,0.776728
28,40,-0.567232,-0.698132,-0.174533,-0.174533,-0.572257,-0.690777,-0.162379,-0.200425,1.00493,-0.411858,-0.36455,0.776728
28,40,-0.567232,-0.698132,-0.174533,-0.174533,-0.572257,-0.690777,-0.162379,-0.200425,1.00493,-0.411858,-0.36455,0.776728
28,40,-0.567232,-0.698132,-0.174533,-0.174533,-0.572257,-0.690777,-0.162379,-0.200425,1.00493,-0.411858,-0.36455,0.776728
28,40,-0.567232,-0.698132,-0.174533,-0.174533,-0.572257,-0.690777,-0.162379,-0.200425,1.00493,-0.411858,-0.36455,0.776728
28,40,-0.567232,-0.698132,-0.174533,-0.174533,-0.572257,-0.690777,-0.162379,-0.200425,1.00493,-0.411858,-0.36455,0.776728
28,40,-0.567232,-0.698132,-0.174533,-0.174533,-0.572257,-0.690777,-0.162379,-0.200425,1.00493,-0.411858,-0.36455,0.776728
28,40,-0.567232,-0.698132,-0.174533,-0.174533,-0.572257,-0.690777,-0.162379,-0.200425,1.00493,-0.411858,-0.36455,0.776728
28,40,-0.567232,-0.698132,-0.174533,-0.174533,-0.572257,-0.690777,-0.162379,-0.200425,1.00493,-0.411858,-0.36455,0.776728
28,40,-0.567232,-0.698132,-0.174533,-0.174533,-0.572257,-0.690777,-0.162318,-0.200444,1.00493,-0.411858,-0.366382,0.7773
28,40,-0.567232,-0.698132,-0.174533,-0.174533,-0.572257,-0.690777,-0.162318,-0.200444,1.00493,-0.411858,-0.366382,0.7773
28,40,-0.567232,-0.698132,-0.174533,-0.174533,-0.572257,-0.690777,-0.162318,-0.200444,1.00493,-0.411858,-0.366382,0.7773
28,40,-0.567232,-0.698132,-0.174533,-0.174533,-0.572257,-0.690777,-0.162315,-0.200385,1.00493,-0.411858,-0.366469,0.775591
28,40,-0.567232,-0.698132,-0.174533,-0.174533,-0.572257,-0.690777,-0.162315,-0.200385,1.00493,-0.411858,-0.366469,0.775591
28,40,-0.567232,-0.698132,-0.174533,-0.174533,-0.572257,-0.690777,-0.162315,-0.200385,1.00493,-0.411858,-0.366469,0.775591
28,40,-0.567232,-0.698132,-0.174533,-0.174533,-0.572257,-0.690777,-0.162315,-0.200385,1.00493,-0.411858,-0.366469,0.775591
28,40,-0.567232,-0.698132,-0.174533,-0.174533,-0.572257,-0.690777,-0.162315,-0.200385,1.00493,-0.411858,-0.366469,0.775591
28,40,-0.567232,-0.698132,-0.174533,-0.174533,-0.572257,-0.690777,-0.162315,-0.200385,1.00493,-0.411858,-0.366469,0.775591
28,40,-0.567232,-0.698132,-0.174533,-0.174533,-0.572257,-0.690777,-0.162315,-0.200385,1.00493,-0.411858,-0.366469,0.775591
28,40,-0.567232,-0.698132,-0.174533,-0.174533,-0.572257,-0.690777,-0.162315,-0.200385,1.00493,-0.411858,-0.366469,0.775591
28,40,-0.567232,-0.698132,-0.174533,-0.174533,-0.572257,-0.690777,-0.162315,-0.200385,1.00493,-0.411858,-0.366469,0.775591
28,40,-0.567232,-0.698132,-0.174533,-0.174533,-0.572257,-0.690777,-0.162315,-0.200385,1.00493,-0.411858,-0.366469,0.775591
28,40,-0.567232,-0.698132,-0.174533,-0.174533,-0.572257,-0.690777,-0.162315,-0.200385,1.00493,-0.411858,-0.366469,0.775591
28,40,-0.567232,-0.698132,-0.174533,-0.174533,-0.572257,-0.690777,-0.162315,-0.200385,1.00493,-0.411858,-0.366469,0.775591
28,40,-0.567232,-0.698132,-0.174533,-0.174533,-0.572257,-0.690777,-0.162315,-0.200385,1.00493,-0.411858,-0.366469,0.775591
28,40,-0.567232,-0.698132,-0.174533,-0.174533,-0.572257,-0.690777,-0.162315,-0.200385,1.00493,-0.411858,-0.366469,0.775591
28,40,-0.567232,-0.698132,-0.174533,-0.174533,-0.572257,-0.690777,-0.162315,-0.200385,1.00493,-0.411858,-0.366469,0.775591
28,40,-0.567232,-0.698132,-0.174533,-0.174533,-0.572257,-0.690777,-0.162315,-0.200385,1.00493,-0.411858,-0.366469,0.775591
28,40,-0.567232,-0.698132,-0.174533,-0.174533,-0.572257,-0.690777,-0.162382,-0.200427,1.00493,-0.411858,-0.364527,0.776821
28,40,-0.567232,-0.698132,-0.174533,-0.174533,-0.572257,-0.690777,-0.162382,-0.200427,1.00493,-0.411858,-0.364527,0.776821
28,40,-0.567232,-0.698132,-0.174533,-0.174533,-0.572257,-0.690777,-0.162382,-0.200427,1.00493,-0.411858,-0.364527,0.776821
28,40,-0.567232,-0.698132,-0.174533,-0.174533,-0.572257,-0.690777,-0.162382,-0.200427,1.00493,-0.411858,-0.364527,0.776821
28,40,-0.567232,-0.698132,-0.174533,-0.174533,-0.572257,-0.690777,-0.162382,-0.200427,1.00493,-0.411858,-0.364527,0.776821
28,40,-0.567232,-0.698132,-0.174533,-0.174533,-0.572257,-0.690777,-0.162382,-0.200427,1.00493,-0.411858,-0.364527,0.776821
28,40,-0.567232,-0.698132,-0.174533,-0.174533,-0.572257,-0.690777,-0.162382,-0.200427,1.00493,-0.411858,-0.364527,0.776821
28,40,-0.567232,-0.698132,-0.174533,-0.174533,-0.572257,-0.690777,-0.162382,-0.200427,1.00493,-0.411858,-0.364527,0.776821
28,40,-0.567232,-0.698132,-0.174533,-0.174533,-0.572257,-0.690777,-0.162382,-0.200427,1.00493,-0.411858,-0.364527,0.776821
28,40,-0.567232,-0.698132,-0.174533,-0.174533,-0.572257,-0.690777,-0.162382,-0.200427,1.00493,-0.411858,-0.364527,0.776821
28,40,-0.567232,-0.698132,-0.174533,-0.174533,-0.572257,-0.690777,-0.162382,-0.200427,1.00493,-0.411858,-0.364527,0.776821
28,40,-0.567232,-0.698132,-0.174533,-0.174533,-0.572257,-0.690777,-0.162382,-0.200427,1.00493,-0.411858,-0.364527,0.776821
28,40,-0.567232,-0.698132,-0.174533,-0.174533,-0.572257,-0.690777,-0.162382,-0.200427,1.00493,-0.411858,-0.364527,0.776821
28,40,-0.567232,-0.698132,-0.174533,-0.174533,-0.572257,-0.690777,-0.162382,-0.200427,1.00493,-0.411858,-0.364527,0.776821
28,40,-0.567232,-0.698132,-0.174533,-0.174533,-0.572257,-0.690777,-0.162382,-0.200427,1.00493,-0.411858,-0.364527,0.776821
28,40,-0.567232,-0.698132,-0.174533,-0.174533,-0.572257,-0.690777,-0.162382,-0.200427,1.00493,-0.411858,-0.364527,0.776821
28,40,-0.567232,-0.698132,-0.174533,-0.174533,-0.572257,-0.690777,-0.162382,-0.200427,1.00493,-0.411858,-0.364527,0.776821
28,40,-0.567232,-0.698132,-0.174533,-0.174533,-0.572257,-0.690777,-0.162382,-0.200427,1.00493,-0.411858,-0.364527,0.776821
28,40,-0.567232,-0.698132,-0.174533,-0.174533,-0.572257,-0.690777,-0.162382,-0.200427,1.00493,-0.411858,-0.364527,0.776821
28,40,-0.567232,-0.698132,-0.174533,-0.174533,-0.572257,-0.690777,-0.162382,-0.200427,1.00493,-0.411858,-0.364527,0.776821
28,40,-0.567232,-0.698132,-0.174533,-0.174533,-0.572257,-0.690777,-0.162382,-0.200427,1.00493,-0.411858,-0.364527,0.776821
28,40,-0.567232,-0.698132,-0.174533,-0.174533,-0.572257,-0.690777,-0.162382,-0.200427,1.00493,-0.411858,-0.364527,0.776821
28,40,-0.567232,-0.698132,-0.174533,-0.174533,-0.572257,-0.690777,-0.162382,-0.200427,1.00493,-0.411858,-0.364527,0.776821
28,40,-0.567232,-0.698132,-0.174533,-0.174533,-0.572257,-0.690777,-0.162382,-0.200427,1.00493,-0.411858,-0.364527,0.776821
28,40,-0.567232,-0.698132,-0.174533,-0.174533,-0.572257,-0.690777,-0.162382,-0.200427,1.00493,-0.411858,-0.364527,0.776821
28,40,-0.567232,-0.698132,-0.174533,-0.174533,-0.572257,-0.690777,-0.162382,-0.200427,1.00493,-0.411858,-0.364527,0.776821
28,40,-0.567232,-0.698132,-0.174533,-0.174533,-0.572257,-0.690777,-0.162382,-0.200427,1.00493,-0.411858,-0.364527,0.776821
28,40,-0.567232,-0.698132,-0.174533,-0.174533,-0.572257,-0.690777,-0.162382,-0.200427,1.00493,-0.411858,-0.364527,0.776821
28,40,-0.567232,-0.698132,-0.174533,-0.174533,-0.572257,-0.690777,-0.162382,-0.200427,1.00493,-0.411858,-0.364527,0.776821
28,40,-0.567232,-0.698132,-0.174533,-0.174533,-0.572257,-0.690777,-0.162382,-0.200427,1.00493,-0.411858,-0.364527,0.776821
28,40,-0.567232,-0.698132,-0.174533,-0.174533,-0.572257,-0.690777,-0.162382,-0.200427,1.00493,-0.411858,-0.364527,0.776821
28,40,-0.567232,-0.698132,-0.174533,-0.174533,-0.572257,-0.690777,-0.162382,-0.200427,1.00493,-0.411858,-0.364527,0.776821
28,40,-0.567232,-0.698132,-0.174533,-0.174533,-0.572257,-0.690777,-0.162382,-0.200427,1.00493,-0.411858,-0.364527,0.776821
28,40,-0.567232,-0.698132,-0.174533,-0.174533,-0.572257,-0.690777,-0.162382,-0.200427,1.00493,-0.411858,-0.364527,0.776821
28,40,-0.567232,-0.698132,-0.174533,-0.174533,-0.572257,-0.690777,-0.162382,-0.200427,1.00493,-0.411858,-0.364527,0.776821
28,40,-0.567232,-0.698132,-0.174533,-0.174533,-0.572257,-0.690777,-0.162382,-0.200427,1.00493,-0.411858,-0.364527,0.776821
28,40,-0.567232,-0.698132,-0.174533,-0.174533,-0.572257,-0.690777,-0.162321,-0.200446,1.00493,-0.411858,-0.366359,0.777393
28,40,-0.567232,-0.698132,-0.174533,-0.174533,-0.572257,-0.690777,-0.162321,-0.200446,1.00493,-0.411858,-0.366359,0.777393
28,40,-0.567232,-0.698132,-0.174533,-0.174533,-0.572257,-0.690777,-0.162321,-0.200446,1.00493,-0.411858,-0.366359,0.777393
28,40,-0.567232,-0.698132,-0.174533,-0.174533,-0.572257,-0.690777,-0.162321,-0.200446,1.00493,-0.411858,-0.366359,0.777393
28,40,-0.567232,-0.698132,-0.174533,-0.174533,-0.572257,-0.690777,-0.162321,-0.200446,1.00493,-0.411858,-0.366359,0.777393
28,40,-0.567232,-0.698132,-0.174533,-0.174533,-0.572257,-0.690777,-0.162388,-0.200488,1.00493,-0.411858,-0.36435,0.778666
28,40,-0.567232,-0.698132,-0.174533,-0.174533,-0.572257,-0.690777,-0.162388,-0.200488,1.00493,-0.411858,-0.36435,0.778666
28,40,-0.567232,-0.698132,-0.174533,-0.174533,-0.572257,-0.690777,-0.162388,-0.200488,1.00493,-0.411858,-0.36435,0.778666
28,40,-0.567232,-0.698132,-0.174533,-0.174533,-0.572257,-0.690777,-0.162388,-0.200488,1.00493,-0.411858,-0.36435,0.778666
28,40,-0.567232,-0.698132,-0.174533,-0.174533,-0.572257,-0.690777,-0.162327,-0.200508,1.00493,-0.411858,-0.366182,0.779238
28,40,-0.567232,-0.698132,-0.174533,-0.174533,-0.572257,-0.690777,-0.162327,-0.200508,1.00493,-0.411858,-0.366182,0.779238
28,40,-0.567232,-0.698132,-0.174533,-0.174533,-0.572257,-0.690777,-0.162327,-0.200508,1.00493,-0.411858,-0.366182,0.779238
28,40,-0.567232,-0.698132,-0.174533,-0.174533,-0.572257,-0.690777,-0.162327,-0.200508,1.00493,-0.411858,-0.366182,0.779238
28,40,-0.567232,-0.698132,-0.174533,-0.174533,-0.572257,-0.690777,-0.162327,-0.200508,1.00493,-0.411858,-0.366182,0.779238
28,40,-0.567232,-0.698132,-0.174533,-0.174533,-0.572257,-0.690777,-0.162327,-0.200508,1.00493,-0.411858,-0.366182,0.779238
28,40,-0.567232,-0.698132,-0.174533,-0.174533,-0.572257,-0.690777,-0.162327,-0.200508,1.00493,-0.411858,-0.366182,0.779238
28,40,-0.567232,-0.698132,-0.174533,-0.174533,-0.572257,-0.690777,-0.162327,-0.200508,1.00493,-0.411858,-0.366182,0.779238
28,40,-0.567232,-0.698132,-0.174533,-0.174533,-0.572257,-0.690777,-0.162327,-0.200508,1.00493,-0.411858,-0.366182,0.779238
28,40,-0.567232,-0.698132,-0.174533,-0.174533,-0.572257,-0.690777,-0.162266,-0.200527,1.00493,-0.411858,-0.368014,0.77981
28,40,-0.567232,-0.698132,-0.174533,-0.174533,-0.572257,-0.690777,-0.162266,-0.200527,1.00493,-0.411858,-0.368014,0.77981
28,40,-0.567232,-0.698132,-0.174533,-0.174533,-0.572257,-0.690777,-0.162266,-0.200527,1.00493,-0.411858,-0.368014,0.77981
28,40,-0.567232,-0.698132,-0.174533,-0.174533,-0.572257,-0.690777,-0.162266,-0.200527,1.00493,-0.411858,-0.368014,0.77981
28,40,-0.567232,-0.698132,-0.174533,-0.174533,-0.572257,-0.690777,-0.162266,-0.200527,1.00493,-0.411858,-0.368014,0.77981
28,40,-0.567232,-0.698132,-0.174533,-0.174533,-0.572257,-0.690777,-0.162266,-0.200527,1.00493,-0.411858,-0.368014,0.77981
28,40,-0.567232,-0.698132,-0.174533,-0.174533,-0.572257,-0.690777,-0.162266,-0.200527,1.00493,-0.411858,-0.368014,0.77981
28,40,-0.567232,-0.698132,-0.174533,-0.174533,-0.572257,-0.690777,-0.162266,-0.200527,1.00493,-0.411858,-0.368014,0.77981
28,40,-0.567232,-0.698132,-0.174533,-0.174533,-0.572257,-0.690777,-0.162266,-0.200527,1.00493,-0.411858,-0.368014,0.77981
28,40,-0.567232,-0.698132,-0.174533,-0.174533,-0.572257,-0.690777,-0.162266,-0.200527,1.00493,-0.411858,-0.368014,0.77981
28,40,-0.567232,-0.698132,-0.174533,-0.174533,-0.572257,-0.690777,-0.162266,-0.200527,1.00493,-0.411858,-0.368014,0.77981
28,40,-0.567232,-0.698132,-0.174533,-0.174533,-0.572257,-0.690777,-0.162266,-0.200527,1.00493,-0.411858,-0.368014,0.77981
28,40,-0.567232,-0.698132,-0.174533,-0.174533,-0.572257,-0.690777,-0.162205,-0.200546,1.00493,-0.411858,-0.369846,0.780382
28,40,-0.567232,-0.698132,-0.174533,-0.174533,-0.572257,-0.690777,-0.162272,-0.200588,1.00493,-0.411858,-0.367836,0.781655
28,40,-0.567232,-0.698132,-0.174533,-0.174533,-0.572257,-0.690777,-0.162272,-0.200588,1.00493,-0.411858,-0.367836,0.781655
28,40,-0.567232,-0.698132,-0.174533,-0.174533,-0.572257,-0.690777,-0.162272,-0.200588,1.00493,-0.411858,-0.367836,0.781655
28,40,-0.567232,-0.698132,-0.174533,-0.174533,-0.572257,-0.690777,-0.162272,-0.200588,1.00493,-0.411858,-0.367836,0.781655
28,40,-0.567232,-0.698132,-0.174533,-0.174533,-0.572257,-0.690777,-0.162272,-0.200588,1.00493,-0.411858,-0.367836,0.781655
28,40,-0.567232,-0.698132,-0.174533,-0.174533,-0.572257,-0.690777,-0.162272,-0.200588,1.00493,-0.411858,-0.367836,0.781655
28,40,-0.567232,-0.698132,-0.174533,-0.174533,-0.572257,-0.690777,-0.162272,-0.200588,1.00493,-0.411858,-0.367836,0.781655
28,40,-0.567232,-0.698132,-0.174533,-0.174533,-0.572257,-0.690777,-0.162272,-0.200588,1.00493,-0.411858,-0.367836,0.781655
28,40,-0.567232,-0.698132,-0.174533,-0.174533,-0.572257,-0.690777,-0.162272,-0.200588,1.00493,-0.411858,-0.367836,0.781655
28,40,-0.567232,-0.698132,-0.174533,-0.174533,-0.572257,-0.690777,-0.162272,-0.200588,1.00493,-0.411858,-0.367836,0.781655
28,40,-0.567232,-0.698132,-0.174533,-0.174533,-0.572257,-0.690777,-0.162272,-0.200588,1.00493,-0.411858,-0.367836,0.781655
28,40,-0.567232,-0.698132,-0.174533,-0.174533,-0.572257,-0.690777,-0.162272,-0.200588,1.00493,-0.411858,-0.367836,0.781655
28,40,-0.567232,-0.698132,-0.174533,-0.174533,-0.572257,-0.690777,-0.162211,-0.200607,1.00493,-0.411858,-0.369784,0.782263
28,40,-0.567232,-0.698132,-0.174533,-0.174533,-0.572257,-0.690777,-0.162211,-0.200607,1.00493,-0.411858,-0.369784,0.782263
28,40,-0.567232,-0.698132,-0.174533,-0.174533,-0.572257,-0.690777,-0.162211,-0.200607,1.00493,-0.411858,-0.369784,0.782263
28,40,-0.567232,-0.698132,-0.174533,-0.174533,-0.572257,-0.690777,-0.162211,-0.200607,1.00493,-0.411858,-0.369784,0.782263
28,40,-0.567232,-0.698132,-0.174533,-0.174533,-0.572257,-0.690777,-0.162211,-0.200607,1.00493,-0.411858,-0.369784,0.782263
28,40,-0.567232,-0.698132,-0.174533,-0.174533,-0.572257,-0.690777,-0.162211,-0.200607,1.00493,-0.411858,-0.369784,0.782263
28,40,-0.567232,-0.698132,-0.174533,-0.174533,-0.572257,-0.690777,-0.162211,-0.200607,1.00493,-0.411858,-0.369784,0.782263
28,40,-0.567232,-0.698132,-0.174533,-0.174533,-0.572257,-0.690777,-0.162211,-0.200607,1.00493,-0.411858,-0.369784,0.782263
28,40,-0.567232,-0.698132,-0.174533,-0.174533,-0.572257,-0.690777,-0.162211,-0.200607,1.00493,-0.411858,-0.369784,0.782263
28,40,-0.567232,-0.698132,-0.174533,-0.174533,-0.572257,-0.690777,-0.162211,-0.200607,1.00493,-0.411858,-0.369784,0.782263
28,40,-0.567232,-0.698132,-0.174533,-0.174533,-0.572257,-0.690777,-0.162211,-0.200607,1.00493,-0.411858,-0.369784,0.782263
28,40,-0.567232,-0.698132,-0.174533,-0.174533,-0.572257,-0.690777,-0.162211,-0.200607,1.00493,-0.411858,-0.369784,0.782263
28,40,-0.567232,-0.698132,-0.174533,-0.174533,-0.572257,-0.690777,-0.16215,-0.200626,1.00493,-0.411858,-0.371608,0.782833
28,40,-0.567232,-0.698132,-0.174533,-0.174533,-0.572257,-0.690777,-0.16215,-0.200626,1.00493,-0.411858,-0.371608,0.782833
28,40,-0.567232,-0.698132,-0.174533,-0.174533,-0.572257,-0.690777,-0.16215,-0.200626,1.00493,-0.411858,-0.371608,0.782833
28,40,-0.567232,-0.698132,-0.174533,-0.174533,-0.572257,-0.690777,-0.162217,-0.200669,1.00493,-0.411858,-0.369598,0.784106
28,40,-0.567232,-0.698132,-0.174533,-0.174533,-0.572257,-0.690777,-0.162217,-0.200669,1.00493,-0.411858,-0.369598,0.784106
28,40,-0.567232,-0.698132,-0.174533,-0.174533,-0.572257,-0.690777,-0.162155,-0.200688,1.00493,-0.411858,-0.371438,0.78468
28,40,-0.567232,-0.698132,-0.174533,-0.174533,-0.572257,-0.690777,-0.162155,-0.200688,1.00493,-0.411858,-0.371438,0.78468
28,40,-0.567232,-0.698132,-0.174533,-0.174533,-0.572257,-0.690777,-0.162155,-0.200688,1.00493,-0.411858,-0.371438,0.78468
28,40,-0.567232,-0.698132,-0.174533,-0.174533,-0.572257,-0.690777,-0.162155,-0.200688,1.00493,-0.411858,-0.371438,0.78468
28,40,-0.567232,-0.698132,-0.174533,-0.174533,-0.572257,-0.690777,-0.162155,-0.200688,1.00493,-0.411858,-0.371438,0.78468
28,40,-0.567232,-0.698132,-0.174533,-0.174533,-0.572257,-0.690777,-0.162155,-0.200688,1.00493,-0.411858,-0.371438,0.78468
28,40,-0.567232,-0.698132,-0.174533,-0.174533,-0.572257,-0.690777,-0.162155,-0.200688,1.00493,-0.411858,-0.371438,0.78468
28,40,-0.567232,-0.698132,-0.174533,-0.174533,-0.572257,-0.690777,-0.162094,-0.200707,1.00493,-0.411858,-0.373288,0.785258
28,40,-0.567232,-0.698132,-0.174533,-0.174533,-0.572257,-0.690777,-0.162094,-0.200707,1.00493,-0.411858,-0.373288,0.785258
28,40,-0.567232,-0.698132,-0.174533,-0.174533,-0.572257,-0.690777,-0.162094,-0.200707,1.00493,-0.411858,-0.373288,0.785258
28,40,-0.567232,-0.698132,-0.174533,-0.174533,-0.572257,-0.690777,-0.162094,-0.200707,1.00493,-0.411858,-0.373288,0.785258
28,40,-0.567232,-0.698132,-0.174533,-0.174533,-0.572257,-0.690777,-0.162094,-0.200707,1.00493,-0.411858,-0.373288,0.785258
28,40,-0.567232,-0.698132,-0.174533,-0.174533,-0.572257,-0.690777,-0.162094,-0.200707,1.00493,-0.411858,-0.373288,0.785258
28,40,-0.567232,-0.698132,-0.174533,-0.174533,-0.572257,-0.690777,-0.162094,-0.200707,1.00493,-0.411858,-0.373288,0.785258
28,40,-0.567232,-0.698132,-0.174533,-0.174533,-0.572257,-0.690777,-0.162094,-0.200707,1.00493,-0.411858,-0.373288,0.785258
28,40,-0.567232,-0.698132,-0.174533,-0.174533,-0.572257,-0.690777,-0.162094,-0.200707,1.00493,-0.411858,-0.373288,0.785258
28,40,-0.567232,-0.698132,-0.174533,-0.174533,-0.572257,-0.690777,-0.162094,-0.200707,1.00493,-0.411858,-0.373288,0.785258
28,40,-0.567232,-0.698132,-0.174533,-0.174533,-0.572257,-0.690777,-0.162094,-0.200707,1.00493,-0.411858,-0.373288,0.785258
28,40,-0.567232,-0.698132,-0.174533,-0.174533,-0.572257,-0.690777,-0.162094,-0.200707,1.00493,-0.411858,-0.373288,0.785258
28,40,-0.567232,-0.698132,-0.174533,-0.174533,-0.572257,-0.690777,-0.162094,-0.200707,1.00493,-0.411858,-0.373288,0.785258
28,40,-0.567232,-0.698132,-0.174533,-0.174533,-0.572257,-0.690777,-0.162033,-0.200726,1.00493,-0.411858,-0.375121,0.78583
28,40,-0.567232,-0.698132,-0.174533,-0.174533,-0.572257,-0.690777,-0.162033,-0.200726,1.00493,-0.411858,-0.375121,0.78583
28,40,-0.567232,-0.698132,-0.174533,-0.174533,-0.572257,-0.690777,-0.162033,-0.200726,1.00493,-0.411858,-0.375121,0.78583
28,40,-0.567232,-0.698132,-0.174533,-0.174533,-0.572257,-0.690777,-0.162033,-0.200726,1.00493,-0.411858,-0.375121,0.78583
28,40,-0.567232,-0.698132,-0.174533,-0.174533,-0.572257,-0.690777,-0.162033,-0.200726,1.00493,-0.411858,-0.375121,0.78583
28,40,-0.567232,-0.698132,-0.174533,-0.174533,-0.572257,-0.690777,-0.162033,-0.200726,1.00493,-0.411858,-0.375121,0.78583
28,40,-0.567232,-0.698132,-0.174533,-0.174533,-0.572257,-0.690777,-0.162033,-0.200726,1.00493,-0.411858,-0.375121,0.78583
28,40,-0.567232,-0.698132,-0.174533,-0.174533,-0.572257,-0.690777,-0.162033,-0.200726,1.00493,-0.411858,-0.375121,0.78583
28,40,-0.567232,-0.698132,-0.174533,-0.174533,-0.572257,-0.690777,-0.162033,-0.200726,1.00493,-0.411858,-0.375121,0.78583
28,40,-0.567232,-0.698132,-0.174533,-0.174533,-0.572257,-0.690777,-0.162033,-0.200726,1.00493,-0.411858,-0.375121,0.78583
28,40,-0.567232,-0.698132,-0.174533,-0.174533,-0.572257,-0.690777,-0.162033,-0.200726,1.00493,-0.411858,-0.375121,0.78583
28,40,-0.567232,-0.698132,-0.174533,-0.174533,-0.572257,-0.690777,-0.162033,-0.200726,1.00493,-0.411858,-0.375121,0.78583
28,40,-0.567232,-0.698132,-0.174533,-0.174533,-0.572257,-0.690777,-0.162033,-0.200726,1.00493,-0.411858,-0.375121,0.78583
28,40,-0.567232,-0.698132,-0.174533,-0.174533,-0.572257,-0.690777,-0.162033,-0.200726,1.00493,-0.411858,-0.375121,0.78583
28,40,-0.567232,-0.698132,-0.174533,-0.174533,-0.572257,-0.690777,-0.162033,-0.200726,1.00493,-0.411858,-0.375121,0.78583
28,40,-0.567232,-0.698132,-0.174533,-0.174533,-0.572257,-0.690777,-0.162033,-0.200726,1.00493,-0.411858,-0.375121,0.78583
28,40,-0.567232,-0.698132,-0.174533,-0.174533,-0.572257,-0.690777,-0.162033,-0.200726,1.00493,-0.411858,-0.375121,0.78583
28,40,-0.567232,-0.698132,-0.174533,-0.174533,-0.572257,-0.690777,-0.162033,-0.200726,1.00493,-0.411858,-0.375121,0.78583
28,40,-0.567232,-0.698132,-0.174533,-0.174533,-0.572257,-0.690777,-0.162033,-0.200726,1.00493,-0.411858,-0.375121,0.78583
28,40,-0.567232,-0.698132,-0.174533,-0.174533,-0.572257,-0.690777,-0.162033,-0.200726,1.00493,-0.411858,-0.375121,0.78583
28,40,-0.567232,-0.698132,-0.174533,-0.174533,-0.572257,-0.690777,-0.162033,-0.200726,1.00493,-0.411858,-0.375121,0.78583
28,40,-0.567232,-0.698132,-0.174533,-0.174533,-0.572257,-0.690777,-0.162033,-0.200726,1.00493,-0.411858,-0.375121,0.78583
28,40,-0.567232,-0.698132,-0.174533,-0.174533,-0.572257,-0.690777,-0.162033,-0.200726,1.00493,-0.411858,-0.375121,0.78583
28,40,-0.567232,-0.698132,-0.174533,-0.174533,-0.572257,-0.690777,-0.162033,-0.200726,1.00493,-0.411858,-0.375121,0.78583
28,40,-0.567232,-0.698132,-0.174533,-0.174533,-0.572257,-0.690777,-0.162033,-0.200726,1.00493,-0.411858,-0.375121,0.78583
28,40,-0.567232,-0.698132,-0.174533,-0.174533,-0.572257,-0.690777,-0.162033,-0.200726,1.00493,-0.411858,-0.375121,0.78583
28,40,-0.567232,-0.698132,-0.174533,-0.174533,-0.572257,-0.690777,-0.162033,-0.200726,1.00493,-0.411858,-0.375121,0.78583
28,40,-0.567232,-0.698132,-0.174533,-0.174533,-0.572257,-0.690777,-0.162033,-0.200726,1.00493,-0.411858,-0.375121,0.78583
28,40,-0.567232,-0.698132,-0.174533,-0.174533,-0.572257,-0.690777,-0.162033,-0.200726,1.00493,-0.411858,-0.375121,0.78583
28,40,-0.567232,-0.698132,-0.174533,-0.174533,-0.572257,-0.690777,-0.162033,-0.200726,1.00493,-0.411858,-0.375121,0.78583
28,40,-0.567232,-0.698132,-0.174533,-0.174533,-0.572257,-0.690777,-0.162033,-0.200726,1.00493,-0.411858,-0.375121,0.78583
28,40,-0.567232,-0.698132,-0.174533,-0.174533,-0.572257,-0.690777,-0.162033,-0.200726,1.00493,-0.411858,-0.375121,0.78583
28,40,-0.567232,-0.698132,-0.174533,-0.174533,-0.572257,-0.690777,-0.162033,-0.200726,1.00493,-0.411858,-0.375121,0.78583
28,40,-0.567232,-0.698132,-0.174533,-0.174533,-0.572257,-0.690777,-0.161972,-0.200745,1.00493,-0.411858,-0.376903,0.786386
28,40,-0.567232,-0.698132,-0.174533,-0.174533,-0.572257,-0.690777,-0.161972,-0.200745,1.00493,-0.411858,-0.376903,0.786386
28,40,-0.567232,-0.698132,-0.174533,-0.174533,-0.572257,-0.690777,-0.161972,-0.200745,1.00493,-0.411858,-0.376903,0.786386
28,40,-0.567232,-0.698132,-0.174533,-0.174533,-0.572257,-0.690777,-0.161972,-0.200745,1.00493,-0.411858,-0.376903,0.786386
28,40,-0.567232,-0.698132,-0.174533,-0.174533,-0.572257,-0.690777,-0.161972,-0.200745,1.00493,-0.411858,-0.376903,0.786386
28,40,-0.567232,-0.698132,-0.174533,-0.174533,-0.572257,-0.690777,-0.161972,-0.200745,1.00493,-0.411858,-0.376903,0.786386
28,40,-0.567232,-0.698132,-0.174533,-0.174533,-0.572257,-0.690777,-0.161972,-0.200745,1.00493,-0.411858,-0.376903,0.786386
28,40,-0.567232,-0.698132,-0.174533,-0.174533,-0.572257,-0.690777,-0.161972,-0.200745,1.00493,-0.411858,-0.376903,0.786386
28,40,-0.567232,-0.698132,-0.174533,-0.174533,-0.572257,-0.690777,-0.161972,-0.200745,1.00493,-0.411858,-0.376903,0.786386
28,40,-0.567232,-0.698132,-0.174533,-0.174533,-0.572257,-0.690777,-0.161972,-0.200745,1.00493,-0.411858,-0.376903,0.786386
28,40,-0.567232,-0.698132,-0.174533,-0.174533,-0.572257,-0.690777,-0.161972,-0.200745,1.00493,-0.411858,-0.376903,0.786386
28,40,-0.567232,-0.698132,-0.174533,-0.174533,-0.572257,-0.690777,-0.161972,-0.200745,1.00493,-0.411858,-0.376903,0.786386
28,40,-0.567232,-0.698132,-0.174533,-0.174533,-0.572257,-0.690777,-0.161972,-0.200745,1.00493,-0.411858,-0.376903,0.786386
28,40,-0.567232,-0.698132,-0.174533,-0.174533,-0.572257,-0.690777,-0.161972,-0.200745,1.00493,-0.411858,-0.376903,0.786386
28,40,-0.567232,-0.698132,-0.174533,-0.174533,-0.572257,-0.690777,-0.161972,-0.200745,1.00493,-0.411858,-0.376903,0.786386
28,40,-0.567232,-0.698132,-0.174533,-0.174533,-0.572257,-0.690777,-0.161972,-0.200745,1.00493,-0.411858,-0.376903,0.786386
28,40,-0.567232,-0.698132,-0.174533,-0.174533,-0.572257,-0.690777,-0.161972,-0.200745,1.00493,-0.411858,-0.376903,0.786386
28,40,-0.567232,-0.698132,-0.174533,-0.174533,-0.572257,-0.690777,-0.161972,-0.200745,1.00493,-0.411858,-0.376903,0.786386
28,40,-0.567232,-0.698132,-0.174533,-0.174533,-0.572257,-0.690777,-0.161972,-0.200745,1.00493,-0.411858,-0.376903,0.786386
28,40,-0.567232,-0.698132,-0.174533,-0.174533,-0.572257,-0.690777,-0.161972,-0.200745,1.00493,-0.411858,-0.376903,0.786386
28,40,-0.567232,-0.698132,-0.174533,-0.174533,-0.572257,-0.690777,-0.161972,-0.200745,1.00493,-0.411858,-0.376903,0.786386
28,40,-0.567232,-0.698132,-0.174533,-0.174533,-0.572257,-0.690777,-0.161972,-0.200745,1.00493,-0.411858,-0.376903,0.786386
28,40,-0.567232,-0.698132,-0.174533,-0.174533,-0.572257,-0.690777,-0.161972,-0.200745,1.00493,-0.411858,-0.376903,0.786386
28,40,-0.567232,-0.698132,-0.174533,-0.174533,-0.572257,-0.690777,-0.161972,-0.200745,1.00493,-0.411858,-0.376903,0.786386
28,40,-0.567232,-0.698132,-0.174533,-0.174533,-0.572257,-0.690777,-0.161972,-0.200745,1.00493,-0.411858,-0.376903,0.786386
28,40,-0.567232,-0.698132,-0.174533,-0.174533,-0.572257,-0.690777,-0.161972,-0.200745,1.00493,-0.411858,-0.376903,0.786386
28,40,-0.567232,-0.698132,-0.174533,-0.174533,-0.572257,-0.690777,-0.161972,-0.200745,1.00493,-0.411858,-0.376903,0.786386
28,40,-0.567232,-0.698132,-0.174533,-0.174533,-0.572257,-0.690777,-0.161972,-0.200745,1.00493,-0.411858,-0.376903,0.786386
28,40,-0.567232,-0.698132,-0.174533,-0.174533,-0.572257,-0.690777,-0.161972,-0.200745,1.00493,-0.411858,-0.376903,0.786386
28,40,-0.567232,-0.698132,-0.174533,-0.174533,-0.572257,-0.690777,-0.161972,-0.200745,1.00493,-0.411858,-0.376903,0.786386
28,40,-0.567232,-0.698132,-0.174533,-0.174533,-0.572257,-0.690777,-0.162039,-0.200787,1.00493,-0.411858,-0.374893,0.787659
28,40,-0.567232,-0.698132,-0.174533,-0.174533,-0.572257,-0.690777,-0.162039,-0.200787,1.00493,-0.411858,-0.374893,0.787659
28,40,-0.567232,-0.698132,-0.174533,-0.174533,-0.572257,-0.690777,-0.162039,-0.200787,1.00493,-0.411858,-0.374893,0.787659
28,40,-0.567232,-0.698132,-0.174533,-0.174533,-0.572257,-0.690777,-0.162039,-0.200787,1.00493,-0.411858,-0.374893,0.787659
28,40,-0.567232,-0.698132,-0.174533,-0.174533,-0.572257,-0.690777,-0.162039,-0.200787,1.00493,-0.411858,-0.374893,0.787659
28,40,-0.567232,-0.698132,-0.174533,-0.174533,-0.572257,-0.690777,-0.162039,-0.200787,1.00493,-0.411858,-0.374893,0.787659
28,40,-0.567232,-0.698132,-0.174533,-0.174533,-0.572257,-0.690777,-0.162039,-0.200787,1.00493,-0.411858,-0.374893,0.787659
28,40,-0.567232,-0.698132,-0.174533,-0.174533,-0.572257,-0.690777,-0.162039,-0.200787,1.00493,-0.411858,-0.374893,0.787659
28,40,-0.567232,-0.698132,-0.174533,-0.174533,-0.572257,-0.690777,-0.162039,-0.200787,1.00493,-0.411858,-0.374893,0.787659
28,40,-0.567232,-0.698132,-0.174533,-0.174533,-0.572257,-0.690777,-0.162039,-0.200787,1.00493,-0.411858,-0.374893,0.787659
28,40,-0.567232,-0.698132,-0.174533,-0.174533,-0.572257,-0.690777,-0.162039,-0.200787,1.00493,-0.411858,-0.374893,0.787659
28,40,-0.567232,-0.698132,-0.174533,-0.174533,-0.572257,-0.690777,-0.162039,-0.200787,1.00493,-0.411858,-0.374893,0.787659
28,40,-0.567232,-0.698132,-0.174533,-0.174533,-0.572257,-0.690777,-0.162039,-0.200787,1.00493,-0.411858,-0.374893,0.787659
28,40,-0.567232,-0.698132,-0.174533,-0.174533,-0.572257,-0.690777,-0.162039,-0.200787,1.00493,-0.411858,-0.374893,0.787659
28,40,-0.567232,-0.698132,-0.174533,-0.174533,-0.572257,-0.690777,-0.161978,-0.200806,1.00493,-0.411858,-0.376643,0.788205
28,40,-0.567232,-0.698132,-0.174533,-0.174533,-0.572257,-0.690777,-0.161978,-0.200806,1.00493,-0.411858,-0.376643,0.788205
28,40,-0.567232,-0.698132,-0.174533,-0.174533,-0.572257,-0.690777,-0.161978,-0.200806,1.00493,-0.411858,-0.376643,0.788205
28,40,-0.567232,-0.698132,-0.174533,-0.174533,-0.572257,-0.690777,-0.161978,-0.200806,1.00493,-0.411858,-0.376643,0.788205
28,40,-0.567232,-0.698132,-0.174533,-0.174533,-0.572257,-0.690777,-0.161978,-0.200806,1.00493,-0.411858,-0.376643,0.788205
28,40,-0.567232,-0.698132,-0.174533,-0.174533,-0.572257,-0.690777,-0.161978,-0.200806,1.00493,-0.411858,-0.376643,0.788205
28,40,-0.567232,-0.698132,-0.174533,-0.174533,-0.572257,-0.690777,-0.161978,-0.200806,1.00493,-0.411858,-0.376643,0.788205
28,40,-0.567232,-0.698132,-0.174533,-0.174533,-0.572257,-0.690777,-0.161978,-0.200806,1.00493,-0.411858,-0.376643,0.788205
28,40,-0.567232,-0.698132,-0.174533,-0.174533,-0.572257,-0.690777,-0.161978,-0.200806,1.00493,-0.411858,-0.376643,0.788205
28,40,-0.567232,-0.698132,-0.174533,-0.174533,-0.572257,-0.690777,-0.161978,-0.200806,1.00493,-0.411858,-0.376643,0.788205
28,40,-0.567232,-0.698132,-0.174533,-0.174533,-0.572257,-0.690777,-0.161978,-0.200806,1.00493,-0.411858,-0.376643,0.788205
28,40,-0.567232,-0.698132,-0.174533,-0.174533,-0.572257,-0.690777,-0.161978,-0.200806,1.00493,-0.411858,-0.376643,0.788205
28,40,-0.567232,-0.698132,-0.174533,-0.174533,-0.572257,-0.690777,-0.161978,-0.200806,1.00493,-0.411858,-0.376643,0.788205
28,40,-0.567232,-0.698132,-0.174533,-0.174533,-0.572257,-0.690777,-0.161978,-0.200806,1.00493,-0.411858,-0.376643,0.788205
28,40,-0.567232,-0.698132,-0.174533,-0.174533,-0.572257,-0.690777,-0.161978,-0.200806,1.00493,-0.411858,-0.376643,0.788205
28,40,-0.567232,-0.698132,-0.174533,-0.174533,-0.572257,-0.690777,-0.161978,-0.200806,1.00493,-0.411858,-0.376643,0.788205
28,40,-0.567232,-0.698132,-0.174533,-0.174533,-0.572257,-0.690777,-0.161978,-0.200806,1.00493,-0.411858,-0.376643,0.788205
28,40,-0.567232,-0.698132,-0.174533,-0.174533,-0.572257,-0.690777,-0.161978,-0.200806,1.00493,-0.411858,-0.376643,0.788205
28,40,-0.567232,-0.698132,-0.174533,-0.174533,-0.572257,-0.690777,-0.161917,-0.200825,1.00493,-0.411858,-0.378476,0.788777
28,40,-0.567232,-0.698132,-0.174533,-0.174533,-0.572257,-0.690777,-0.161917,-0.200825,1.00493,-0.411858,-0.378476,0.788777
28,40,-0.567232,-0.698132,-0.174533,-0.174533,-0.572257,-0.690777,-0.161917,-0.200825,1.00493,-0.411858,-0.378476,0.788777
28,40,-0.567232,-0.698132,-0.174533,-0.174533,-0.572257,-0.690777,-0.161917,-0.200825,1.00493,-0.411858,-0.378476,0.788777
28,40,-0.567232,-0.698132,-0.174533,-0.174533,-0.572257,-0.690777,-0.161917,-0.200825,1.00493,-0.411858,-0.378476,0.788777
28,40,-0.567232,-0.698132,-0.174533,-0.174533,-0.572257,-0.690777,-0.161917,-0.200825,1.00493,-0.411858,-0.378476,0.788777
28,40,-0.567232,-0.698132,-0.174533,-0.174533,-0.572257,-0.690777,-0.161917,-0.200825,1.00493,-0.411858,-0.378476,0.788777
28,40,-0.567232,-0.698132,-0.174533,-0.174533,-0.572257,-0.690777,-0.161917,-0.200825,1.00493,-0.411858,-0.378476,0.788777
28,40,-0.567232,-0.698132,-0.174533,-0.174533,-0.572257,-0.690777,-0.161917,-0.200825,1.00493,-0.411858,-0.378476,0.788777
28,40,-0.567232,-0.698132,-0.174533,-0.174533,-0.572257,-0.690777,-0.161917,-0.200825,1.00493,-0.411858,-0.378476,0.788777
28,40,-0.567232,-0.698132,-0.174533,-0.174533,-0.572257,-0.690777,-0.161917,-0.200825,1.00493,-0.411858,-0.378476,0.788777
28,40,-0.567232,-0.698132,-0.174533,-0.174533,-0.572257,-0.690777,-0.161917,-0.200825,1.00493,-0.411858,-0.378476,0.788777
28,40,-0.567232,-0.698132,-0.174533,-0.174533,-0.572257,-0.690777,-0.161917,-0.200825,1.00493,-0.411858,-0.378476,0.788777
28,40,-0.567232,-0.698132,-0.174533,-0.174533,-0.572257,-0.690777,-0.161917,-0.200825,1.00493,-0.411858,-0.378476,0.788777
28,40,-0.567232,-0.698132,-0.174533,-0.174533,-0.572257,-0.690777,-0.161917,-0.200825,1.00493,-0.411858,-0.378476,0.788777
28,40,-0.567232,-0.698132,-0.174533,-0.174533,-0.572257,-0.690777,-0.161856,-0.200845,1.00493,-0.411858,-0.380308,0.789349
28,40,-0.567232,-0.698132,-0.174533,-0.174533,-0.572257,-0.690777,-0.161856,-0.200845,1.00493,-0.411858,-0.380308,0.789349
28,40,-0.567232,-0.698132,-0.174533,-0.174533,-0.572257,-0.690777,-0.161856,-0.200845,1.00493,-0.411858,-0.380308,0.789349
28,40,-0.567232,-0.698132,-0.174533,-0.174533,-0.572257,-0.690777,-0.161853,-0.200785,1.00493,-0.411858,-0.380398,0.787567
28,40,-0.567232,-0.698132,-0.174533,-0.174533,-0.572257,-0.690777,-0.161853,-0.200785,1.00493,-0.411858,-0.380398,0.787567
28,40,-0.567232,-0.698132,-0.174533,-0.174533,-0.572257,-0.690777,-0.161853,-0.200785,1.00493,-0.411858,-0.380398,0.787567
28,40,-0.567232,-0.698132,-0.174533,-0.174533,-0.572257,-0.690777,-0.161853,-0.200785,1.00493,-0.411858,-0.380398,0.787567
28,40,-0.567232,-0.698132,-0.174533,-0.174533,-0.572257,-0.690777,-0.161853,-0.200785,1.00493,-0.411858,-0.380398,0.787567
28,40,-0.567232,-0.698132,-0.174533,-0.174533,-0.572257,-0.690777,-0.161853,-0.200785,1.00493,-0.411858,-0.380398,0.787567
28,40,-0.567232,-0.698132,-0.174533,-0.174533,-0.572257,-0.690777,-0.161853,-0.200785,1.00493,-0.411858,-0.380398,0.787567
28,40,-0.567232,-0.698132,-0.174533,-0.174533,-0.572257,-0.690777,-0.161853,-0.200785,1.00493,-0.411858,-0.380398,0.787567
28,40,-0.567232,-0.698132,-0.174533,-0.174533,-0.572257,-0.690777,-0.161853,-0.200785,1.00493,-0.411858,-0.380398,0.787567
28,40,-0.567232,-0.698132,-0.174533,-0.174533,-0.572257,-0.690777,-0.161853,-0.200785,1.00493,-0.411858,-0.380398,0.787567
28,40,-0.567232,-0.698132,-0.174533,-0.174533,-0.572257,-0.690777,-0.161853,-0.200785,1.00493,-0.411858,-0.380398,0.787567
28,40,-0.567232,-0.698132,-0.174533,-0.174533,-0.572257,-0.690777,-0.161853,-0.200785,1.00493,-0.411858,-0.380398,0.787567
28,40,-0.567232,-0.698132,-0.174533,-0.174533,-0.572257,-0.690777,-0.161853,-0.200785,1.00493,-0.411858,-0.380398,0.787567
28,40,-0.567232,-0.698132,-0.174533,-0.174533,-0.572257,-0.690777,-0.161792,-0.200804,1.00493,-0.411858,-0.382231,0.788139
28,40,-0.567232,-0.698132,-0.174533,-0.174533,-0.572257,-0.690777,-0.161792,-0.200804,1.00493,-0.411858,-0.382231,0.788139
28,40,-0.567232,-0.698132,-0.174533,-0.174533,-0.572257,-0.690777,-0.161792,-0.200804,1.00493,-0.411858,-0.382231,0.788139
28,40,-0.567232,-0.698132,-0.174533,-0.174533,-0.572257,-0.690777,-0.161792,-0.200804,1.00493,-0.411858,-0.382231,0.788139
28,40,-0.567232,-0.698132,-0.174533,-0.174533,-0.572257,-0.690777,-0.161792,-0.200804,1.00493,-0.411858,-0.382231,0.788139
28,40,-0.567232,-0.698132,-0.174533,-0.174533,-0.572257,-0.690777,-0.161792,-0.200804,1.00493,-0.411858,-0.382231,0.788139
28,40,-0.567232,-0.698132,-0.174533,-0.174533,-0.572257,-0.690777,-0.161792,-0.200804,1.00493,-0.411858,-0.382231,0.788139
28,40,-0.567232,-0.698132,-0.174533,-0.174533,-0.572257,-0.690777,-0.161792,-0.200804,1.00493,-0.411858,-0.382231,0.788139
28,40,-0.567232,-0.698132,-0.174533,-0.174533,-0.572257,-0.690777,-0.161792,-0.200804,1.00493,-0.411858,-0.382231,0.788139
28,40,-0.567232,-0.698132,-0.174533,-0.174533,-0.572257,-0.690777,-0.161792,-0.200804,1.00493,-0.411858,-0.382231,0.788139
28,40,-0.567232,-0.698132,-0.174533,-0.174533,-0.572257,-0.690777,-0.161792,-0.200804,1.00493,-0.411858,-0.382231,0.788139
28,40,-0.567232,-0.698132,-0.174533,-0.174533,-0.572257,-0.690777,-0.161792,-0.200804,1.00493,-0.411858,-0.382231,0.788139
28,40,-0.567232,-0.698132,-0.174533,-0.174533,-0.572257,-0.690777,-0.161792,-0.200804,1.00493,-0.411858,-0.382231,0.788139
28,40,-0.567232,-0.698132,-0.174533,-0.174533,-0.572257,-0.690777,-0.161792,-0.200804,1.00493,-0.411858,-0.382231,0.788139
28,40,-0.567232,-0.698132,-0.174533,-0.174533,-0.572257,-0.690777,-0.161792,-0.200804,1.00493,-0.411858,-0.382231,0.788139
28,40,-0.567232,-0.698132,-0.174533,-0.174533,-0.572257,-0.690777,-0.161792,-0.200804,1.00493,-0.411858,-0.382231,0.788139
28,40,-0.567232,-0.698132,-0.174533,-0.174533,-0.572257,-0.690777,-0.161792,-0.200804,1.00493,-0.411858,-0.382231,0.788139
28,40,-0.567232,-0.698132,-0.174533,-0.174533,-0.572257,-0.690777,-0.161792,-0.200804,1.00493,-0.411858,-0.382231,0.788139
28,40,-0.567232,-0.698132,-0.174533,-0.174533,-0.572257,-0.690777,-0.161792,-0.200804,1.00493,-0.411858,-0.382231,0.788139
28,40,-0.567232,-0.698132,-0.174533,-0.174533,-0.572257,-0.690777,-0.161792,-0.200804,1.00493,-0.411858,-0.382231,0.788139
28,40,-0.567232,-0.698132,-0.174533,-0.174533,-0.572257,-0.690777,-0.161792,-0.200804,1.00493,-0.411858,-0.382231,0.788139
28,40,-0.567232,-0.698132,-0.174533,-0.174533,-0.572257,-0.690777,-0.161792,-0.200804,1.00493,-0.411858,-0.382231,0.788139
28,40,-0.567232,-0.698132,-0.174533,-0.174533,-0.572257,-0.690777,-0.161792,-0.200804,1.00493,-0.411858,-0.382231,0.788139
28,40,-0.567232,-0.698132,-0.174533,-0.174533,-0.572257,-0.690777,-0.161792,-0.200804,1.00493,-0.411858,-0.382231,0.788139
28,40,-0.567232,-0.698132,-0.174533,-0.174533,-0.572257,-0.690777,-0.161792,-0.200804,1.00493,-0.411858,-0.382231,0.788139
28,40,-0.567232,-0.698132,-0.174533,-0.174533,-0.572257,-0.690777,-0.161792,-0.200804,1.00493,-0.411858,-0.382231,0.788139
28,40,-0.567232,-0.698132,-0.174533,-0.174533,-0.572257,-0.690777,-0.161792,-0.200804,1.00493,-0.411858,-0.382231,0.788139
28,40,-0.567232,-0.698132,-0.174533,-0.174533,-0.572257,-0.690777,-0.161792,-0.200804,1.00493,-0.411858,-0.382231,0.788139
28,40,-0.567232,-0.698132,-0.174533,-0.174533,-0.572257,-0.690777,-0.161792,-0.200804,1.00493,-0.411858,-0.382231,0.788139
28,40,-0.567232,-0.698132,-0.174533,-0.174533,-0.572257,-0.690777,-0.161792,-0.200804,1.00493,-0.411858,-0.382231,0.788139
28,40,-0.567232,-0.698132,-0.174533,-0.174533,-0.572257,-0.690777,-0.161792,-0.200804,1.00493,-0.411858,-0.382231,0.788139
28,40,-0.567232,-0.698132,-0.174533,-0.174533,-0.572257,-0.690777,-0.161792,-0.200804,1.00493,-0.411858,-0.382231,0.788139
28,40,-0.567232,-0.698132,-0.174533,-0.174533,-0.572257,-0.690777,-0.161792,-0.200804,1.00493,-0.411858,-0.382231,0.788139
28,40,-0.567232,-0.698132,-0.174533,-0.174533,-0.572257,-0.690777,-0.161792,-0.200804,1.00493,-0.411858,-0.382231,0.788139
28,40,-0.567232,-0.698132,-0.174533,-0.174533,-0.572257,-0.690777,-0.161792,-0.200804,1.00493,-0.411858,-0.382231,0.788139
28,40,-0.567232,-0.698132,-0.174533,-0.174533,-0.572257,-0.690777,-0.161792,-0.200804,1.00493,-0.411858,-0.382231,0.788139
28,40,-0.567232,-0.698132,-0.174533,-0.174533,-0.572257,-0.690777,-0.161792,-0.200804,1.00493,-0.411858,-0.382231,0.788139
28,40,-0.567232,-0.698132,-0.174533,-0.174533,-0.572257,-0.690777,-0.161792,-0.200804,1.00493,-0.411858,-0.382231,0.788139
28,40,-0.567232,-0.698132,-0.174533,-0.174533,-0.572257,-0.690777,-0.161792,-0.200804,1.00493,-0.411858,-0.382231,0.788139
28,40,-0.567232,-0.698132,-0.174533,-0.174533,-0.572257,-0.690777,-0.161859,-0.200847,1.00493,-0.411858,-0.380222,0.789412
28,40,-0.567232,-0.698132,-0.174533,-0.174533,-0.572257,-0.690777,-0.161859,-0.200847,1.00493,-0.411858,-0.380222,0.789412
28,40,-0.567232,-0.698132,-0.174533,-0.174533,-0.572257,-0.690777,-0.161859,-0.200847,1.00493,-0.411858,-0.380222,0.789412
28,40,-0.567232,-0.698132,-0.174533,-0.174533,-0.572257,-0.690777,-0.161859,-0.200847,1.00493,-0.411858,-0.380222,0.789412
28,40,-0.567232,-0.698132,-0.174533,-0.174533,-0.572257,-0.690777,-0.161859,-0.200847,1.00493,-0.411858,-0.380222,0.789412
28,40,-0.567232,-0.698132,-0.174533,-0.174533,-0.572257,-0.690777,-0.161859,-0.200847,1.00493,-0.411858,-0.380222,0.789412
28,40,-0.567232,-0.698132,-0.174533,-0.174533,-0.572257,-0.690777,-0.161859,-0.200847,1.00493,-0.411858,-0.380222,0.789412
28,40,-0.567232,-0.698132,-0.174533,-0.174533,-0.572257,-0.690777,-0.161859,-0.200847,1.00493,-0.411858,-0.380222,0.789412
28,40,-0.567232,-0.698132,-0.174533,-0.174533,-0.572257,-0.690777,-0.161859,-0.200847,1.00493,-0.411858,-0.380222,0.789412
28,40,-0.567232,-0.698132,-0.174533,-0.174533,-0.572257,-0.690777,-0.161859,-0.200847,1.00493,-0.411858,-0.380222,0.789412
28,40,-0.567232,-0.698132,-0.174533,-0.174533,-0.572257,-0.690777,-0.161859,-0.200847,1.00493,-0.411858,-0.380222,0.789412
28,40,-0.567232,-0.698132,-0.174533,-0.174533,-0.572257,-0.690777,-0.161859,-0.200847,1.00493,-0.411858,-0.380222,0.789412
28,40,-0.567232,-0.698132,-0.174533,-0.174533,-0.572257,-0.690777,-0.161859,-0.200847,1.00493,-0.411858,-0.380222,0.789412
28,40,-0.567232,-0.698132,-0.174533,-0.174533,-0.572257,-0.690777,-0.161859,-0.200847,1.00493,-0.411858,-0.380222,0.789412
28,40,-0.567232,-0.698132,-0.174533,-0.174533,-0.572257,-0.690777,-0.161859,-0.200847,1.00493,-0.411858,-0.380222,0.789412
28,40,-0.567232,-0.698132,-0.174533,-0.174533,-0.572257,-0.690777,-0.161859,-0.200847,1.00493,-0.411858,-0.380222,0.789412
28,40,-0.567232,-0.698132,-0.174533,-0.174533,-0.572257,-0.690777,-0.161859,-0.200847,1.00493,-0.411858,-0.380222,0.789412
28,40,-0.567232,-0.698132,-0.174533,-0.174533,-0.572257,-0.690777,-0.161859,-0.200847,1.00493,-0.411858,-0.380222,0.789412
28,40,-0.567232,-0.698132,-0.174533,-0.174533,-0.572257,-0.690777,-0.161859,-0.200847,1.00493,-0.411858,-0.380222,0.789412
28,40,-0.567232,-0.698132,-0.174533,-0.174533,-0.572257,-0.690777,-0.161859,-0.200847,1.00493,-0.411858,-0.380222,0.789412
28,40,-0.567232,-0.698132,-0.174533,-0.174533,-0.572257,-0.690777,-0.161798,-0.200866,1.00493,-0.411858,-0.382054,0.789984
28,40,-0.567232,-0.698132,-0.174533,-0.174533,-0.572257,-0.690777,-0.161798,-0.200866,1.00493,-0.411858,-0.382054,0.789984
28,40,-0.567232,-0.698132,-0.174533,-0.174533,-0.572257,-0.690777,-0.161798,-0.200866,1.00493,-0.411858,-0.382054,0.789984
28,40,-0.567232,-0.698132,-0.174533,-0.174533,-0.572257,-0.690777,-0.161798,-0.200866,1.00493,-0.411858,-0.382054,0.789984
28,40,-0.567232,-0.698132,-0.174533,-0.174533,-0.572257,-0.690777,-0.161798,-0.200866,1.00493,-0.411858,-0.382054,0.789984
28,40,-0.567232,-0.698132,-0.174533,-0.174533,-0.572257,-0.690777,-0.161798,-0.200866,1.00493,-0.411858,-0.382054,0.789984
28,40,-0.567232,-0.698132,-0.174533,-0.174533,-0.572257,-0.690777,-0.161798,-0.200866,1.00493,-0.411858,-0.382054,0.789984
28,40,-0.567232,-0.698132,-0.174533,-0.174533,-0.572257,-0.690777,-0.161798,-0.200866,1.00493,-0.411858,-0.382054,0.789984
28,40,-0.567232,-0.698132,-0.174533,-0.174533,-0.572257,-0.690777,-0.161798,-0.200866,1.00493,-0.411858,-0.382054,0.789984
28,40,-0.567232,-0.698132,-0.174533,-0.174533,-0.572257,-0.690777,-0.161798,-0.200866,1.00493,-0.411858,-0.382054,0.789984
28,40,-0.567232,-0.698132,-0.174533,-0.174533,-0.572257,-0.690777,-0.161798,-0.200866,1.00493,-0.411858,-0.382054,0.789984
28,40,-0.567232,-0.698132,-0.174533,-0.174533,-0.572257,-0.690777,-0.161798,-0.200866,1.00493,-0.411858,-0.382054,0.789984
28,40,-0.567232,-0.698132,-0.174533,-0.174533,-0.572257,-0.690777,-0.161798,-0.200866,1.00493,-0.411858,-0.382054,0.789984
28,40,-0.567232,-0.698132,-0.174533,-0.174533,-0.572257,-0.690777,-0.161798,-0.200866,1.00493,-0.411858,-0.382054,0.789984
28,40,-0.567232,-0.698132,-0.174533,-0.174533,-0.572257,-0.690777,-0.161798,-0.200866,1.00493,-0.411858,-0.382054,0.789984
28,40,-0.567232,-0.698132,-0.174533,-0.174533,-0.572257,-0.690777,-0.161798,-0.200866,1.00493,-0.411858,-0.382054,0.789984
28,40,-0.567232,-0.698132,-0.174533,-0.174533,-0.572257,-0.690777,-0.161798,-0.200866,1.00493,-0.411858,-0.382054,0.789984
28,40,-0.567232,-0.698132,-0.174533,-0.174533,-0.572257,-0.690777,-0.161798,-0.200866,1.00493,-0.411858,-0.382054,0.789984
28,40,-0.567232,-0.698132,-0.174533,-0.174533,-0.572257,-0.690777,-0.161798,-0.200866,1.00493,-0.411858,-0.382054,0.789984
28,40,-0.567232,-0.698132,-0.174533,-0.174533,-0.572257,-0.690777,-0.161798,-0.200866,1.00493,-0.411858,-0.382054,0.789984
28,40,-0.567232,-0.698132,-0.174533,-0.174533,-0.572257,-0.690777,-0.161798,-0.200866,1.00493,-0.411858,-0.382054,0.789984
28,40,-0.567232,-0.698132,-0.174533,-0.174533,-0.572257,-0.690777,-0.161798,-0.200866,1.00493,-0.411858,-0.382054,0.789984
28,40,-0.567232,-0.698132,-0.174533,-0.174533,-0.572257,-0.690777,-0.161865,-0.200908,1.00493,-0.411858,-0.380045,0.791257
28,40,-0.567232,-0.698132,-0.174533,-0.174533,-0.572257,-0.690777,-0.161865,-0.200908,1.00493,-0.411858,-0.380045,0.791257
28,40,-0.567232,-0.698132,-0.174533,-0.174533,-0.572257,-0.690777,-0.161865,-0.200908,1.00493,-0.411858,-0.380045,0.791257
28,40,-0.567232,-0.698132,-0.174533,-0.174533,-0.572257,-0.690777,-0.161865,-0.200908,1.00493,-0.411858,-0.380045,0.791257
28,40,-0.567232,-0.698132,-0.174533,-0.174533,-0.572257,-0.690777,-0.161865,-0.200908,1.00493,-0.411858,-0.380045,0.791257
28,40,-0.567232,-0.698132,-0.174533,-0.174533,-0.572257,-0.690777,-0.161865,-0.200908,1.00493,-0.411858,-0.380045,0.791257
28,40,-0.567232,-0.698132,-0.174533,-0.174533,-0.572257,-0.690777,-0.161865,-0.200908,1.00493,-0.411858,-0.380045,0.791257
28,40,-0.567232,-0.698132,-0.174533,-0.174533,-0.572257,-0.690777,-0.161865,-0.200908,1.00493,-0.411858,-0.380045,0.791257
28,40,-0.567232,-0.698132,-0.174533,-0.174533,-0.572257,-0.690777,-0.161865,-0.200908,1.00493,-0.411858,-0.380045,0.791257
28,40,-0.567232,-0.698132,-0.174533,-0.174533,-0.572257,-0.690777,-0.161865,-0.200908,1.00493,-0.411858,-0.380045,0.791257
28,40,-0.567232,-0.698132,-0.174533,-0.174533,-0.572257,-0.690777,-0.161865,-0.200908,1.00493,-0.411858,-0.380045,0.791257
28,40,-0.567232,-0.698132,-0.174533,-0.174533,-0.572257,-0.690777,-0.161865,-0.200908,1.00493,-0.411858,-0.380045,0.791257
28,40,-0.567232,-0.698132,-0.174533,-0.174533,-0.572257,-0.690777,-0.161865,-0.200908,1.00493,-0.411858,-0.380045,0.791257
28,40,-0.567232,-0.698132,-0.174533,-0.174533,-0.572257,-0.690777,-0.161865,-0.200908,1.00493,-0.411858,-0.380045,0.791257
28,40,-0.567232,-0.698132,-0.174533,-0.174533,-0.572257,-0.690777,-0.161865,-0.200908,1.00493,-0.411858,-0.380045,0.791257
28,40,-0.567232,-0.698132,-0.174533,-0.174533,-0.572257,-0.690777,-0.161865,-0.200908,1.00493,-0.411858,-0.380045,0.791257
28,40,-0.567232,-0.698132,-0.174533,-0.174533,-0.572257,-0.690777,-0.161865,-0.200908,1.00493,-0.411858,-0.380045,0.791257
28,40,-0.567232,-0.698132,-0.174533,-0.174533,-0.572257,-0.690777,-0.161865,-0.200908,1.00493,-0.411858,-0.380045,0.791257
28,40,-0.567232,-0.698132,-0.174533,-0.174533,-0.572257,-0.690777,-0.161865,-0.200908,1.00493,-0.411858,-0.380045,0.791257
28,40,-0.567232,-0.698132,-0.174533,-0.174533,-0.572257,-0.690777,-0.161865,-0.200908,1.00493,-0.411858,-0.380045,0.791257
28,40,-0.567232,-0.698132,-0.174533,-0.174533,-0.572257,-0.690777,-0.161865,-0.200908,1.00493,-0.411858,-0.380045,0.791257
28,40,-0.567232,-0.698132,-0.174533,-0.174533,-0.572257,-0.690777,-0.161865,-0.200908,1.00493,-0.411858,-0.380045,0.791257
28,40,-0.567232,-0.698132,-0.174533,-0.174533,-0.572257,-0.690777,-0.161865,-0.200908,1.00493,-0.411858,-0.380045,0.791257
28,40,-0.567232,-0.698132,-0.174533,-0.174533,-0.572257,-0.690777,-0.161865,-0.200908,1.00493,-0.411858,-0.380045,0.791257
28,40,-0.567232,-0.698132,-0.174533,-0.174533,-0.572257,-0.690777,-0.161865,-0.200908,1.00493,-0.411858,-0.380045,0.791257
28,40,-0.567232,-0.698132,-0.174533,-0.174533,-0.572257,-0.690777,-0.161865,-0.200908,1.00493,-0.411858,-0.380045,0.791257
28,40,-0.567232,-0.698132,-0.174533,-0.174533,-0.572257,-0.690777,-0.161865,-0.200908,1.00493,-0.411858,-0.380045,0.791257
28,40,-0.567232,-0.698132,-0.174533,-0.174533,-0.572257,-0.690777,-0.161865,-0.200908,1.00493,-0.411858,-0.380045,0.791257
28,40,-0.567232,-0.698132,-0.174533,-0.174533,-0.572257,-0.690777,-0.161865,-0.200908,1.00493,-0.411858,-0.380045,0.791257
28,40,-0.567232,-0.698132,-0.174533,-0.174533,-0.572257,-0.690777,-0.161865,-0.200908,1.00493,-0.411858,-0.380045,0.791257
28,40,-0.567232,-0.698132,-0.174533,-0.174533,-0.572257,-0.690777,-0.161865,-0.200908,1.00493,-0.411858,-0.380045,0.791257
28,40,-0.567232,-0.698132,-0.174533,-0.174533,-0.572257,-0.690777,-0.161865,-0.200908,1.00493,-0.411858,-0.380045,0.791257
28,40,-0.567232,-0.698132,-0.174533,-0.174533,-0.572257,-0.690777,-0.161865,-0.200908,1.00493,-0.411858,-0.380045,0.791257
28,40,-0.567232,-0.698132,-0.174533,-0.174533,-0.572257,-0.690777,-0.161865,-0.200908,1.00493,-0.411858,-0.380045,0.791257
28,40,-0.567232,-0.698132,-0.174533,-0.174533,-0.572257,-0.690777,-0.161865,-0.200908,1.00493,-0.411858,-0.380045,0.791257
28,40,-0.567232,-0.698132,-0.174533,-0.174533,-0.572257,-0.690777,-0.161865,-0.200908,1.00493,-0.411858,-0.380045,0.791257
28,40,-0.567232,-0.698132,-0.174533,-0.174533,-0.572257,-0.690777,-0.161865,-0.200908,1.00493,-0.411858,-0.380045,0.791257
28,40,-0.567232,-0.698132,-0.174533,-0.174533,-0.572257,-0.690777,-0.161865,-0.200908,1.00493,-0.411858,-0.380045,0.791257
28,40,-0.567232,-0.698132,-0.174533,-0.174533,-0.572257,-0.690777,-0.161865,-0.200908,1.00493,-0.411858,-0.380045,0.791257
28,40,-0.567232,-0.698132,-0.174533,-0.174533,-0.572257,-0.690777,-0.161932,-0.200951,1.00493,-0.411858,-0.378035,0.79253
28,40,-0.567232,-0.698132,-0.174533,-0.174533,-0.572257,-0.690777,-0.161932,-0.200951,1.00493,-0.411858,-0.378035,0.79253
28,40,-0.567232,-0.698132,-0.174533,-0.174533,-0.572257,-0.690777,-0.161932,-0.200951,1.00493,-0.411858,-0.378035,0.79253
28,40,-0.567232,-0.698132,-0.174533,-0.174533,-0.572257,-0.690777,-0.161932,-0.200951,1.00493,-0.411858,-0.378035,0.79253
28,40,-0.567232,-0.698132,-0.174533,-0.174533,-0.572257,-0.690777,-0.161932,-0.200951,1.00493,-0.411858,-0.378035,0.79253
28,40,-0.567232,-0.698132,-0.174533,-0.174533,-0.572257,-0.690777,-0.161932,-0.200951,1.00493,-0.411858,-0.378035,0.79253
28,40,-0.567232,-0.698132,-0.174533,-0.174533,-0.572257,-0.690777,-0.161932,-0.200951,1.00493,-0.411858,-0.378035,0.79253
28,40,-0.567232,-0.698132,-0.174533,-0.174533,-0.572257,-0.690777,-0.161932,-0.200951,1.00493,-0.411858,-0.378035,0.79253
28,40,-0.567232,-0.698132,-0.174533,-0.174533,-0.572257,-0.690777,-0.161932,-0.200951,1.00493,-0.411858,-0.378035,0.79253
28,40,-0.567232,-0.698132,-0.174533,-0.174533,-0.572257,-0.690777,-0.161932,-0.200951,1.00493,-0.411858,-0.378035,0.79253
28,40,-0.567232,-0.698132,-0.174533,-0.174533,-0.572257,-0.690777,-0.161932,-0.200951,1.00493,-0.411858,-0.378035,0.79253
28,40,-0.567232,-0.698132,-0.174533,-0.174533,-0.572257,-0.690777,-0.161932,-0.200951,1.00493,-0.411858,-0.378035,0.79253
28,40,-0.567232,-0.698132,-0.174533,-0.174533,-0.572257,-0.690777,-0.161932,-0.200951,1.00493,-0.411858,-0.378035,0.79253
28,40,-0.567232,-0.698132,-0.174533,-0.174533,-0.572257,-0.690777,-0.161932,-0.200951,1.00493,-0.411858,-0.378035,0.79253
28,40,-0.567232,-0.698132,-0.174533,-0.174533,-0.572257,-0.690777,-0.161932,-0.200951,1.00493,-0.411858,-0.378035,0.79253
28,40,-0.567232,-0.698132,-0.174533,-0.174533,-0.572257,-0.690777,-0.161932,-0.200951,1.00493,-0.411858,-0.378035,0.79253
28,40,-0.567232,-0.698132,-0.174533,-0.174533,-0.572257,-0.690777,-0.161932,-0.200951,1.00493,-0.411858,-0.378035,0.79253
28,40,-0.567232,-0.698132,-0.174533,-0.174533,-0.572257,-0.690777,-0.161932,-0.200951,1.00493,-0.411858,-0.378035,0.79253
28,40,-0.567232,-0.698132,-0.174533,-0.174533,-0.572257,-0.690777,-0.161932,-0.200951,1.00493,-0.411858,-0.378035,0.79253
28,40,-0.567232,-0.698132,-0.174533,-0.174533,-0.572257,-0.690777,-0.161932,-0.200951,1.00493,-0.411858,-0.378035,0.79253
28,40,-0.567232,-0.698132,-0.174533,-0.174533,-0.572257,-0.690777,-0.161932,-0.200951,1.00493,-0.411858,-0.378035,0.79253
28,40,-0.567232,-0.698132,-0.174533,-0.174533,-0.572257,-0.690777,-0.161932,-0.200951,1.00493,-0.411858,-0.378035,0.79253
28,40,-0.567232,-0.698132,-0.174533,-0.174533,-0.572257,-0.690777,-0.161932,-0.200951,1.00493,-0.411858,-0.378035,0.79253
28,40,-0.567232,-0.698132,-0.174533,-0.174533,-0.572257,-0.690777,-0.161932,-0.200951,1.00493,-0.411858,-0.378035,0.79253
28,40,-0.567232,-0.698132,-0.174533,-0.174533,-0.572257,-0.690777,-0.161932,-0.200951,1.00493,-0.411858,-0.378035,0.79253
28,40,-0.567232,-0.698132,-0.174533,-0.174533,-0.572257,-0.690777,-0.161932,-0.200951,1.00493,-0.411858,-0.378035,0.79253
28,40,-0.567232,-0.698132,-0.174533,-0.174533,-0.572257,-0.690777,-0.161932,-0.200951,1.00493,-0.411858,-0.378035,0.79253
28,40,-0.567232,-0.698132,-0.174533,-0.174533,-0.572257,-0.690777,-0.161932,-0.200951,1.00493,-0.411858,-0.378035,0.79253
28,40,-0.567232,-0.698132,-0.174533,-0.174533,-0.572257,-0.690777,-0.161932,-0.200951,1.00493,-0.411858,-0.378035,0.79253
28,40,-0.567232,-0.698132,-0.174533,-0.174533,-0.572257,-0.690777,-0.161932,-0.200951,1.00493,-0.411858,-0.378035,0.79253
28,40,-0.567232,-0.698132,-0.174533,-0.174533,-0.572257,-0.690777,-0.161932,-0.200951,1.00493,-0.411858,-0.378035,0.79253
28,40,-0.567232,-0.698132,-0.174533,-0.174533,-0.572257,-0.690777,-0.161932,-0.200951,1.00493,-0.411858,-0.378035,0.79253
28,40,-0.567232,-0.698132,-0.174533,-0.174533,-0.572257,-0.690777,-0.161932,-0.200951,1.00493,-0.411858,-0.378035,0.79253
28,40,-0.567232,-0.698132,-0.174533,-0.174533,-0.572257,-0.690777,-0.161999,-0.200993,1.00493,-0.411858,-0.376025,0.793803
28,40,-0.567232,-0.698132,-0.174533,-0.174533,-0.572257,-0.690777,-0.161999,-0.200993,1.00493,-0.411858,-0.376025,0.793803
28,40,-0.567232,-0.698132,-0.174533,-0.174533,-0.572257,-0.690777,-0.161999,-0.200993,1.00493,-0.411858,-0.376025,0.793803
28,40,-0.567232,-0.698132,-0.174533,-0.174533,-0.572257,-0.690777,-0.161999,-0.200993,1.00493,-0.411858,-0.376025,0.793803
28,40,-0.567232,-0.698132,-0.174533,-0.174533,-0.572257,-0.690777,-0.161999,-0.200993,1.00493,-0.411858,-0.376025,0.793803
28,40,-0.567232,-0.698132,-0.174533,-0.174533,-0.572257,-0.690777,-0.161999,-0.200993,1.00493,-0.411858,-0.376025,0.793803
28,40,-0.567232,-0.698132,-0.174533,-0.174533,-0.572257,-0.690777,-0.161999,-0.200993,1.00493,-0.411858,-0.376025,0.793803
28,40,-0.567232,-0.698132,-0.174533,-0.174533,-0.572257,-0.690777,-0.161999,-0.200993,1.00493,-0.411858,-0.376025,0.793803
28,40,-0.567232,-0.698132,-0.174533,-0.174533,-0.572257,-0.690777,-0.161999,-0.200993,1.00493,-0.411858,-0.376025,0.793803
28,40,-0.567232,-0.698132,-0.174533,-0.174533,-0.572257,-0.690777,-0.161999,-0.200993,1.00493,-0.411858,-0.376025,0.793803
28,40,-0.567232,-0.698132,-0.174533,-0.174533,-0.572257,-0.690777,-0.161999,-0.200993,1.00493,-0.411858,-0.376025,0.793803
28,40,-0.567232,-0.698132,-0.174533,-0.174533,-0.572257,-0.690777,-0.161999,-0.200993,1.00493,-0.411858,-0.376025,0.793803
28,40,-0.567232,-0.698132,-0.174533,-0.174533,-0.572257,-0.690777,-0.161999,-0.200993,1.00493,-0.411858,-0.376025,0.793803
28,40,-0.567232,-0.698132,-0.174533,-0.174533,-0.572257,-0.690777,-0.161999,-0.200993,1.00493,-0.411858,-0.376025,0.793803
28,40,-0.567232,-0.698132,-0.174533,-0.174533,-0.572257,-0.690777,-0.161999,-0.200993,1.00493,-0.411858,-0.376025,0.793803
28,40,-0.567232,-0.698132,-0.174533,-0.174533,-0.572257,-0.690777,-0.161999,-0.200993,1.00493,-0.411858,-0.376025,0.793803
28,40,-0.567232,-0.698132,-0.174533,-0.174533,-0.572257,-0.690777,-0.161999,-0.200993,1.00493,-0.411858,-0.376025,0.793803
28,40,-0.567232,-0.698132,-0.174533,-0.174533,-0.572257,-0.690777,-0.161999,-0.200993,1.00493,-0.411858,-0.376025,0.793803
28,40,-0.567232,-0.698132,-0.174533,-0.174533,-0.572257,-0.690777,-0.161999,-0.200993,1.00493,-0.411858,-0.376025,0.793803
28,40,-0.567232,-0.698132,-0.174533,-0.174533,-0.572257,-0.690777,-0.161999,-0.200993,1.00493,-0.411858,-0.376025,0.793803
28,40,-0.567232,-0.698132,-0.174533,-0.174533,-0.572257,-0.690777,-0.161999,-0.200993,1.00493,-0.411858,-0.376025,0.793803
28,40,-0.567232,-0.698132,-0.174533,-0.174533,-0.572257,-0.690777,-0.161999,-0.200993,1.00493,-0.411858,-0.376025,0.793803
28,40,-0.567232,-0.698132,-0.174533,-0.174533,-0.572257,-0.690777,-0.161999,-0.200993,1.00493,-0.411858,-0.376025,0.793803
28,40,-0.567232,-0.698132,-0.174533,-0.174533,-0.572257,-0.690777,-0.161999,-0.200993,1.00493,-0.411858,-0.376025,0.793803
28,40,-0.567232,-0.698132,-0.174533,-0.174533,-0.572257,-0.690777,-0.161999,-0.200993,1.00493,-0.411858,-0.376025,0.793803
28,40,-0.567232,-0.698132,-0.174533,-0.174533,-0.572257,-0.690777,-0.161938,-0.201012,1.00493,-0.411858,-0.377857,0.794374
28,40,-0.567232,-0.698132,-0.174533,-0.174533,-0.572257,-0.690777,-0.161938,-0.201012,1.00493,-0.411858,-0.377857,0.794374
28,40,-0.567232,-0.698132,-0.174533,-0.174533,-0.572257,-0.690777,-0.161938,-0.201012,1.00493,-0.411858,-0.377857,0.794374
28,40,-0.567232,-0.698132,-0.174533,-0.174533,-0.572257,-0.690777,-0.161938,-0.201012,1.00493,-0.411858,-0.377857,0.794374
28,40,-0.567232,-0.698132,-0.174533,-0.174533,-0.572257,-0.690777,-0.161938,-0.201012,1.00493,-0.411858,-0.377857,0.794374
28,40,-0.567232,-0.698132,-0.174533,-0.174533,-0.572257,-0.690777,-0.161938,-0.201012,1.00493,-0.411858,-0.377857,0.794374
28,40,-0.567232,-0.698132,-0.174533,-0.174533,-0.572257,-0.690777,-0.161938,-0.201012,1.00493,-0.411858,-0.377857,0.794374
28,40,-0.567232,-0.698132,-0.174533,-0.174533,-0.572257,-0.690777,-0.161938,-0.201012,1.00493,-0.411858,-0.377857,0.794374
28,40,-0.567232,-0.698132,-0.174533,-0.174533,-0.572257,-0.690777,-0.161938,-0.201012,1.00493,-0.411858,-0.377857,0.794374
28,40,-0.567232,-0.698132,-0.174533,-0.174533,-0.572257,-0.690777,-0.161938,-0.201012,1.00493,-0.411858,-0.377857,0.794374
28,40,-0.567232,-0.698132,-0.174533,-0.174533,-0.572257,-0.690777,-0.161938,-0.201012,1.00493,-0.411858,-0.377857,0.794374
28,40,-0.567232,-0.698132,-0.174533,-0.174533,-0.572257,-0.690777,-0.161938,-0.201012,1.00493,-0.411858,-0.377857,0.794374
28,40,-0.567232,-0.698132,-0.174533,-0.174533,-0.572257,-0.690777,-0.161938,-0.201012,1.00493,-0.411858,-0.377857,0.794374
28,40,-0.567232,-0.698132,-0.174533,-0.174533,-0.572257,-0.690777,-0.161938,-0.201012,1.00493,-0.411858,-0.377857,0.794374
28,40,-0.567232,-0.698132,-0.174533,-0.174533,-0.572257,-0.690777,-0.161938,-0.201012,1.00493,-0.411858,-0.377857,0.794374
28,40,-0.567232,-0.698132,-0.174533,-0.174533,-0.572257,-0.690777,-0.161938,-0.201012,1.00493,-0.411858,-0.377857,0.794374
28,40,-0.567232,-0.698132,-0.174533,-0.174533,-0.572257,-0.690777,-0.161938,-0.201012,1.00493,-0.411858,-0.377857,0.794374
28,40,-0.567232,-0.698132,-0.174533,-0.174533,-0.572257,-0.690777,-0.161938,-0.201012,1.00493,-0.411858,-0.377857,0.794374
28,40,-0.567232,-0.698132,-0.174533,-0.174533,-0.572257,-0.690777,-0.161938,-0.201012,1.00493,-0.411858,-0.377857,0.794374
28,40,-0.567232,-0.698132,-0.174533,-0.174533,-0.572257,-0.690777,-0.161938,-0.201012,1.00493,-0.411858,-0.377857,0.794374
28,40,-0.567232,-0.698132,-0.174533,-0.174533,-0.572257,-0.690777,-0.161938,-0.201012,1.00493,-0.411858,-0.377857,0.794374
28,40,-0.567232,-0.698132,-0.174533,-0.174533,-0.572257,-0.690777,-0.161877,-0.201031,1.00493,-0.411858,-0.37969,0.794946
28,40,-0.567232,-0.698132,-0.174533,-0.174533,-0.572257,-0.690777,-0.161877,-0.201031,1.00493,-0.411858,-0.37969,0.794946
28,40,-0.567232,-0.698132,-0.174533,-0.174533,-0.572257,-0.690777,-0.161877,-0.201031,1.00493,-0.411858,-0.37969,0.794946
28,40,-0.567232,-0.698132,-0.174533,-0.174533,-0.572257,-0.690777,-0.161877,-0.201031,1.00493,-0.411858,-0.37969,0.794946
28,40,-0.567232,-0.698132,-0.174533,-0.174533,-0.572257,-0.690777,-0.161877,-0.201031,1.00493,-0.411858,-0.37969,0.794946
28,40,-0.567232,-0.698132,-0.174533,-0.174533,-0.572257,-0.690777,-0.161877,-0.201031,1.00493,-0.411858,-0.37969,0.794946
28,40,-0.567232,-0.698132,-0.174533,-0.174533,-0.572257,-0.690777,-0.161877,-0.201031,1.00493,-0.411858,-0.37969,0.794946
28,40,-0.567232,-0.698132,-0.174533,-0.174533,-0.572257,-0.690777,-0.161877,-0.201031,1.00493,-0.411858,-0.37969,0.794946
28,40,-0.567232,-0.698132,-0.174533,-0.174533,-0.572257,-0.690777,-0.161877,-0.201031,1.00493,-0.411858,-0.37969,0.794946
28,40,-0.567232,-0.698132,-0.174533,-0.174533,-0.572257,-0.690777,-0.161877,-0.201031,1.00493,-0.411858,-0.37969,0.794946
28,40,-0.567232,-0.698132,-0.174533,-0.174533,-0.572257,-0.690777,-0.161877,-0.201031,1.00493,-0.411858,-0.37969,0.794946
28,40,-0.567232,-0.698132,-0.174533,-0.174533,-0.572257,-0.690777,-0.161815,-0.20105,1.00493,-0.411858,-0.381523,0.795518
28,40,-0.567232,-0.698132,-0.174533,-0.174533,-0.572257,-0.690777,-0.161815,-0.20105,1.00493,-0.411858,-0.381523,0.795518
28,40,-0.567232,-0.698132,-0.174533,-0.174533,-0.572257,-0.690777,-0.161815,-0.20105,1.00493,-0.411858,-0.381523,0.795518
28,40,-0.567232,-0.698132,-0.174533,-0.174533,-0.572257,-0.690777,-0.161815,-0.20105,1.00493,-0.411858,-0.381523,0.795518
28,40,-0.567232,-0.698132,-0.174533,-0.174533,-0.572257,-0.690777,-0.161815,-0.20105,1.00493,-0.411858,-0.381523,0.795518
28,40,-0.567232,-0.698132,-0.174533,-0.174533,-0.572257,-0.690777,-0.161815,-0.20105,1.00493,-0.411858,-0.381523,0.795518
28,40,-0.567232,-0.698132,-0.174533,-0.174533,-0.572257,-0.690777,-0.161815,-0.20105,1.00493,-0.411858,-0.381523,0.795518
28,40,-0.567232,-0.698132,-0.174533,-0.174533,-0.572257,-0.690777,-0.161815,-0.20105,1.00493,-0.411858,-0.381523,0.795518
28,40,-0.567232,-0.698132,-0.174533,-0.174533,-0.572257,-0.690777,-0.161815,-0.20105,1.00493,-0.411858,-0.381523,0.795518
28,40,-0.567232,-0.698132,-0.174533,-0.174533,-0.572257,-0.690777,-0.161754,-0.201069,1.00493,-0.411858,-0.383356,0.79609
28,40,-0.567232,-0.698132,-0.174533,-0.174533,-0.572257,-0.690777,-0.161754,-0.201069,1.00493,-0.411858,-0.383356,0.79609
28,40,-0.567232,-0.698132,-0.174533,-0.174533,-0.572257,-0.690777,-0.161754,-0.201069,1.00493,-0.411858,-0.383356,0.79609
28,40,-0.567232,-0.698132,-0.174533,-0.174533,-0.572257,-0.690777,-0.161754,-0.201069,1.00493,-0.411858,-0.383356,0.79609
28,40,-0.567232,-0.698132,-0.174533,-0.174533,-0.572257,-0.690777,-0.161754,-0.201069,1.00493,-0.411858,-0.383356,0.79609
28,40,-0.567232,-0.698132,-0.174533,-0.174533,-0.572257,-0.690777,-0.161754,-0.201069,1.00493,-0.411858,-0.383356,0.79609
28,40,-0.567232,-0.698132,-0.174533,-0.174533,-0.572257,-0.690777,-0.161754,-0.201069,1.00493,-0.411858,-0.383356,0.79609
28,40,-0.567232,-0.698132,-0.174533,-0.174533,-0.572257,-0.690777,-0.161821,-0.201112,1.00493,-0.411858,-0.381346,0.797363
28,40,-0.567232,-0.698132,-0.174533,-0.174533,-0.572257,-0.690777,-0.161821,-0.201112,1.00493,-0.411858,-0.381346,0.797363
28,40,-0.567232,-0.698132,-0.174533,-0.174533,-0.572257,-0.690777,-0.161821,-0.201112,1.00493,-0.411858,-0.381346,0.797363
28,40,-0.567232,-0.698132,-0.174533,-0.174533,-0.572257,-0.690777,-0.161821,-0.201112,1.00493,-0.411858,-0.381346,0.797363
28,40,-0.567232,-0.698132,-0.174533,-0.174533,-0.572257,-0.690777,-0.161821,-0.201112,1.00493,-0.411858,-0.381346,0.797363
28,40,-0.567232,-0.698132,-0.174533,-0.174533,-0.572257,-0.690777,-0.161821,-0.201112,1.00493,-0.411858,-0.381346,0.797363
28,40,-0.567232,-0.698132,-0.174533,-0.174533,-0.572257,-0.690777,-0.161821,-0.201112,1.00493,-0.411858,-0.381346,0.797363
28,40,-0.567232,-0.698132,-0.174533,-0.174533,-0.572257,-0.690777,-0.16176,-0.201131,1.00493,-0.411858,-0.383267,0.797963
28,40,-0.567232,-0.698132,-0.174533,-0.174533,-0.572257,-0.690777,-0.16176,-0.201131,1.00493,-0.411858,-0.383267,0.797963
28,40,-0.567232,-0.698132,-0.174533,-0.174533,-0.572257,-0.690777,-0.16176,-0.201131,1.00493,-0.411858,-0.383267,0.797963
28,40,-0.567232,-0.698132,-0.174533,-0.174533,-0.572257,-0.690777,-0.16176,-0.201131,1.00493,-0.411858,-0.383267,0.797963
28,40,-0.567232,-0.698132,-0.174533,-0.174533,-0.572257,-0.690777,-0.16176,-0.201131,1.00493,-0.411858,-0.383267,0.797963
28,40,-0.567232,-0.698132,-0.174533,-0.174533,-0.572257,-0.690777,-0.16176,-0.201131,1.00493,-0.411858,-0.383267,0.797963
28,40,-0.567232,-0.698132,-0.174533,-0.174533,-0.572257,-0.690777,-0.16176,-0.201131,1.00493,-0.411858,-0.383267,0.797963
28,40,-0.567232,-0.698132,-0.174533,-0.174533,-0.572257,-0.690777,-0.16176,-0.201131,1.00493,-0.411858,-0.383267,0.797963
28,40,-0.567232,-0.698132,-0.174533,-0.174533,-0.572257,-0.690777,-0.16176,-0.201131,1.00493,-0.411858,-0.383267,0.797963
28,40,-0.567232,-0.698132,-0.174533,-0.174533,-0.572257,-0.690777,-0.16176,-0.201131,1.00493,-0.411858,-0.383267,0.797963
28,40,-0.567232,-0.698132,-0.174533,-0.174533,-0.572257,-0.690777,-0.16176,-0.201131,1.00493,-0.411858,-0.383267,0.797963
28,40,-0.567232,-0.698132,-0.174533,-0.174533,-0.572257,-0.690777,-0.16176,-0.201131,1.00493,-0.411858,-0.383267,0.797963
28,40,-0.567232,-0.698132,-0.174533,-0.174533,-0.572257,-0.690777,-0.16176,-0.201131,1.00493,-0.411858,-0.383267,0.797963
28,40,-0.567232,-0.698132,-0.174533,-0.174533,-0.572257,-0.690777,-0.16176,-0.201131,1.00493,-0.411858,-0.383267,0.797963
28,40,-0.567232,-0.698132,-0.174533,-0.174533,-0.572257,-0.690777,-0.16176,-0.201131,1.00493,-0.411858,-0.383267,0.797963
28,40,-0.567232,-0.698132,-0.174533,-0.174533,-0.572257,-0.690777,-0.16176,-0.201131,1.00493,-0.411858,-0.383267,0.797963
28,40,-0.567232,-0.698132,-0.174533,-0.174533,-0.572257,-0.690777,-0.16176,-0.201131,1.00493,-0.411858,-0.383267,0.797963
28,40,-0.567232,-0.698132,-0.174533,-0.174533,-0.572257,-0.690777,-0.16176,-0.201131,1.00493,-0.411858,-0.383267,0.797963
28,40,-0.567232,-0.698132,-0.174533,-0.174533,-0.572257,-0.690777,-0.16176,-0.201131,1.00493,-0.411858,-0.383267,0.797963
28,40,-0.567232,-0.698132,-0.174533,-0.174533,-0.572257,-0.690777,-0.16176,-0.201131,1.00493,-0.411858,-0.383267,0.797963
28,40,-0.567232,-0.698132,-0.174533,-0.174533,-0.572257,-0.690777,-0.161827,-0.201173,1.00493,-0.411858,-0.381257,0.799236
28,40,-0.567232,-0.698132,-0.174533,-0.174533,-0.572257,-0.690777,-0.161827,-0.201173,1.00493,-0.411858,-0.381257,0.799236
28,40,-0.567232,-0.698132,-0.174533,-0.174533,-0.572257,-0.690777,-0.161827,-0.201173,1.00493,-0.411858,-0.381257,0.799236
28,40,-0.567232,-0.698132,-0.174533,-0.174533,-0.572257,-0.690777,-0.161827,-0.201173,1.00493,-0.411858,-0.381257,0.799236
28,40,-0.567232,-0.698132,-0.174533,-0.174533,-0.572257,-0.690777,-0.161827,-0.201173,1.00493,-0.411858,-0.381257,0.799236
28,40,-0.567232,-0.698132,-0.174533,-0.174533,-0.572257,-0.690777,-0.161827,-0.201173,1.00493,-0.411858,-0.381257,0.799236
28,40,-0.567232,-0.698132,-0.174533,-0.174533,-0.572257,-0.690777,-0.161827,-0.201173,1.00493,-0.411858,-0.381257,0.799236
28,40,-0.567232,-0.698132,-0.174533,-0.174533,-0.572257,-0.690777,-0.161827,-0.201173,1.00493,-0.411858,-0.381257,0.799236
28,40,-0.567232,-0.698132,-0.174533,-0.174533,-0.572257,-0.690777,-0.161766,-0.201192,1.00493,-0.411858,-0.383081,0.799805
28,40,-0.567232,-0.698132,-0.174533,-0.174533,-0.572257,-0.690777,-0.161766,-0.201192,1.00493,-0.411858,-0.383081,0.799805
28,40,-0.567232,-0.698132,-0.174533,-0.174533,-0.572257,-0.690777,-0.161766,-0.201192,1.00493,-0.411858,-0.383081,0.799805
28,40,-0.567232,-0.698132,-0.174533,-0.174533,-0.572257,-0.690777,-0.161766,-0.201192,1.00493,-0.411858,-0.383081,0.799805
28,40,-0.567232,-0.698132,-0.174533,-0.174533,-0.572257,-0.690777,-0.161766,-0.201192,1.00493,-0.411858,-0.383081,0.799805
28,40,-0.567232,-0.698132,-0.174533,-0.174533,-0.572257,-0.690777,-0.161766,-0.201192,1.00493,-0.411858,-0.383081,0.799805
28,40,-0.567232,-0.698132,-0.174533,-0.174533,-0.572257,-0.690777,-0.161766,-0.201192,1.00493,-0.411858,-0.383081,0.799805
28,40,-0.567232,-0.698132,-0.174533,-0.174533,-0.572257,-0.690777,-0.161766,-0.201192,1.00493,-0.411858,-0.383081,0.799805
28,40,-0.567232,-0.698132,-0.174533,-0.174533,-0.572257,-0.690777,-0.161766,-0.201192,1.00493,-0.411858,-0.383081,0.799805
28,40,-0.567232,-0.698132,-0.174533,-0.174533,-0.572257,-0.690777,-0.161766,-0.201192,1.00493,-0.411858,-0.383081,0.799805
28,40,-0.567232,-0.698132,-0.174533,-0.174533,-0.572257,-0.690777,-0.161766,-0.201192,1.00493,-0.411858,-0.383081,0.799805
28,40,-0.567232,-0.698132,-0.174533,-0.174533,-0.572257,-0.690777,-0.161766,-0.201192,1.00493,-0.411858,-0.383081,0.799805
28,40,-0.567232,-0.698132,-0.174533,-0.174533,-0.572257,-0.690777,-0.161833,-0.201235,1.00493,-0.411858,-0.381071,0.801078
28,40,-0.567232,-0.698132,-0.174533,-0.174533,-0.572257,-0.690777,-0.161833,-0.201235,1.00493,-0.411858,-0.381071,0.801078
28,40,-0.567232,-0.698132,-0.174533,-0.174533,-0.572257,-0.690777,-0.161833,-0.201235,1.00493,-0.411858,-0.381071,0.801078
28,40,-0.567232,-0.698132,-0.174533,-0.174533,-0.572257,-0.690777,-0.161833,-0.201235,1.00493,-0.411858,-0.381071,0.801078
28,40,-0.567232,-0.698132,-0.174533,-0.174533,-0.572257,-0.690777,-0.161772,-0.201254,1.00493,-0.411858,-0.382898,0.801648
28,40,-0.567232,-0.698132,-0.174533,-0.174533,-0.572257,-0.690777,-0.161772,-0.201254,1.00493,-0.411858,-0.382898,0.801648
28,40,-0.567232,-0.698132,-0.174533,-0.174533,-0.572257,-0.690777,-0.161772,-0.201254,1.00493,-0.411858,-0.382898,0.801648
28,40,-0.567232,-0.698132,-0.174533,-0.174533,-0.572257,-0.690777,-0.161772,-0.201254,1.00493,-0.411858,-0.382898,0.801648
28,40,-0.567232,-0.698132,-0.174533,-0.174533,-0.572257,-0.690777,-0.161772,-0.201254,1.00493,-0.411858,-0.382898,0.801648
28,40,-0.567232,-0.698132,-0.174533,-0.174533,-0.572257,-0.690777,-0.161772,-0.201254,1.00493,-0.411858,-0.382898,0.801648
28,40,-0.567232,-0.698132,-0.174533,-0.174533,-0.572257,-0.690777,-0.161772,-0.201254,1.00493,-0.411858,-0.382898,0.801648
28,40,-0.567232,-0.698132,-0.174533,-0.174533,-0.572257,-0.690777,-0.161772,-0.201254,1.00493,-0.411858,-0.382898,0.801648
28,40,-0.567232,-0.698132,-0.174533,-0.174533,-0.572257,-0.690777,-0.161772,-0.201254,1.00493,-0.411858,-0.382898,0.801648
28,40,-0.567232,-0.698132,-0.174533,-0.174533,-0.572257,-0.690777,-0.161772,-0.201254,1.00493,-0.411858,-0.382898,0.801648
28,40,-0.567232,-0.698132,-0.174533,-0.174533,-0.572257,-0.690777,-0.161772,-0.201254,1.00493,-0.411858,-0.382898,0.801648
28,40,-0.567232,-0.698132,-0.174533,-0.174533,-0.572257,-0.690777,-0.161772,-0.201254,1.00493,-0.411858,-0.382898,0.801648
28,40,-0.567232,-0.698132,-0.174533,-0.174533,-0.572257,-0.690777,-0.161772,-0.201254,1.00493,-0.411858,-0.382898,0.801648
28,40,-0.567232,-0.698132,-0.174533,-0.174533,-0.572257,-0.690777,-0.161772,-0.201254,1.00493,-0.411858,-0.382898,0.801648
28,40,-0.567232,-0.698132,-0.174533,-0.174533,-0.572257,-0.690777,-0.161772,-0.201254,1.00493,-0.411858,-0.382898,0.801648
28,40,-0.567232,-0.698132,-0.174533,-0.174533,-0.572257,-0.690777,-0.161772,-0.201254,1.00493,-0.411858,-0.382898,0.801648
28,40,-0.567232,-0.698132,-0.174533,-0.174533,-0.572257,-0.690777,-0.161772,-0.201254,1.00493,-0.411858,-0.382898,0.801648
28,40,-0.567232,-0.698132,-0.174533,-0.174533,-0.572257,-0.690777,-0.161772,-0.201254,1.00493,-0.411858,-0.382898,0.801648
28,40,-0.567232,-0.698132,-0.174533,-0.174533,-0.572257,-0.690777,-0.161772,-0.201254,1.00493,-0.411858,-0.382898,0.801648
28,40,-0.567232,-0.698132,-0.174533,-0.174533,-0.572257,-0.690777,-0.161772,-0.201254,1.00493,-0.411858,-0.382898,0.801648
28,40,-0.567232,-0.698132,-0.174533,-0.174533,-0.572257,-0.690777,-0.161772,-0.201254,1.00493,-0.411858,-0.382898,0.801648
28,40,-0.567232,-0.698132,-0.174533,-0.174533,-0.572257,-0.690777,-0.161772,-0.201254,1.00493,-0.411858,-0.382898,0.801648
28,40,-0.567232,-0.698132,-0.174533,-0.174533,-0.572257,-0.690777,-0.161772,-0.201254,1.00493,-0.411858,-0.382898,0.801648
28,40,-0.567232,-0.698132,-0.174533,-0.174533,-0.572257,-0.690777,-0.161772,-0.201254,1.00493,-0.411858,-0.382898,0.801648
28,40,-0.567232,-0.698132,-0.174533,-0.174533,-0.572257,-0.690777,-0.161772,-0.201254,1.00493,-0.411858,-0.382898,0.801648
28,40,-0.567232,-0.698132,-0.174533,-0.174533,-0.572257,-0.690777,-0.161769,-0.201194,1.00493,-0.411858,-0.382989,0.799866
28,40,-0.567232,-0.698132,-0.174533,-0.174533,-0.572257,-0.690777,-0.161708,-0.201213,1.00493,-0.411858,-0.384807,0.800433
28,40,-0.567232,-0.698132,-0.174533,-0.174533,-0.572257,-0.690777,-0.161708,-0.201213,1.00493,-0.411858,-0.384807,0.800433
28,40,-0.567232,-0.698132,-0.174533,-0.174533,-0.572257,-0.690777,-0.161708,-0.201213,1.00493,-0.411858,-0.384807,0.800433
28,40,-0.567232,-0.698132,-0.174533,-0.174533,-0.572257,-0.690777,-0.161708,-0.201213,1.00493,-0.411858,-0.384807,0.800433
28,40,-0.567232,-0.698132,-0.174533,-0.174533,-0.572257,-0.690777,-0.161708,-0.201213,1.00493,-0.411858,-0.384807,0.800433
28,40,-0.567232,-0.698132,-0.174533,-0.174533,-0.572257,-0.690777,-0.161708,-0.201213,1.00493,-0.411858,-0.384807,0.800433
28,40,-0.567232,-0.698132,-0.174533,-0.174533,-0.572257,-0.690777,-0.161708,-0.201213,1.00493,-0.411858,-0.384807,0.800433
28,40,-0.567232,-0.698132,-0.174533,-0.174533,-0.572257,-0.690777,-0.161708,-0.201213,1.00493,-0.411858,-0.384807,0.800433
28,40,-0.567232,-0.698132,-0.174533,-0.174533,-0.572257,-0.690777,-0.161708,-0.201213,1.00493,-0.411858,-0.384807,0.800433
28,40,-0.567232,-0.698132,-0.174533,-0.174533,-0.572257,-0.690777,-0.161708,-0.201213,1.00493,-0.411858,-0.384807,0.800433
28,40,-0.567232,-0.698132,-0.174533,-0.174533,-0.572257,-0.690777,-0.161708,-0.201213,1.00493,-0.411858,-0.384807,0.800433
28,40,-0.567232,-0.698132,-0.174533,-0.174533,-0.572257,-0.690777,-0.161708,-0.201213,1.00493,-0.411858,-0.384807,0.800433
28,40,-0.567232,-0.698132,-0.174533,-0.174533,-0.572257,-0.690777,-0.161708,-0.201213,1.00493,-0.411858,-0.384807,0.800433
28,40,-0.567232,-0.698132,-0.174533,-0.174533,-0.572257,-0.690777,-0.161708,-0.201213,1.00493,-0.411858,-0.384807,0.800433
28,40,-0.567232,-0.698132,-0.174533,-0.174533,-0.572257,-0.690777,-0.161708,-0.201213,1.00493,-0.411858,-0.384807,0.800433
28,40,-0.567232,-0.698132,-0.174533,-0.174533,-0.572257,-0.690777,-0.161708,-0.201213,1.00493,-0.411858,-0.384807,0.800433
28,40,-0.567232,-0.698132,-0.174533,-0.174533,-0.572257,-0.690777,-0.161708,-0.201213,1.00493,-0.411858,-0.384807,0.800433
28,40,-0.567232,-0.698132,-0.174533,-0.174533,-0.572257,-0.690777,-0.161775,-0.201256,1.00493,-0.411858,-0.382797,0.801706
28,40,-0.567232,-0.698132,-0.174533,-0.174533,-0.572257,-0.690777,-0.161775,-0.201256,1.00493,-0.411858,-0.382797,0.801706
28,40,-0.567232,-0.698132,-0.174533,-0.174533,-0.572257,-0.690777,-0.161775,-0.201256,1.00493,-0.411858,-0.382797,0.801706
28,40,-0.567232,-0.698132,-0.174533,-0.174533,-0.572257,-0.690777,-0.161775,-0.201256,1.00493,-0.411858,-0.382797,0.801706
28,40,-0.567232,-0.698132,-0.174533,-0.174533,-0.572257,-0.690777,-0.161775,-0.201256,1.00493,-0.411858,-0.382797,0.801706
28,40,-0.567232,-0.698132,-0.174533,-0.174533,-0.572257,-0.690777,-0.161775,-0.201256,1.00493,-0.411858,-0.382797,0.801706
28,40,-0.567232,-0.698132,-0.174533,-0.174533,-0.572257,-0.690777,-0.161775,-0.201256,1.00493,-0.411858,-0.382797,0.801706
28,40,-0.567232,-0.698132,-0.174533,-0.174533,-0.572257,-0.690777,-0.161775,-0.201256,1.00493,-0.411858,-0.382797,0.801706
28,40,-0.567232,-0.698132,-0.174533,-0.174533,-0.572257,-0.690777,-0.161775,-0.201256,1.00493,-0.411858,-0.382797,0.801706
28,40,-0.567232,-0.698132,-0.174533,-0.174533,-0.572257,-0.690777,-0.161775,-0.201256,1.00493,-0.411858,-0.382797,0.801706
28,40,-0.567232,-0.698132,-0.174533,-0.174533,-0.572257,-0.690777,-0.161775,-0.201256,1.00493,-0.411858,-0.382797,0.801706
28,40,-0.567232,-0.698132,-0.174533,-0.174533,-0.572257,-0.690777,-0.161775,-0.201256,1.00493,-0.411858,-0.382797,0.801706
28,40,-0.567232,-0.698132,-0.174533,-0.174533,-0.572257,-0.690777,-0.161775,-0.201256,1.00493,-0.411858,-0.382797,0.801706
28,40,-0.567232,-0.698132,-0.174533,-0.174533,-0.572257,-0.690777,-0.161775,-0.201256,1.00493,-0.411858,-0.382797,0.801706
28,40,-0.567232,-0.698132,-0.174533,-0.174533,-0.572257,-0.690777,-0.161775,-0.201256,1.00493,-0.411858,-0.382797,0.801706
28,40,-0.567232,-0.698132,-0.174533,-0.174533,-0.572257,-0.690777,-0.161775,-0.201256,1.00493,-0.411858,-0.382797,0.801706
28,40,-0.567232,-0.698132,-0.174533,-0.174533,-0.572257,-0.690777,-0.161775,-0.201256,1.00493,-0.411858,-0.382797,0.801706
28,40,-0.567232,-0.698132,-0.174533,-0.174533,-0.572257,-0.690777,-0.161775,-0.201256,1.00493,-0.411858,-0.382797,0.801706
28,40,-0.567232,-0.698132,-0.174533,-0.174533,-0.572257,-0.690777,-0.161775,-0.201256,1.00493,-0.411858,-0.382797,0.801706
28,40,-0.567232,-0.698132,-0.174533,-0.174533,-0.572257,-0.690777,-0.161775,-0.201256,1.00493,-0.411858,-0.382797,0.801706
28,40,-0.567232,-0.698132,-0.174533,-0.174533,-0.572257,-0.690777,-0.161775,-0.201256,1.00493,-0.411858,-0.382797,0.801706
28,40,-0.567232,-0.698132,-0.174533,-0.174533,-0.572257,-0.690777,-0.161775,-0.201256,1.00493,-0.411858,-0.382797,0.801706
28,40,-0.567232,-0.698132,-0.174533,-0.174533,-0.572257,-0.690777,-0.161775,-0.201256,1.00493,-0.411858,-0.382797,0.801706
28,40,-0.567232,-0.698132,-0.174533,-0.174533,-0.572257,-0.690777,-0.161775,-0.201256,1.00493,-0.411858,-0.382797,0.801706
28,40,-0.567232,-0.698132,-0.174533,-0.174533,-0.572257,-0.690777,-0.161775,-0.201256,1.00493,-0.411858,-0.382797,0.801706
28,40,-0.567232,-0.698132,-0.174533,-0.174533,-0.572257,-0.690777,-0.161775,-0.201256,1.00493,-0.411858,-0.382797,0.801706
28,40,-0.567232,-0.698132,-0.174533,-0.174533,-0.572257,-0.690777,-0.161775,-0.201256,1.00493,-0.411858,-0.382797,0.801706
28,40,-0.567232,-0.698132,-0.174533,-0.174533,-0.572257,-0.690777,-0.161775,-0.201256,1.00493,-0.411858,-0.382797,0.801706
28,40,-0.567232,-0.698132,-0.174533,-0.174533,-0.572257,-0.690777,-0.161842,-0.201298,1.00493,-0.411858,-0.380786,0.802979
28,40,-0.567232,-0.698132,-0.174533,-0.174533,-0.572257,-0.690777,-0.161842,-0.201298,1.00493,-0.411858,-0.380786,0.802979
28,40,-0.567232,-0.698132,-0.174533,-0.174533,-0.572257,-0.690777,-0.161842,-0.201298,1.00493,-0.411858,-0.380786,0.802979
28,40,-0.567232,-0.698132,-0.174533,-0.174533,-0.572257,-0.690777,-0.161842,-0.201298,1.00493,-0.411858,-0.380786,0.802979
28,40,-0.567232,-0.698132,-0.174533,-0.174533,-0.572257,-0.690777,-0.161842,-0.201298,1.00493,-0.411858,-0.380786,0.802979
28,40,-0.567232,-0.698132,-0.174533,-0.174533,-0.572257,-0.690777,-0.161842,-0.201298,1.00493,-0.411858,-0.380786,0.802979
28,40,-0.567232,-0.698132,-0.174533,-0.174533,-0.572257,-0.690777,-0.161842,-0.201298,1.00493,-0.411858,-0.380786,0.802979
28,40,-0.567232,-0.698132,-0.174533,-0.174533,-0.572257,-0.690777,-0.161842,-0.201298,1.00493,-0.411858,-0.380786,0.802979
28,40,-0.567232,-0.698132,-0.174533,-0.174533,-0.572257,-0.690777,-0.161842,-0.201298,1.00493,-0.411858,-0.380786,0.802979
28,40,-0.567232,-0.698132,-0.174533,-0.174533,-0.572257,-0.690777,-0.161842,-0.201298,1.00493,-0.411858,-0.380786,0.802979
28,40,-0.567232,-0.698132,-0.174533,-0.174533,-0.572257,-0.690777,-0.161842,-0.201298,1.00493,-0.411858,-0.380786,0.802979
28,40,-0.567232,-0.698132,-0.174533,-0.174533,-0.572257,-0.690777,-0.161842,-0.201298,1.00493,-0.411858,-0.380786,0.802979
28,40,-0.567232,-0.698132,-0.174533,-0.174533,-0.572257,-0.690777,-0.161842,-0.201298,1.00493,-0.411858,-0.380786,0.802979
28,40,-0.567232,-0.698132,-0.174533,-0.174533,-0.572257,-0.690777,-0.161842,-0.201298,1.00493,-0.411858,-0.380786,0.802979
28,40,-0.567232,-0.698132,-0.174533,-0.174533,-0.572257,-0.690777,-0.161842,-0.201298,1.00493,-0.411858,-0.380786,0.802979
28,40,-0.567232,-0.698132,-0.174533,-0.174533,-0.572257,-0.690777,-0.161842,-0.201298,1.00493,-0.411858,-0.380786,0.802979
28,40,-0.567232,-0.698132,-0.174533,-0.174533,-0.572257,-0.690777,-0.161842,-0.201298,1.00493,-0.411858,-0.380786,0.802979
28,40,-0.567232,-0.698132,-0.174533,-0.174533,-0.572257,-0.690777,-0.161781,-0.201317,1.00493,-0.411858,-0.382561,0.803533
28,40,-0.567232,-0.698132,-0.174533,-0.174533,-0.572257,-0.690777,-0.161781,-0.201317,1.00493,-0.411858,-0.382561,0.803533
28,40,-0.567232,-0.698132,-0.174533,-0.174533,-0.572257,-0.690777,-0.161781,-0.201317,1.00493,-0.411858,-0.382561,0.803533
28,40,-0.567232,-0.698132,-0.174533,-0.174533,-0.572257,-0.690777,-0.161781,-0.201317,1.00493,-0.411858,-0.382561,0.803533
28,40,-0.567232,-0.698132,-0.174533,-0.174533,-0.572257,-0.690777,-0.161781,-0.201317,1.00493,-0.411858,-0.382561,0.803533
28,40,-0.567232,-0.698132,-0.174533,-0.174533,-0.572257,-0.690777,-0.161781,-0.201317,1.00493,-0.411858,-0.382561,0.803533
28,40,-0.567232,-0.698132,-0.174533,-0.174533,-0.572257,-0.690777,-0.161781,-0.201317,1.00493,-0.411858,-0.382561,0.803533
28,40,-0.567232,-0.698132,-0.174533,-0.174533,-0.572257,-0.690777,-0.161781,-0.201317,1.00493,-0.411858,-0.382561,0.803533
28,40,-0.567232,-0.698132,-0.174533,-0.174533,-0.572257,-0.690777,-0.161781,-0.201317,1.00493,-0.411858,-0.382561,0.803533
28,40,-0.567232,-0.698132,-0.174533,-0.174533,-0.572257,-0.690777,-0.161781,-0.201317,1.00493,-0.411858,-0.382561,0.803533
28,40,-0.567232,-0.698132,-0.174533,-0.174533,-0.572257,-0.690777,-0.161781,-0.201317,1.00493,-0.411858,-0.382561,0.803533
28,40,-0.567232,-0.698132,-0.174533,-0.174533,-0.572257,-0.690777,-0.16172,-0.201336,1.00493,-0.411858,-0.384394,0.804104
28,40,-0.567232,-0.698132,-0.174533,-0.174533,-0.572257,-0.690777,-0.16172,-0.201336,1.00493,-0.411858,-0.384394,0.804104
28,40,-0.567232,-0.698132,-0.174533,-0.174533,-0.572257,-0.690777,-0.16172,-0.201336,1.00493,-0.411858,-0.384394,0.804104
28,40,-0.567232,-0.698132,-0.174533,-0.174533,-0.572257,-0.690777,-0.16172,-0.201336,1.00493,-0.411858,-0.384394,0.804104
28,40,-0.567232,-0.698132,-0.174533,-0.174533,-0.572257,-0.690777,-0.16172,-0.201336,1.00493,-0.411858,-0.384394,0.804104
28,40,-0.567232,-0.698132,-0.174533,-0.174533,-0.572257,-0.690777,-0.16172,-0.201336,1.00493,-0.411858,-0.384394,0.804104
28,40,-0.567232,-0.698132,-0.174533,-0.174533,-0.572257,-0.690777,-0.16172,-0.201336,1.00493,-0.411858,-0.384394,0.804104
28,40,-0.567232,-0.698132,-0.174533,-0.174533,-0.572257,-0.690777,-0.161787,-0.201379,1.00493,-0.411858,-0.382384,0.805377
28,40,-0.567232,-0.698132,-0.174533,-0.174533,-0.572257,-0.690777,-0.161787,-0.201379,1.00493,-0.411858,-0.382384,0.805377
28,40,-0.567232,-0.698132,-0.174533,-0.174533,-0.572257,-0.690777,-0.161787,-0.201379,1.00493,-0.411858,-0.382384,0.805377
28,40,-0.567232,-0.698132,-0.174533,-0.174533,-0.572257,-0.690777,-0.161726,-0.201398,1.00493,-0.411858,-0.384217,0.805949
28,40,-0.567232,-0.698132,-0.174533,-0.174533,-0.572257,-0.690777,-0.161726,-0.201398,1.00493,-0.411858,-0.384217,0.805949
28,40,-0.567232,-0.698132,-0.174533,-0.174533,-0.572257,-0.690777,-0.161726,-0.201398,1.00493,-0.411858,-0.384217,0.805949
28,40,-0.567232,-0.698132,-0.174533,-0.174533,-0.572257,-0.690777,-0.161726,-0.201398,1.00493,-0.411858,-0.384217,0.805949
28,40,-0.567232,-0.698132,-0.174533,-0.174533,-0.572257,-0.690777,-0.161665,-0.201417,1.00493,-0.411858,-0.386051,0.806521
28,40,-0.567232,-0.698132,-0.174533,-0.174533,-0.572257,-0.690777,-0.161665,-0.201417,1.00493,-0.411858,-0.386051,0.806521
28,40,-0.567232,-0.698132,-0.174533,-0.174533,-0.572257,-0.690777,-0.161665,-0.201417,1.00493,-0.411858,-0.386051,0.806521
28,40,-0.567232,-0.698132,-0.174533,-0.174533,-0.572257,-0.690777,-0.161665,-0.201417,1.00493,-0.411858,-0.386051,0.806521
28,40,-0.567232,-0.698132,-0.174533,-0.174533,-0.572257,-0.690777,-0.161665,-0.201417,1.00493,-0.411858,-0.386051,0.806521
28,40,-0.567232,-0.698132,-0.174533,-0.174533,-0.572257,-0.690777,-0.161603,-0.201436,1.00493,-0.411858,-0.388048,0.807144
28,40,-0.567232,-0.698132,-0.174533,-0.174533,-0.572257,-0.690777,-0.161603,-0.201436,1.00493,-0.411858,-0.388048,0.807144
28,40,-0.567232,-0.698132,-0.174533,-0.174533,-0.572257,-0.690777,-0.161603,-0.201436,1.00493,-0.411858,-0.388048,0.807144
28,40,-0.567232,-0.698132,-0.174533,-0.174533,-0.572257,-0.690777,-0.161603,-0.201436,1.00493,-0.411858,-0.388048,0.807144
28,40,-0.567232,-0.698132,-0.174533,-0.174533,-0.572257,-0.690777,-0.161542,-0.201455,1.00493,-0.411858,-0.389932,0.807732
28,40,-0.567232,-0.698132,-0.174533,-0.174533,-0.572257,-0.690777,-0.161609,-0.201498,1.00493,-0.411858,-0.387921,0.809005
28,40,-0.567232,-0.698132,-0.174533,-0.174533,-0.572257,-0.690777,-0.161609,-0.201498,1.00493,-0.411858,-0.387921,0.809005
28,40,-0.567232,-0.698132,-0.174533,-0.174533,-0.572257,-0.690777,-0.161609,-0.201498,1.00493,-0.411858,-0.387921,0.809005
28,40,-0.567232,-0.698132,-0.174533,-0.174533,-0.572257,-0.690777,-0.161609,-0.201498,1.00493,-0.411858,-0.387921,0.809005
28,40,-0.567232,-0.698132,-0.174533,-0.174533,-0.572257,-0.690777,-0.161609,-0.201498,1.00493,-0.411858,-0.387921,0.809005
28,40,-0.567232,-0.698132,-0.174533,-0.174533,-0.572257,-0.690777,-0.161548,-0.201517,1.00493,-0.411858,-0.389803,0.809591
28,40,-0.567232,-0.698132,-0.174533,-0.174533,-0.572257,-0.690777,-0.161548,-0.201517,1.00493,-0.411858,-0.389803,0.809591
28,40,-0.567232,-0.698132,-0.174533,-0.174533,-0.572257,-0.690777,-0.161548,-0.201517,1.00493,-0.411858,-0.389803,0.809591
28,40,-0.567232,-0.698132,-0.174533,-0.174533,-0.572257,-0.690777,-0.161548,-0.201517,1.00493,-0.411858,-0.389803,0.809591
28,40,-0.567232,-0.698132,-0.174533,-0.174533,-0.572257,-0.690777,-0.161484,-0.201476,1.00493,-0.411858,-0.391731,0.808383
28,40,-0.567232,-0.698132,-0.174533,-0.174533,-0.572257,-0.690777,-0.161484,-0.201476,1.00493,-0.411858,-0.391731,0.808383
28,40,-0.567232,-0.698132,-0.174533,-0.174533,-0.572257,-0.690777,-0.161484,-0.201476,1.00493,-0.411858,-0.391731,0.808383
28,40,-0.567232,-0.698132,-0.174533,-0.174533,-0.572257,-0.690777,-0.161484,-0.201476,1.00493,-0.411858,-0.391731,0.808383
28,40,-0.567232,-0.698132,-0.174533,-0.174533,-0.572257,-0.690777,-0.161484,-0.201476,1.00493,-0.411858,-0.391731,0.808383
28,40,-0.567232,-0.698132,-0.174533,-0.174533,-0.572257,-0.690777,-0.161484,-0.201476,1.00493,-0.411858,-0.391731,0.808383
28,40,-0.567232,-0.698132,-0.174533,-0.174533,-0.572257,-0.690777,-0.161423,-0.201495,1.00493,-0.411858,-0.393539,0.808947
28,40,-0.567232,-0.698132,-0.174533,-0.174533,-0.572257,-0.690777,-0.161423,-0.201495,1.00493,-0.411858,-0.393539,0.808947
28,40,-0.567232,-0.698132,-0.174533,-0.174533,-0.572257,-0.690777,-0.161423,-0.201495,1.00493,-0.411858,-0.393539,0.808947
28,40,-0.567232,-0.698132,-0.174533,-0.174533,-0.572257,-0.690777,-0.161423,-0.201495,1.00493,-0.411858,-0.393539,0.808947
28,40,-0.567232,-0.698132,-0.174533,-0.174533,-0.572257,-0.690777,-0.161423,-0.201495,1.00493,-0.411858,-0.393539,0.808947
28,40,-0.567232,-0.698132,-0.174533,-0.174533,-0.572257,-0.690777,-0.161423,-0.201495,1.00493,-0.411858,-0.393539,0.808947
28,40,-0.567232,-0.698132,-0.174533,-0.174533,-0.572257,-0.690777,-0.161423,-0.201495,1.00493,-0.411858,-0.393539,0.808947
28,40,-0.567232,-0.698132,-0.174533,-0.174533,-0.572257,-0.690777,-0.161423,-0.201495,1.00493,-0.411858,-0.393539,0.808947
28,40,-0.567232,-0.698132,-0.174533,-0.174533,-0.572257,-0.690777,-0.161362,-0.201514,1.00493,-0.411858,-0.395341,0.809509
28,40,-0.567232,-0.698132,-0.174533,-0.174533,-0.572257,-0.690777,-0.161362,-0.201514,1.00493,-0.411858,-0.395341,0.809509
28,40,-0.567232,-0.698132,-0.174533,-0.174533,-0.572257,-0.690777,-0.161362,-0.201514,1.00493,-0.411858,-0.395341,0.809509
28,40,-0.567232,-0.698132,-0.174533,-0.174533,-0.572257,-0.690777,-0.161362,-0.201514,1.00493,-0.411858,-0.395341,0.809509
28,40,-0.567232,-0.698132,-0.174533,-0.174533,-0.572257,-0.690777,-0.161362,-0.201514,1.00493,-0.411858,-0.395341,0.809509
28,40,-0.567232,-0.698132,-0.174533,-0.174533,-0.572257,-0.690777,-0.161362,-0.201514,1.00493,-0.411858,-0.395341,0.809509
28,40,-0.567232,-0.698132,-0.174533,-0.174533,-0.572257,-0.690777,-0.161362,-0.201514,1.00493,-0.411858,-0.395341,0.809509
28,40,-0.567232,-0.698132,-0.174533,-0.174533,-0.572257,-0.690777,-0.161362,-0.201514,1.00493,-0.411858,-0.395341,0.809509
28,40,-0.567232,-0.698132,-0.174533,-0.174533,-0.572257,-0.690777,-0.161301,-0.201533,1.00493,-0.411858,-0.397158,0.810076
28,40,-0.567232,-0.698132,-0.174533,-0.174533,-0.572257,-0.690777,-0.161301,-0.201533,1.00493,-0.411858,-0.397158,0.810076
28,40,-0.567232,-0.698132,-0.174533,-0.174533,-0.572257,-0.690777,-0.161368,-0.201576,1.00493,-0.411858,-0.395147,0.811348
28,40,-0.567232,-0.698132,-0.174533,-0.174533,-0.572257,-0.690777,-0.161368,-0.201576,1.00493,-0.411858,-0.395147,0.811348
28,40,-0.567232,-0.698132,-0.174533,-0.174533,-0.572257,-0.690777,-0.161368,-0.201576,1.00493,-0.411858,-0.395147,0.811348
28,40,-0.567232,-0.698132,-0.174533,-0.174533,-0.572257,-0.690777,-0.161307,-0.201595,1.00493,-0.411858,-0.396971,0.811917
28,40,-0.567232,-0.698132,-0.174533,-0.174533,-0.572257,-0.690777,-0.161307,-0.201595,1.00493,-0.411858,-0.396971,0.811917
28,40,-0.567232,-0.698132,-0.174533,-0.174533,-0.572257,-0.690777,-0.161307,-0.201595,1.00493,-0.411858,-0.396971,0.811917
28,40,-0.567232,-0.698132,-0.174533,-0.174533,-0.572257,-0.690777,-0.161307,-0.201595,1.00493,-0.411858,-0.396971,0.811917
28,40,-0.567232,-0.698132,-0.174533,-0.174533,-0.572257,-0.690777,-0.161245,-0.201614,1.00493,-0.411858,-0.398822,0.812494
28,40,-0.567232,-0.698132,-0.174533,-0.174533,-0.572257,-0.690777,-0.161245,-0.201614,1.00493,-0.411858,-0.398822,0.812494
28,40,-0.567232,-0.698132,-0.174533,-0.174533,-0.572257,-0.690777,-0.161245,-0.201614,1.00493,-0.411858,-0.398822,0.812494
28,40,-0.567232,-0.698132,-0.174533,-0.174533,-0.572257,-0.690777,-0.161245,-0.201614,1.00493,-0.411858,-0.398822,0.812494
28,40,-0.567232,-0.698132,-0.174533,-0.174533,-0.572257,-0.690777,-0.161251,-0.201675,1.00493,-0.411858,-0.398676,0.814349
28,40,-0.567232,-0.698132,-0.174533,-0.174533,-0.572257,-0.690777,-0.161251,-0.201675,1.00493,-0.411858,-0.398676,0.814349
28,40,-0.567232,-0.698132,-0.174533,-0.174533,-0.572257,-0.690777,-0.161251,-0.201675,1.00493,-0.411858,-0.398676,0.814349
28,40,-0.567232,-0.698132,-0.174533,-0.174533,-0.572257,-0.690777,-0.161251,-0.201675,1.00493,-0.411858,-0.398676,0.814349
28,40,-0.567232,-0.698132,-0.174533,-0.174533,-0.572257,-0.690777,-0.16119,-0.201695,1.00493,-0.411858,-0.400561,0.814936
28,40,-0.567232,-0.698132,-0.174533,-0.174533,-0.572257,-0.690777,-0.16119,-0.201695,1.00493,-0.411858,-0.400561,0.814936
28,40,-0.567232,-0.698132,-0.174533,-0.174533,-0.572257,-0.690777,-0.16119,-0.201695,1.00493,-0.411858,-0.400561,0.814936
28,40,-0.567232,-0.698132,-0.174533,-0.174533,-0.572257,-0.690777,-0.16119,-0.201695,1.00493,-0.411858,-0.400561,0.814936
28,40,-0.567232,-0.698132,-0.174533,-0.174533,-0.572257,-0.690777,-0.16119,-0.201695,1.00493,-0.411858,-0.400561,0.814936
28,40,-0.567232,-0.698132,-0.174533,-0.174533,-0.572257,-0.690777,-0.16119,-0.201695,1.00493,-0.411858,-0.400561,0.814936
28,40,-0.567232,-0.698132,-0.174533,-0.174533,-0.572257,-0.690777,-0.161129,-0.201714,1.00493,-0.411858,-0.402384,0.815505
28,40,-0.567232,-0.698132,-0.174533,-0.174533,-0.572257,-0.690777,-0.161129,-0.201714,1.00493,-0.411858,-0.402384,0.815505
28,40,-0.567232,-0.698132,-0.174533,-0.174533,-0.572257,-0.690777,-0.161129,-0.201714,1.00493,-0.411858,-0.402384,0.815505
28,40,-0.567232,-0.698132,-0.174533,-0.174533,-0.572257,-0.690777,-0.161196,-0.201756,1.00493,-0.411858,-0.400301,0.816823
28,40,-0.567232,-0.698132,-0.174533,-0.174533,-0.572257,-0.690777,-0.161196,-0.201756,1.00493,-0.411858,-0.400301,0.816823
28,40,-0.567232,-0.698132,-0.174533,-0.174533,-0.572257,-0.690777,-0.161135,-0.201775,1.00493,-0.411858,-0.402131,0.817394
28,40,-0.567232,-0.698132,-0.174533,-0.174533,-0.572257,-0.690777,-0.161135,-0.201775,1.00493,-0.411858,-0.402131,0.817394
28,40,-0.567232,-0.698132,-0.174533,-0.174533,-0.572257,-0.690777,-0.161135,-0.201775,1.00493,-0.411858,-0.402131,0.817394
28,40,-0.567232,-0.698132,-0.174533,-0.174533,-0.572257,-0.690777,-0.161135,-0.201775,1.00493,-0.411858,-0.402131,0.817394
28,40,-0.567232,-0.698132,-0.174533,-0.174533,-0.572257,-0.690777,-0.161202,-0.201818,1.00493,-0.411858,-0.400107,0.818675
28,40,-0.567232,-0.698132,-0.174533,-0.174533,-0.572257,-0.690777,-0.161141,-0.201837,1.00493,-0.411858,-0.401924,0.819241
28,40,-0.567232,-0.698132,-0.174533,-0.174533,-0.572257,-0.690777,-0.161141,-0.201837,1.00493,-0.411858,-0.401924,0.819241
28,40,-0.567232,-0.698132,-0.174533,-0.174533,-0.572257,-0.690777,-0.161141,-0.201837,1.00493,-0.411858,-0.401924,0.819241
28,40,-0.567232,-0.698132,-0.174533,-0.174533,-0.572257,-0.690777,-0.161141,-0.201837,1.00493,-0.411858,-0.401924,0.819241
28,40,-0.567232,-0.698132,-0.174533,-0.174533,-0.572257,-0.690777,-0.161141,-0.201837,1.00493,-0.411858,-0.401924,0.819241
28,40,-0.567232,-0.698132,-0.174533,-0.174533,-0.572257,-0.690777,-0.161141,-0.201837,1.00493,-0.411858,-0.401924,0.819241
28,40,-0.567232,-0.698132,-0.174533,-0.174533,-0.572257,-0.690777,-0.16108,-0.201856,1.00493,-0.411858,-0.403739,0.819807
28,40,-0.567232,-0.698132,-0.174533,-0.174533,-0.572257,-0.690777,-0.16108,-0.201856,1.00493,-0.411858,-0.403739,0.819807
28,40,-0.567232,-0.698132,-0.174533,-0.174533,-0.572257,-0.690777,-0.16108,-0.201856,1.00493,-0.411858,-0.403739,0.819807
28,40,-0.567232,-0.698132,-0.174533,-0.174533,-0.572257,-0.690777,-0.16108,-0.201856,1.00493,-0.411858,-0.403739,0.819807
28,40,-0.567232,-0.698132,-0.174533,-0.174533,-0.572257,-0.690777,-0.161019,-0.201875,1.00493,-0.411858,-0.405585,0.820383
28,40,-0.567232,-0.698132,-0.174533,-0.174533,-0.572257,-0.690777,-0.161086,-0.201917,1.00493,-0.411858,-0.403532,0.821682
28,40,-0.567232,-0.698132,-0.174533,-0.174533,-0.572257,-0.690777,-0.161086,-0.201917,1.00493,-0.411858,-0.403532,0.821682
28,40,-0.567232,-0.698132,-0.174533,-0.174533,-0.572257,-0.690777,-0.161086,-0.201917,1.00493,-0.411858,-0.403532,0.821682
28,40,-0.567232,-0.698132,-0.174533,-0.174533,-0.572257,-0.690777,-0.161086,-0.201917,1.00493,-0.411858,-0.403532,0.821682
28,40,-0.567232,-0.698132,-0.174533,-0.174533,-0.572257,-0.690777,-0.161086,-0.201917,1.00493,-0.411858,-0.403532,0.821682
28,40,-0.567232,-0.698132,-0.174533,-0.174533,-0.572257,-0.690777,-0.161091,-0.201979,1.00493,-0.411858,-0.403324,0.823535
28,40,-0.567232,-0.698132,-0.174533,-0.174533,-0.572257,-0.690777,-0.161091,-0.201979,1.00493,-0.411858,-0.403324,0.823535
28,40,-0.567232,-0.698132,-0.174533,-0.174533,-0.572257,-0.690777,-0.161091,-0.201979,1.00493,-0.411858,-0.403324,0.823535
28,40,-0.567232,-0.698132,-0.174533,-0.174533,-0.572257,-0.690777,-0.161091,-0.201979,1.00493,-0.411858,-0.403324,0.823535
28,40,-0.567232,-0.698132,-0.174533,-0.174533,-0.572257,-0.690777,-0.161091,-0.201979,1.00493,-0.411858,-0.403324,0.823535
28,40,-0.567232,-0.698132,-0.174533,-0.174533,-0.572257,-0.690777,-0.16103,-0.201998,1.00493,-0.411858,-0.405168,0.82411
28,40,-0.567232,-0.698132,-0.174533,-0.174533,-0.572257,-0.690777,-0.16103,-0.201998,1.00493,-0.411858,-0.405168,0.82411
28,40,-0.567232,-0.698132,-0.174533,-0.174533,-0.572257,-0.690777,-0.16103,-0.201998,1.00493,-0.411858,-0.405168,0.82411
28,40,-0.567232,-0.698132,-0.174533,-0.174533,-0.572257,-0.690777,-0.16103,-0.201998,1.00493,-0.411858,-0.405168,0.82411
28,40,-0.567232,-0.698132,-0.174533,-0.174533,-0.572257,-0.690777,-0.160969,-0.202017,1.00493,-0.411858,-0.40702,0.824687
28,40,-0.567232,-0.698132,-0.174533,-0.174533,-0.572257,-0.690777,-0.160969,-0.202017,1.00493,-0.411858,-0.40702,0.824687
28,40,-0.567232,-0.698132,-0.174533,-0.174533,-0.572257,-0.690777,-0.160969,-0.202017,1.00493,-0.411858,-0.40702,0.824687
28,40,-0.567232,-0.698132,-0.174533,-0.174533,-0.572257,-0.690777,-0.160969,-0.202017,1.00493,-0.411858,-0.40702,0.824687
28,40,-0.567232,-0.698132,-0.174533,-0.174533,-0.572257,-0.690777,-0.160969,-0.202017,1.00493,-0.411858,-0.40702,0.824687
28,40,-0.567232,-0.698132,-0.174533,-0.174533,-0.572257,-0.690777,-0.160908,-0.202036,1.00493,-0.411858,-0.408855,0.82526
28,40,-0.567232,-0.698132,-0.174533,-0.174533,-0.572257,-0.690777,-0.160908,-0.202036,1.00493,-0.411858,-0.408855,0.82526
28,40,-0.567232,-0.698132,-0.174533,-0.174533,-0.572257,-0.690777,-0.160975,-0.202078,1.00493,-0.411858,-0.406851,0.826527
28,40,-0.567232,-0.698132,-0.174533,-0.174533,-0.572257,-0.690777,-0.160975,-0.202078,1.00493,-0.411858,-0.406851,0.826527
28,40,-0.567232,-0.698132,-0.174533,-0.174533,-0.572257,-0.690777,-0.160975,-0.202078,1.00493,-0.411858,-0.406851,0.826527
28,40,-0.567232,-0.698132,-0.174533,-0.174533,-0.572257,-0.690777,-0.160975,-0.202078,1.00493,-0.411858,-0.406851,0.826527
28,40,-0.567232,-0.698132,-0.174533,-0.174533,-0.572257,-0.690777,-0.160975,-0.202078,1.00493,-0.411858,-0.406851,0.826527
28,40,-0.567232,-0.698132,-0.174533,-0.174533,-0.572257,-0.690777,-0.160914,-0.202097,1.00493,-0.411858,-0.408663,0.827092
28,40,-0.567232,-0.698132,-0.174533,-0.174533,-0.572257,-0.690777,-0.160914,-0.202097,1.00493,-0.411858,-0.408663,0.827092
28,40,-0.567232,-0.698132,-0.174533,-0.174533,-0.572257,-0.690777,-0.160914,-0.202097,1.00493,-0.411858,-0.408663,0.827092
28,40,-0.567232,-0.698132,-0.174533,-0.174533,-0.572257,-0.690777,-0.160914,-0.202097,1.00493,-0.411858,-0.408663,0.827092
28,40,-0.567232,-0.698132,-0.174533,-0.174533,-0.572257,-0.690777,-0.160914,-0.202097,1.00493,-0.411858,-0.408663,0.827092
28,40,-0.567232,-0.698132,-0.174533,-0.174533,-0.572257,-0.690777,-0.160914,-0.202097,1.00493,-0.411858,-0.408663,0.827092
28,40,-0.567232,-0.698132,-0.174533,-0.174533,-0.572257,-0.690777,-0.160853,-0.202116,1.00493,-0.411858,-0.410483,0.82766
28,40,-0.567232,-0.698132,-0.174533,-0.174533,-0.572257,-0.690777,-0.160853,-0.202116,1.00493,-0.411858,-0.410483,0.82766
28,40,-0.567232,-0.698132,-0.174533,-0.174533,-0.572257,-0.690777,-0.160853,-0.202116,1.00493,-0.411858,-0.410483,0.82766
28,40,-0.567232,-0.698132,-0.174533,-0.174533,-0.572257,-0.690777,-0.160853,-0.202116,1.00493,-0.411858,-0.410483,0.82766
28,40,-0.567232,-0.698132,-0.174533,-0.174533,-0.572257,-0.690777,-0.160853,-0.202116,1.00493,-0.411858,-0.410483,0.82766
28,40,-0.567232,-0.698132,-0.174533,-0.174533,-0.572257,-0.690777,-0.160853,-0.202116,1.00493,-0.411858,-0.410483,0.82766
28,40,-0.567232,-0.698132,-0.174533,-0.174533,-0.572257,-0.690777,-0.160853,-0.202116,1.00493,-0.411858,-0.410483,0.82766
28,40,-0.567232,-0.698132,-0.174533,-0.174533,-0.572257,-0.690777,-0.160792,-0.202135,1.00493,-0.411858,-0.412298,0.828226
28,40,-0.567232,-0.698132,-0.174533,-0.174533,-0.572257,-0.690777,-0.160859,-0.202178,1.00493,-0.411858,-0.410325,0.829474
28,40,-0.567232,-0.698132,-0.174533,-0.174533,-0.572257,-0.690777,-0.160859,-0.202178,1.00493,-0.411858,-0.410325,0.829474
28,40,-0.567232,-0.698132,-0.174533,-0.174533,-0.572257,-0.690777,-0.160859,-0.202178,1.00493,-0.411858,-0.410325,0.829474
28,40,-0.567232,-0.698132,-0.174533,-0.174533,-0.572257,-0.690777,-0.160859,-0.202178,1.00493,-0.411858,-0.410325,0.829474
28,40,-0.567232,-0.698132,-0.174533,-0.174533,-0.572257,-0.690777,-0.160859,-0.202178,1.00493,-0.411858,-0.410325,0.829474
28,40,-0.567232,-0.698132,-0.174533,-0.174533,-0.572257,-0.690777,-0.160859,-0.202178,1.00493,-0.411858,-0.410325,0.829474
28,40,-0.567232,-0.698132,-0.174533,-0.174533,-0.572257,-0.690777,-0.160797,-0.202197,1.00493,-0.411858,-0.412145,0.830042
28,40,-0.567232,-0.698132,-0.174533,-0.174533,-0.572257,-0.690777,-0.160797,-0.202197,1.00493,-0.411858,-0.412145,0.830042
28,40,-0.567232,-0.698132,-0.174533,-0.174533,-0.572257,-0.690777,-0.160797,-0.202197,1.00493,-0.411858,-0.412145,0.830042
28,40,-0.567232,-0.698132,-0.174533,-0.174533,-0.572257,-0.690777,-0.160797,-0.202197,1.00493,-0.411858,-0.412145,0.830042
28,40,-0.567232,-0.698132,-0.174533,-0.174533,-0.572257,-0.690777,-0.160797,-0.202197,1.00493,-0.411858,-0.412145,0.830042
28,40,-0.567232,-0.698132,-0.174533,-0.174533,-0.572257,-0.690777,-0.160864,-0.202239,1.00493,-0.411858,-0.41013,0.831316
28,40,-0.567232,-0.698132,-0.174533,-0.174533,-0.572257,-0.690777,-0.160803,-0.202258,1.00493,-0.411858,-0.411974,0.831891
28,40,-0.567232,-0.698132,-0.174533,-0.174533,-0.572257,-0.690777,-0.160803,-0.202258,1.00493,-0.411858,-0.411974,0.831891
28,40,-0.567232,-0.698132,-0.174533,-0.174533,-0.572257,-0.690777,-0.160803,-0.202258,1.00493,-0.411858,-0.411974,0.831891
28,40,-0.567232,-0.698132,-0.174533,-0.174533,-0.572257,-0.690777,-0.160803,-0.202258,1.00493,-0.411858,-0.411974,0.831891
28,40,-0.567232,-0.698132,-0.174533,-0.174533,-0.572257,-0.690777,-0.160803,-0.202258,1.00493,-0.411858,-0.411974,0.831891
28,40,-0.567232,-0.698132,-0.174533,-0.174533,-0.572257,-0.690777,-0.160803,-0.202258,1.00493,-0.411858,-0.411974,0.831891
28,40,-0.567232,-0.698132,-0.174533,-0.174533,-0.572257,-0.690777,-0.160803,-0.202258,1.00493,-0.411858,-0.411974,0.831891
28,40,-0.567232,-0.698132,-0.174533,-0.174533,-0.572257,-0.690777,-0.160803,-0.202258,1.00493,-0.411858,-0.411974,0.831891
28,40,-0.567232,-0.698132,-0.174533,-0.174533,-0.572257,-0.690777,-0.160803,-0.202258,1.00493,-0.411858,-0.411974,0.831891
28,40,-0.567232,-0.698132,-0.174533,-0.174533,-0.572257,-0.690777,-0.160803,-0.202258,1.00493,-0.411858,-0.411974,0.831891
28,40,-0.567232,-0.698132,-0.174533,-0.174533,-0.572257,-0.690777,-0.160803,-0.202258,1.00493,-0.411858,-0.411974,0.831891
28,40,-0.567232,-0.698132,-0.174533,-0.174533,-0.572257,-0.690777,-0.160803,-0.202258,1.00493,-0.411858,-0.411974,0.831891
28,40,-0.567232,-0.698132,-0.174533,-0.174533,-0.572257,-0.690777,-0.160742,-0.202277,1.00493,-0.411858,-0.413773,0.832452
28,40,-0.567232,-0.698132,-0.174533,-0.174533,-0.572257,-0.690777,-0.160742,-0.202277,1.00493,-0.411858,-0.413773,0.832452
28,40,-0.567232,-0.698132,-0.174533,-0.174533,-0.572257,-0.690777,-0.160742,-0.202277,1.00493,-0.411858,-0.413773,0.832452
28,40,-0.567232,-0.698132,-0.174533,-0.174533,-0.572257,-0.690777,-0.160742,-0.202277,1.00493,-0.411858,-0.413773,0.832452
28,40,-0.567232,-0.698132,-0.174533,-0.174533,-0.572257,-0.690777,-0.160742,-0.202277,1.00493,-0.411858,-0.413773,0.832452
28,40,-0.567232,-0.698132,-0.174533,-0.174533,-0.572257,-0.690777,-0.160742,-0.202277,1.00493,-0.411858,-0.413773,0.832452
28,40,-0.567232,-0.698132,-0.174533,-0.174533,-0.572257,-0.690777,-0.160809,-0.20232,1.00493,-0.411858,-0.411783,0.83371
28,40,-0.567232,-0.698132,-0.174533,-0.174533,-0.572257,-0.690777,-0.160806,-0.202261,1.00493,-0.411858,-0.411873,0.831928
28,40,-0.567232,-0.698132,-0.174533,-0.174533,-0.572257,-0.690777,-0.160806,-0.202261,1.00493,-0.411858,-0.411873,0.831928
28,40,-0.567232,-0.698132,-0.174533,-0.174533,-0.572257,-0.690777,-0.160806,-0.202261,1.00493,-0.411858,-0.411873,0.831928
28,40,-0.567232,-0.698132,-0.174533,-0.174533,-0.572257,-0.690777,-0.160806,-0.202261,1.00493,-0.411858,-0.411873,0.831928
28,40,-0.567232,-0.698132,-0.174533,-0.174533,-0.572257,-0.690777,-0.160806,-0.202261,1.00493,-0.411858,-0.411873,0.831928
28,40,-0.567232,-0.698132,-0.174533,-0.174533,-0.572257,-0.690777,-0.160806,-0.202261,1.00493,-0.411858,-0.411873,0.831928
28,40,-0.567232,-0.698132,-0.174533,-0.174533,-0.572257,-0.690777,-0.160806,-0.202261,1.00493,-0.411858,-0.411873,0.831928
28,40,-0.567232,-0.698132,-0.174533,-0.174533,-0.572257,-0.690777,-0.160806,-0.202261,1.00493,-0.411858,-0.411873,0.831928
28,40,-0.567232,-0.698132,-0.174533,-0.174533,-0.572257,-0.690777,-0.160806,-0.202261,1.00493,-0.411858,-0.411873,0.831928
28,40,-0.567232,-0.698132,-0.174533,-0.174533,-0.572257,-0.690777,-0.160806,-0.202261,1.00493,-0.411858,-0.411873,0.831928
28,40,-0.567232,-0.698132,-0.174533,-0.174533,-0.572257,-0.690777,-0.160806,-0.202261,1.00493,-0.411858,-0.411873,0.831928
28,40,-0.567232,-0.698132,-0.174533,-0.174533,-0.572257,-0.690777,-0.160806,-0.202261,1.00493,-0.411858,-0.411873,0.831928
28,40,-0.567232,-0.698132,-0.174533,-0.174533,-0.572257,-0.690777,-0.160806,-0.202261,1.00493,-0.411858,-0.411873,0.831928
28,40,-0.567232,-0.698132,-0.174533,-0.174533,-0.572257,-0.690777,-0.160806,-0.202261,1.00493,-0.411858,-0.411873,0.831928
28,40,-0.567232,-0.698132,-0.174533,-0.174533,-0.572257,-0.690777,-0.160806,-0.202261,1.00493,-0.411858,-0.411873,0.831928
28,40,-0.567232,-0.698132,-0.174533,-0.174533,-0.572257,-0.690777,-0.160806,-0.202261,1.00493,-0.411858,-0.411873,0.831928
28,40,-0.567232,-0.698132,-0.174533,-0.174533,-0.572257,-0.690777,-0.160806,-0.202261,1.00493,-0.411858,-0.411873,0.831928
28,40,-0.567232,-0.698132,-0.174533,-0.174533,-0.572257,-0.690777,-0.160806,-0.202261,1.00493,-0.411858,-0.411873,0.831928
28,40,-0.567232,-0.698132,-0.174533,-0.174533,-0.572257,-0.690777,-0.160806,-0.202261,1.00493,-0.411858,-0.411873,0.831928
28,40,-0.567232,-0.698132,-0.174533,-0.174533,-0.572257,-0.690777,-0.160806,-0.202261,1.00493,-0.411858,-0.411873,0.831928
28,40,-0.567232,-0.698132,-0.174533,-0.174533,-0.572257,-0.690777,-0.160806,-0.202261,1.00493,-0.411858,-0.411873,0.831928
28,40,-0.567232,-0.698132,-0.174533,-0.174533,-0.572257,-0.690777,-0.160806,-0.202261,1.00493,-0.411858,-0.411873,0.831928
28,40,-0.567232,-0.698132,-0.174533,-0.174533,-0.572257,-0.690777,-0.160806,-0.202261,1.00493,-0.411858,-0.411873,0.831928
28,40,-0.567232,-0.698132,-0.174533,-0.174533,-0.572257,-0.690777,-0.160806,-0.202261,1.00493,-0.411858,-0.411873,0.831928
28,40,-0.567232,-0.698132,-0.174533,-0.174533,-0.572257,-0.690777,-0.160806,-0.202261,1.00493,-0.411858,-0.411873,0.831928
28,40,-0.567232,-0.698132,-0.174533,-0.174533,-0.572257,-0.690777,-0.160806,-0.202261,1.00493,-0.411858,-0.411869,0.831927
28,40,-0.567232,-0.698132,-0.174533,-0.174533,-0.572257,-0.690777,-0.160806,-0.202261,1.00493,-0.411858,-0.411864,0.831925
28,40,-0.567232,-0.698132,-0.174533,-0.174533,-0.572257,-0.690777,-0.160806,-0.202261,1.00493,-0.411858,-0.41186,0.831924
28,40,-0.567232,-0.698132,-0.174533,-0.174533,-0.572257,-0.690777,-0.160806,-0.202261,1.00493,-0.411858,-0.411856,0.831923
28,40,-0.567232,-0.698132,-0.174533,-0.174533,-0.572257,-0.690777,-0.160806,-0.202261,1.00493,-0.411858,-0.411852,0.831922
28,40,-0.567232,-0.698132,-0.174533,-0.174533,-0.572257,-0.690777,-0.160806,-0.202261,1.00493,-0.411858,-0.411849,0.831921
28,40,-0.567232,-0.698132,-0.174533,-0.174533,-0.572257,-0.690777,-0.160806,-0.202261,1.00493,-0.411858,-0.411846,0.83192
28,40,-0.567232,-0.698132,-0.174533,-0.174533,-0.572257,-0.690777,-0.160806,-0.202261,1.00493,-0.411858,-0.411842,0.831919
28,40,-0.567232,-0.698132,-0.174533,-0.174533,-0.572257,-0.690777,-0.160806,-0.202261,1.00493,-0.411858,-0.411839,0.831918
28,40,-0.567232,-0.698132,-0.174533,-0.174533,-0.572257,-0.690777,-0.160806,-0.202261,1.00493,-0.411858,-0.411836,0.831917
28,40,-0.567232,-0.698132,-0.174533,-0.174533,-0.572257,-0.690777,-0.160806,-0.202261,1.00493,-0.411858,-0.411834,0.831916
28,40,-0.567232,-0.698132,-0.174533,-0.174533,-0.572257,-0.690777,-0.160806,-0.202261,1.00493,-0.411858,-0.411831,0.831915
28,40,-0.567232,-0.698132,-0.174533,-0.174533,-0.572257,-0.690777,-0.160806,-0.202261,1.00493,-0.411858,-0.411828,0.831914
28,40,-0.567232,-0.698132,-0.174533,-0.174533,-0.572257,-0.690777,-0.160806,-0.202261,1.00493,-0.411858,-0.411826,0.831914
28,40,-0.567232,-0.698132,-0.174533,-0.174533,-0.572257,-0.690777,-0.160806,-0.202261,1.00493,-0.411858,-0.411824,0.831913
28,40,-0.567232,-0.698132,-0.174533,-0.174533,-0.572257,-0.690777,-0.160806,-0.202261,1.00493,-0.411858,-0.411821,0.831912
28,40,-0.567232,-0.698132,-0.174533,-0.174533,-0.572257,-0.690777,-0.160806,-0.202261,1.00493,-0.411858,-0.411819,0.831911
28,40,-0.567232,-0.698132,-0.174533,-0.174533,-0.572257,-0.690777,-0.160745,-0.20228,1.00493,-0.411858,-0.41362,0.832473
28,40,-0.567232,-0.698132,-0.174533,-0.174533,-0.572257,-0.690777,-0.160745,-0.20228,1.00493,-0.411858,-0.41362,0.832473
28,40,-0.567232,-0.698132,-0.174533,-0.174533,-0.572257,-0.690777,-0.160745,-0.20228,1.00493,-0.411858,-0.41362,0.832473
28,40,-0.567232,-0.698132,-0.174533,-0.174533,-0.572257,-0.690777,-0.160745,-0.20228,1.00493,-0.411858,-0.41362,0.832473
28,40,-0.567232,-0.698132,-0.174533,-0.174533,-0.572257,-0.690777,-0.160745,-0.20228,1.00493,-0.411858,-0.41362,0.832473
28,40,-0.567232,-0.698132,-0.174533,-0.174533,-0.572257,-0.690777,-0.160745,-0.20228,1.00493,-0.411858,-0.41362,0.832473
28,40,-0.567232,-0.698132,-0.174533,-0.174533,-0.572257,-0.690777,-0.160745,-0.20228,1.00493,-0.411858,-0.41362,0.832473
28,40,-0.567232,-0.698132,-0.174533,-0.174533,-0.572257,-0.690777,-0.160745,-0.20228,1.00493,-0.411858,-0.41362,0.832473
28,40,-0.567232,-0.698132,-0.174533,-0.174533,-0.572257,-0.690777,-0.160745,-0.20228,1.00493,-0.411858,-0.41362,0.832473
28,40,-0.567232,-0.698132,-0.174533,-0.174533,-0.572257,-0.690777,-0.160745,-0.20228,1.00493,-0.411858,-0.41362,0.832473
28,40,-0.567232,-0.698132,-0.174533,-0.174533,-0.572257,-0.690777,-0.160742,-0.20222,1.00493,-0.411858,-0.413709,0.830691
28,40,-0.567232,-0.698132,-0.174533,-0.174533,-0.572257,-0.690777,-0.160742,-0.20222,1.00493,-0.411858,-0.413709,0.830691
28,40,-0.567232,-0.698132,-0.174533,-0.174533,-0.572257,-0.690777,-0.160742,-0.20222,1.00493,-0.411858,-0.413709,0.830691
28,40,-0.567232,-0.698132,-0.174533,-0.174533,-0.572257,-0.690777,-0.160742,-0.20222,1.00493,-0.411858,-0.413709,0.830691
28,40,-0.567232,-0.698132,-0.174533,-0.174533,-0.572257,-0.690777,-0.160742,-0.20222,1.00493,-0.411858,-0.413709,0.830691
28,40,-0.567232,-0.698132,-0.174533,-0.174533,-0.572257,-0.690777,-0.160742,-0.20222,1.00493,-0.411858,-0.413709,0.830691
