stim_pw [us],stim_amp [mA],com_elbow_fe [rad],com_forearm_ps [rad],com_wrist_fe [rad],com_wrist_ru [rad],act_elbow_fe [rad],act_forearm_ps [rad],act_wrist_fe [rad],act_wrist_ru [rad],elbow_fe_trq [Nm],forearm_ps_trq [Nm],wrist_fe_trq [Nm],wrist_ru_trq [Nm]
26,65,-0.0872665,-0.698132,-0.174533,-0.174533,-0.0836122,-0.69759,-0.151724,-0.201093,-0.438514,-0.021676,-0.569737,0.664084
26,65,-0.0872665,-0.698132,-0.174533,-0.174533,-0.0836122,-0.69759,-0.151724,-0.201093,-0.438514,-0.021676,-0.569737,0.664084
26,65,-0.0872665,-0.698132,-0.174533,-0.174533,-0.0836122,-0.69759,-0.151791,-0.201135,-0.438514,-0.021676,-0.568102,0.665117
26,65,-0.0872665,-0.698132,-0.174533,-0.174533,-0.0836122,-0.69759,-0.151791,-0.201135,-0.438514,-0.021676,-0.568102,0.665117
26,65,-0.0872665,-0.698132,-0.174533,-0.174533,-0.0836122,-0.69759,-0.151788,-0.201076,-0.438514,-0.021676,-0.568162,0.663666
26,65,-0.0872665,-0.698132,-0.174533,-0.174533,-0.0836122,-0.69759,-0.151854,-0.201118,-0.438514,-0.021676,-0.566505,0.664714
26,65,-0.0872665,-0.698132,-0.174533,-0.174533,-0.0836122,-0.69759,-0.151854,-0.201118,-0.438514,-0.021676,-0.566505,0.664714
26,65,-0.0872665,-0.698132,-0.174533,-0.174533,-0.0836122,-0.69759,-0.151854,-0.201118,-0.438514,-0.021676,-0.566505,0.664714
26,65,-0.0872665,-0.698132,-0.174533,-0.174533,-0.0836122,-0.69759,-0.15192,-0.201159,-0.438514,-0.021676,-0.564885,0.665738
26,65,-0.0872665,-0.698132,-0.174533,-0.174533,-0.0836122,-0.69759,-0.15192,-0.201159,-0.438514,-0.021676,-0.564885,0.665738
26,65,-0.0872665,-0.698132,-0.174533,-0.174533,-0.0836122,-0.69759,-0.15192,-0.201159,-0.438514,-0.021676,-0.564885,0.665738
26,65,-0.0872665,-0.698132,-0.174533,-0.174533,-0.0836122,-0.69759,-0.15192,-0.201159,-0.438514,-0.021676,-0.564885,0.665738
26,65,-0.0872665,-0.698132,-0.174533,-0.174533,-0.0836122,-0.69759,-0.151987,-0.201201,-0.438514,-0.021676,-0.563266,0.666761
26,65,-0.0872665,-0.698132,-0.174533,-0.174533,-0.0836122,-0.69759,-0.151987,-0.201201,-0.438514,-0.021676,-0.563266,0.666761
26,65,-0.0872665,-0.698132,-0.174533,-0.174533,-0.0836122,-0.69759,-0.151987,-0.201201,-0.438514,-0.021676,-0.563266,0.666761
26,65,-0.0872665,-0.698132,-0.174533,-0.174533,-0.0836122,-0.69759,-0.151987,-0.201201,-0.438514,-0.021676,-0.563266,0.666761
26,65,-0.0872665,-0.698132,-0.174533,-0.174533,-0.0836122,-0.69759,-0.151984,-0.201142,-0.438514,-0.021676,-0.563326,0.665337
26,65,-0.0872665,-0.698132,-0.174533,-0.174533,-0.0836122,-0.69759,-0.151984,-0.201142,-0.438514,-0.021676,-0.563326,0.665337
26,65,-0.0872665,-0.698132,-0.174533,-0.174533,-0.0836122,-0.69759,-0.15205,-0.201184,-0.438514,-0.021676,-0.561757,0.666329
26,65,-0.0872665,-0.698132,-0.174533,-0.174533,-0.0836122,-0.69759,-0.15205,-0.201184,-0.438514,-0.021676,-0.561757,0.666329
26,65,-0.0872665,-0.698132,-0.174533,-0.174533,-0.0836122,-0.69759,-0.15205,-0.201184,-0.438514,-0.021676,-0.561757,0.666329
26,65,-0.0872665,-0.698132,-0.174533,-0.174533,-0.0836122,-0.69759,-0.15205,-0.201184,-0.438514,-0.021676,-0.561757,0.666329
26,65,-0.0872665,-0.698132,-0.174533,-0.174533,-0.0836122,-0.69759,-0.15205,-0.201184,-0.438514,-0.021676,-0.561757,0.666329
26,65,-0.0872665,-0.698132,-0.174533,-0.174533,-0.0836122,-0.69759,-0.15205,-0.201184,-0.438514,-0.021676,-0.561757,0.666329
26,65,-0.0872665,-0.698132,-0.174533,-0.174533,-0.0836122,-0.69759,-0.15205,-0.201184,-0.438514,-0.021676,-0.561757,0.666329
26,65,-0.0872665,-0.698132,-0.174533,-0.174533,-0.0836122,-0.69759,-0.15205,-0.201184,-0.438514,-0.021676,-0.561757,0.666329
26,65,-0.0872665,-0.698132,-0.174533,-0.174533,-0.0836122,-0.69759,-0.152109,-0.201105,-0.438514,-0.021676,-0.560293,0.664373
26,65,-0.0872665,-0.698132,-0.174533,-0.174533,-0.0836122,-0.69759,-0.152109,-0.201105,-0.438514,-0.021676,-0.560293,0.664373
26,65,-0.0872665,-0.698132,-0.174533,-0.174533,-0.0836122,-0.69759,-0.152109,-0.201105,-0.438514,-0.021676,-0.560293,0.664373
26,65,-0.0872665,-0.698132,-0.174533,-0.174533,-0.0836122,-0.69759,-0.152109,-0.201105,-0.438514,-0.021676,-0.560293,0.664373
26,65,-0.0872665,-0.698132,-0.174533,-0.174533,-0.0836122,-0.697641,-0.152109,-0.201105,-0.438514,-0.0196424,-0.560293,0.664373
26,65,-0.0872665,-0.698132,-0.174533,-0.174533,-0.0836122,-0.697641,-0.152109,-0.201105,-0.438514,-0.0196424,-0.560293,0.664373
26,65,-0.0872665,-0.698132,-0.174533,-0.174533,-0.0836122,-0.697641,-0.152106,-0.201046,-0.438514,-0.0196424,-0.560355,0.662888
26,65,-0.0872665,-0.698132,-0.174533,-0.174533,-0.0836122,-0.697641,-0.152106,-0.201046,-0.438514,-0.0196424,-0.560355,0.662888
26,65,-0.0872665,-0.698132,-0.174533,-0.174533,-0.0836122,-0.697641,-0.152106,-0.201046,-0.438514,-0.0196424,-0.560355,0.662888
26,65,-0.0872665,-0.698132,-0.174533,-0.174533,-0.0836122,-0.697641,-0.152106,-0.201046,-0.438514,-0.0196424,-0.560364,0.662882
26,65,-0.0872665,-0.698132,-0.174533,-0.174533,-0.0836122,-0.697641,-0.152104,-0.200987,-0.438514,-0.0196424,-0.560443,0.661386
26,65,-0.0872665,-0.698132,-0.174533,-0.174533,-0.0836122,-0.697641,-0.152104,-0.200987,-0.438514,-0.0196424,-0.560458,0.661376
26,65,-0.0872665,-0.698132,-0.174533,-0.174533,-0.0836122,-0.697641,-0.152104,-0.200987,-0.438514,-0.0196424,-0.560472,0.661368
26,65,-0.0872665,-0.698132,-0.174533,-0.174533,-0.0836122,-0.697641,-0.152104,-0.200987,-0.438514,-0.0196424,-0.560485,0.66136
26,65,-0.0872665,-0.698132,-0.174533,-0.174533,-0.0836122,-0.697641,-0.152165,-0.200967,-0.438514,-0.0196424,-0.558971,0.660869
26,65,-0.0872665,-0.698132,-0.174533,-0.174533,-0.0836122,-0.697641,-0.152165,-0.200967,-0.438514,-0.0196424,-0.558981,0.660862
26,65,-0.0872665,-0.698132,-0.174533,-0.174533,-0.0836122,-0.697641,-0.152165,-0.200967,-0.438514,-0.0196424,-0.55899,0.660856
26,65,-0.0872665,-0.698132,-0.174533,-0.174533,-0.0836122,-0.697641,-0.152165,-0.200967,-0.438514,-0.0196424,-0.558999,0.660851
26,65,-0.0872665,-0.698132,-0.174533,-0.174533,-0.0836122,-0.697641,-0.152165,-0.200967,-0.438514,-0.0196424,-0.559007,0.660845
26,65,-0.0872665,-0.698132,-0.174533,-0.174533,-0.0836122,-0.697641,-0.152162,-0.200908,-0.438514,-0.0196424,-0.559077,0.659342
26,65,-0.0872665,-0.698132,-0.174533,-0.174533,-0.0836122,-0.697641,-0.152162,-0.200908,-0.438514,-0.0196424,-0.559084,0.659338
26,65,-0.0872665,-0.698132,-0.174533,-0.174533,-0.0836122,-0.697641,-0.152162,-0.200908,-0.438514,-0.0196424,-0.559091,0.659334
26,65,-0.0872665,-0.698132,-0.174533,-0.174533,-0.0836122,-0.697641,-0.152162,-0.200908,-0.438514,-0.0196424,-0.559097,0.65933
26,65,-0.0872665,-0.698132,-0.174533,-0.174533,-0.0836122,-0.697641,-0.152162,-0.200908,-0.438514,-0.0196424,-0.559103,0.659326
26,65,-0.0872665,-0.698132,-0.174533,-0.174533,-0.0836122,-0.697641,-0.152162,-0.200908,-0.438514,-0.0196424,-0.559108,0.659323
26,65,-0.0872665,-0.698132,-0.174533,-0.174533,-0.0836122,-0.697641,-0.152162,-0.200908,-0.438514,-0.0196424,-0.559113,0.65932
26,65,-0.0872665,-0.698132,-0.174533,-0.174533,-0.0836122,-0.697641,-0.152162,-0.200908,-0.438514,-0.0196424,-0.559117,0.659317
26,65,-0.0872665,-0.698132,-0.174533,-0.174533,-0.0836122,-0.697641,-0.152162,-0.200908,-0.438514,-0.0196424,-0.559122,0.659314
26,65,-0.0872665,-0.698132,-0.174533,-0.174533,-0.0835406,-0.697641,-0.152162,-0.200908,-0.447104,-0.0196424,-0.559126,0.659311
26,65,-0.0872665,-0.698132,-0.174533,-0.174533,-0.0835406,-0.697641,-0.15216,-0.200849,-0.447104,-0.0196424,-0.559192,0.657831
26,65,-0.0872665,-0.698132,-0.174533,-0.174533,-0.0835406,-0.697641,-0.15216,-0.200849,-0.447104,-0.0196424,-0.559196,0.657828
26,65,-0.0872665,-0.698132,-0.174533,-0.174533,-0.0835406,-0.697641,-0.15216,-0.200849,-0.447104,-0.0196424,-0.559199,0.657826
26,65,-0.0872665,-0.698132,-0.174533,-0.174533,-0.0835406,-0.697641,-0.15216,-0.200849,-0.447104,-0.0196424,-0.559203,0.657824
26,65,-0.0872665,-0.698132,-0.174533,-0.174533,-0.0835406,-0.697641,-0.15216,-0.200849,-0.447104,-0.0196424,-0.559206,0.657822
26,65,-0.0872665,-0.698132,-0.174533,-0.174533,-0.0835406,-0.697641,-0.15216,-0.200849,-0.447104,-0.0196424,-0.559209,0.65782
26,65,-0.0872665,-0.698132,-0.174533,-0.174533,-0.0835406,-0.697641,-0.15216,-0.200849,-0.447104,-0.0196424,-0.559212,0.657818
26,65,-0.0872665,-0.698132,-0.174533,-0.174533,-0.0835406,-0.697641,-0.15216,-0.200849,-0.447104,-0.0196424,-0.559215,0.657816
26,65,-0.0872665,-0.698132,-0.174533,-0.174533,-0.0835406,-0.697641,-0.152221,-0.20083,-0.447104,-0.0196424,-0.557692,0.65733
26,65,-0.0872665,-0.698132,-0.174533,-0.174533,-0.0835406,-0.697641,-0.152221,-0.20083,-0.447104,-0.0196424,-0.557695,0.657329
26,65,-0.0872665,-0.698132,-0.174533,-0.174533,-0.0835406,-0.697641,-0.152221,-0.20083,-0.447104,-0.0196424,-0.557697,0.657327
26,65,-0.0872665,-0.698132,-0.174533,-0.174533,-0.0835406,-0.697641,-0.152221,-0.20083,-0.447104,-0.0196424,-0.5577,0.657326
26,65,-0.0872665,-0.698132,-0.174533,-0.174533,-0.0835406,-0.697641,-0.152221,-0.20083,-0.447104,-0.0196424,-0.557702,0.657324
26,65,-0.0872665,-0.698132,-0.174533,-0.174533,-0.0835406,-0.697641,-0.152221,-0.20083,-0.447104,-0.0196424,-0.557704,0.657323
26,65,-0.0872665,-0.698132,-0.174533,-0.174533,-0.0835406,-0.697641,-0.152221,-0.20083,-0.447104,-0.0196424,-0.557706,0.657322
26,65,-0.0872665,-0.698132,-0.174533,-0.174533,-0.0835406,-0.697641,-0.152221,-0.20083,-0.447104,-0.0196424,-0.557708,0.657321
26,65,-0.0872665,-0.698132,-0.174533,-0.174533,-0.0835406,-0.697641,-0.152221,-0.20083,-0.447104,-0.0196424,-0.55771,0.657319
26,65,-0.0872665,-0.698132,-0.174533,-0.174533,-0.083469,-0.697641,-0.152221,-0.20083,-0.455695,-0.0196424,-0.557712,0.657318
26,65,-0.0872665,-0.698132,-0.174533,-0.174533,-0.083469,-0.697641,-0.152221,-0.20083,-0.455695,-0.0196424,-0.557714,0.657317
26,65,-0.0872665,-0.698132,-0.174533,-0.174533,-0.083469,-0.697641,-0.152221,-0.20083,-0.455695,-0.0196424,-0.557715,0.657316
26,65,-0.0872665,-0.698132,-0.174533,-0.174533,-0.083469,-0.697641,-0.152221,-0.20083,-0.455695,-0.0196424,-0.557717,0.657315
26,65,-0.0872665,-0.698132,-0.174533,-0.174533,-0.083469,-0.697641,-0.152221,-0.20083,-0.455695,-0.0196424,-0.557718,0.657314
26,65,-0.0872665,-0.698132,-0.174533,-0.174533,-0.083469,-0.697641,-0.152221,-0.20083,-0.455695,-0.0196424,-0.55772,0.657313
26,65,-0.0872665,-0.698132,-0.174533,-0.174533,-0.083469,-0.697641,-0.152221,-0.20083,-0.455695,-0.0196424,-0.557721,0.657312
26,65,-0.0872665,-0.698132,-0.174533,-0.174533,-0.083469,-0.697641,-0.152221,-0.20083,-0.455695,-0.0196424,-0.557723,0.657311
26,65,-0.0872665,-0.698132,-0.174533,-0.174533,-0.083469,-0.697641,-0.152221,-0.20083,-0.455695,-0.0196424,-0.557724,0.65731
26,65,-0.0872665,-0.698132,-0.174533,-0.174533,-0.083469,-0.697691,-0.152221,-0.20083,-0.455695,-0.0176087,-0.557726,0.657309
26,65,-0.0872665,-0.698132,-0.174533,-0.174533,-0.083469,-0.697691,-0.152221,-0.20083,-0.455695,-0.0176087,-0.557727,0.657309
26,65,-0.0872665,-0.698132,-0.174533,-0.174533,-0.083469,-0.697691,-0.152221,-0.20083,-0.455695,-0.0176087,-0.557728,0.657308
26,65,-0.0872665,-0.698132,-0.174533,-0.174533,-0.083469,-0.697691,-0.152221,-0.20083,-0.455695,-0.0176087,-0.557729,0.657311
26,65,-0.0872665,-0.698132,-0.174533,-0.174533,-0.0833974,-0.697691,-0.152221,-0.20083,-0.464285,-0.0176087,-0.55773,0.657315
26,65,-0.0872665,-0.698132,-0.174533,-0.174533,-0.0833974,-0.697691,-0.152221,-0.20083,-0.464285,-0.0176087,-0.557731,0.657319
26,65,-0.0872665,-0.698132,-0.174533,-0.174533,-0.0833974,-0.697691,-0.152221,-0.20083,-0.464285,-0.0176087,-0.557732,0.657323
26,65,-0.0872665,-0.698132,-0.174533,-0.174533,-0.0833974,-0.697691,-0.152221,-0.20083,-0.464285,-0.0176087,-0.557733,0.657327
26,65,-0.0872665,-0.698132,-0.174533,-0.174533,-0.0833974,-0.697691,-0.152221,-0.20083,-0.464285,-0.0176087,-0.557734,0.65733
26,65,-0.0872665,-0.698132,-0.174533,-0.174533,-0.0833974,-0.697691,-0.152221,-0.20083,-0.464285,-0.0176087,-0.557735,0.657333
26,65,-0.0872665,-0.698132,-0.174533,-0.174533,-0.0833974,-0.697691,-0.152221,-0.20083,-0.464285,-0.0176087,-0.557736,0.657336
26,65,-0.0872665,-0.698132,-0.174533,-0.174533,-0.0833974,-0.697691,-0.152221,-0.20083,-0.464285,-0.0176087,-0.557736,0.657339
26,65,-0.0872665,-0.698132,-0.174533,-0.174533,-0.0833974,-0.697691,-0.152221,-0.20083,-0.464285,-0.0176087,-0.557737,0.657342
26,65,-0.0872665,-0.698132,-0.174533,-0.174533,-0.0833974,-0.697691,-0.152221,-0.20083,-0.464285,-0.0176087,-0.557738,0.657344
26,65,-0.0872665,-0.698132,-0.174533,-0.174533,-0.0833974,-0.697691,-0.152221,-0.20083,-0.464285,-0.0176087,-0.557739,0.657346
26,65,-0.0872665,-0.698132,-0.174533,-0.174533,-0.0833258,-0.697691,-0.152221,-0.20083,-0.472875,-0.0176087,-0.55774,0.657349
26,65,-0.0872665,-0.698132,-0.174533,-0.174533,-0.0833258,-0.697691,-0.152218,-0.20077,-0.472875,-0.0176087,-0.557801,0.655909
26,65,-0.0872665,-0.698132,-0.174533,-0.174533,-0.0833258,-0.697691,-0.152218,-0.20077,-0.472875,-0.0176087,-0.557801,0.655909
26,65,-0.0872665,-0.698132,-0.174533,-0.174533,-0.0833258,-0.697691,-0.152218,-0.20077,-0.472875,-0.0176087,-0.557802,0.655908
26,65,-0.0872665,-0.698132,-0.174533,-0.174533,-0.0833258,-0.697691,-0.152218,-0.20077,-0.472875,-0.0176087,-0.557803,0.655908
26,65,-0.0872665,-0.698132,-0.174533,-0.174533,-0.0833258,-0.697691,-0.152218,-0.20077,-0.472875,-0.0176087,-0.557804,0.655907
26,65,-0.0872665,-0.698132,-0.174533,-0.174533,-0.0833258,-0.697691,-0.152218,-0.20077,-0.472875,-0.0176087,-0.557805,0.655907
26,65,-0.0872665,-0.698132,-0.174533,-0.174533,-0.0832543,-0.697691,-0.152218,-0.20077,-0.491736,-0.0176087,-0.557867,0.655867
26,65,-0.0872665,-0.698132,-0.174533,-0.174533,-0.0832543,-0.697691,-0.152218,-0.20077,-0.491736,-0.0176087,-0.557867,0.655867
26,65,-0.0872665,-0.698132,-0.174533,-0.174533,-0.0832543,-0.697691,-0.152218,-0.20077,-0.491736,-0.0176087,-0.557867,0.655867
26,65,-0.0872665,-0.698132,-0.174533,-0.174533,-0.0832543,-0.697691,-0.152218,-0.20077,-0.491736,-0.0176087,-0.557867,0.655867
26,65,-0.0872665,-0.698132,-0.174533,-0.174533,-0.0832543,-0.697691,-0.152218,-0.20077,-0.491736,-0.0176087,-0.557867,0.655867
26,65,-0.0872665,-0.698132,-0.174533,-0.174533,-0.0832543,-0.697691,-0.152218,-0.20077,-0.491736,-0.0176087,-0.557867,0.655867
26,65,-0.0872665,-0.698132,-0.174533,-0.174533,-0.0832543,-0.697691,-0.152218,-0.20077,-0.491736,-0.0176087,-0.557867,0.655867
26,65,-0.0872665,-0.698132,-0.174533,-0.174533,-0.0832543,-0.697691,-0.152218,-0.20077,-0.491736,-0.0176087,-0.557867,0.655867
26,65,-0.0872665,-0.698132,-0.174533,-0.174533,-0.0832543,-0.697691,-0.152218,-0.20077,-0.491736,-0.0176087,-0.557867,0.655867
26,65,-0.0872665,-0.698132,-0.174533,-0.174533,-0.0832543,-0.697691,-0.152279,-0.200751,-0.491736,-0.0176087,-0.556342,0.655383
26,65,-0.0872665,-0.698132,-0.174533,-0.174533,-0.0832543,-0.697691,-0.152279,-0.200751,-0.491736,-0.0176087,-0.556342,0.655383
26,65,-0.0872665,-0.698132,-0.174533,-0.174533,-0.0832543,-0.697691,-0.152279,-0.200751,-0.491736,-0.0176087,-0.556342,0.655383
26,65,-0.0872665,-0.698132,-0.174533,-0.174533,-0.0832543,-0.697691,-0.152279,-0.200751,-0.491736,-0.0176087,-0.556342,0.655383
26,65,-0.0872665,-0.698132,-0.174533,-0.174533,-0.0832543,-0.697691,-0.152279,-0.200751,-0.491736,-0.0176087,-0.556342,0.655383
26,65,-0.0872665,-0.698132,-0.174533,-0.174533,-0.0832543,-0.697691,-0.152277,-0.200692,-0.491736,-0.0176087,-0.556404,0.653916
26,65,-0.0872665,-0.698132,-0.174533,-0.174533,-0.0832543,-0.697691,-0.152277,-0.200692,-0.491736,-0.0176087,-0.556404,0.653916
26,65,-0.0872665,-0.698132,-0.174533,-0.174533,-0.0832543,-0.697691,-0.152277,-0.200692,-0.491736,-0.0176087,-0.556404,0.653916
26,65,-0.0872665,-0.698132,-0.174533,-0.174533,-0.0831827,-0.697691,-0.152277,-0.200692,-0.500416,-0.0176087,-0.556404,0.653916
26,65,-0.0872665,-0.698132,-0.174533,-0.174533,-0.0831827,-0.697691,-0.152277,-0.200692,-0.500416,-0.0176087,-0.556404,0.653916
26,65,-0.0872665,-0.698132,-0.174533,-0.174533,-0.0831827,-0.697691,-0.152277,-0.200692,-0.500416,-0.0176087,-0.556404,0.653916
26,65,-0.0872665,-0.698132,-0.174533,-0.174533,-0.0831827,-0.697691,-0.152277,-0.200692,-0.500416,-0.0176087,-0.556404,0.653916
26,65,-0.0872665,-0.698132,-0.174533,-0.174533,-0.0831827,-0.697691,-0.152277,-0.200692,-0.500416,-0.0176087,-0.556404,0.653916
26,65,-0.0872665,-0.698132,-0.174533,-0.174533,-0.0831827,-0.697691,-0.152277,-0.200692,-0.500416,-0.0176087,-0.556404,0.653916
26,65,-0.0872665,-0.698132,-0.174533,-0.174533,-0.0831827,-0.697691,-0.152277,-0.200692,-0.500416,-0.0176087,-0.556404,0.653916
26,65,-0.0872665,-0.698132,-0.174533,-0.174533,-0.0831827,-0.697691,-0.152277,-0.200692,-0.500416,-0.0176087,-0.556404,0.653916
26,65,-0.0872665,-0.698132,-0.174533,-0.174533,-0.0831827,-0.697691,-0.152277,-0.200692,-0.500416,-0.0176087,-0.556404,0.653916
26,65,-0.0872665,-0.698132,-0.174533,-0.174533,-0.0831827,-0.697691,-0.152274,-0.200633,-0.500416,-0.0176087,-0.556463,0.652494
26,65,-0.0872665,-0.698132,-0.174533,-0.174533,-0.0831827,-0.697691,-0.152274,-0.200633,-0.500416,-0.0176087,-0.556463,0.652494
26,65,-0.0872665,-0.698132,-0.174533,-0.174533,-0.0831827,-0.697691,-0.152274,-0.200633,-0.500416,-0.0176087,-0.556463,0.652494
26,65,-0.0872665,-0.698132,-0.174533,-0.174533,-0.0831827,-0.697691,-0.152274,-0.200633,-0.500416,-0.0176087,-0.556463,0.652494
26,65,-0.0872665,-0.698132,-0.174533,-0.174533,-0.0831111,-0.697691,-0.152274,-0.200633,-0.508961,-0.0176087,-0.556463,0.652494
26,65,-0.0872665,-0.698132,-0.174533,-0.174533,-0.0831111,-0.697691,-0.152274,-0.200633,-0.508961,-0.0176087,-0.556463,0.652494
26,65,-0.0872665,-0.698132,-0.174533,-0.174533,-0.0831111,-0.697691,-0.152274,-0.200633,-0.508961,-0.0176087,-0.556463,0.652494
26,65,-0.0872665,-0.698132,-0.174533,-0.174533,-0.0831111,-0.697691,-0.152274,-0.200633,-0.508961,-0.0176087,-0.556463,0.652494
26,65,-0.0872665,-0.698132,-0.174533,-0.174533,-0.0831111,-0.697691,-0.152274,-0.200633,-0.508961,-0.0176087,-0.556463,0.652494
26,65,-0.0872665,-0.698132,-0.174533,-0.174533,-0.0831111,-0.697691,-0.152335,-0.200613,-0.508961,-0.0176087,-0.554939,0.65201
26,65,-0.0872665,-0.698132,-0.174533,-0.174533,-0.0831111,-0.697691,-0.152335,-0.200613,-0.508961,-0.0176087,-0.554939,0.65201
26,65,-0.0872665,-0.698132,-0.174533,-0.174533,-0.0831111,-0.697691,-0.152335,-0.200613,-0.508961,-0.0176087,-0.554939,0.65201
26,65,-0.0872665,-0.698132,-0.174533,-0.174533,-0.0831111,-0.697691,-0.152335,-0.200613,-0.508961,-0.0176087,-0.554939,0.65201
26,65,-0.0872665,-0.698132,-0.174533,-0.174533,-0.0831111,-0.697691,-0.152335,-0.200613,-0.508961,-0.0176087,-0.554939,0.65201
26,65,-0.0872665,-0.698132,-0.174533,-0.174533,-0.0831111,-0.697691,-0.152333,-0.200554,-0.508961,-0.0176087,-0.555,0.650529
26,65,-0.0872665,-0.698132,-0.174533,-0.174533,-0.0831111,-0.697691,-0.152333,-0.200554,-0.508961,-0.0176087,-0.555,0.650529
26,65,-0.0872665,-0.698132,-0.174533,-0.174533,-0.0831111,-0.697691,-0.152333,-0.200554,-0.508961,-0.0176087,-0.555,0.650529
26,65,-0.0872665,-0.698132,-0.174533,-0.174533,-0.0831111,-0.697691,-0.152333,-0.200554,-0.508961,-0.0176087,-0.555,0.650529
26,65,-0.0872665,-0.698132,-0.174533,-0.174533,-0.0831111,-0.697691,-0.152333,-0.200554,-0.508961,-0.0176087,-0.555,0.650529
26,65,-0.0872665,-0.698132,-0.174533,-0.174533,-0.0831111,-0.697691,-0.152333,-0.200554,-0.508961,-0.0176087,-0.555,0.650529
26,65,-0.0872665,-0.698132,-0.174533,-0.174533,-0.0831111,-0.697691,-0.152333,-0.200554,-0.508961,-0.0176087,-0.555,0.650529
26,65,-0.0872665,-0.698132,-0.174533,-0.174533,-0.0831111,-0.697691,-0.152333,-0.200554,-0.508961,-0.0176087,-0.555,0.650529
26,65,-0.0872665,-0.698132,-0.174533,-0.174533,-0.0831111,-0.697691,-0.152333,-0.200554,-0.508961,-0.0176087,-0.555,0.650529
26,65,-0.0872665,-0.698132,-0.174533,-0.174533,-0.0831111,-0.697691,-0.152333,-0.200554,-0.508961,-0.0176087,-0.555,0.650529
26,65,-0.0872665,-0.698132,-0.174533,-0.174533,-0.0831111,-0.697691,-0.152394,-0.200535,-0.508961,-0.0176087,-0.553476,0.650045
26,65,-0.0872665,-0.698132,-0.174533,-0.174533,-0.0831111,-0.697691,-0.152394,-0.200535,-0.508961,-0.0176087,-0.553476,0.650045
26,65,-0.0872665,-0.698132,-0.174533,-0.174533,-0.0831111,-0.697691,-0.152394,-0.200535,-0.508961,-0.0176087,-0.553476,0.650045
26,65,-0.0872665,-0.698132,-0.174533,-0.174533,-0.0831111,-0.697691,-0.152394,-0.200535,-0.508961,-0.0176087,-0.553476,0.650045
26,65,-0.0872665,-0.698132,-0.174533,-0.174533,-0.0831111,-0.697742,-0.152394,-0.200535,-0.508961,-0.0155751,-0.553476,0.650045
26,65,-0.0872665,-0.698132,-0.174533,-0.174533,-0.0831111,-0.697742,-0.152394,-0.200535,-0.508961,-0.0155751,-0.553476,0.650045
26,65,-0.0872665,-0.698132,-0.174533,-0.174533,-0.0831111,-0.697742,-0.152394,-0.200535,-0.508961,-0.0155751,-0.553476,0.650045
26,65,-0.0872665,-0.698132,-0.174533,-0.174533,-0.0831111,-0.697742,-0.152394,-0.200535,-0.508961,-0.0155751,-0.553476,0.650045
26,65,-0.0872665,-0.698132,-0.174533,-0.174533,-0.0831111,-0.697742,-0.152394,-0.200535,-0.508961,-0.0155751,-0.553476,0.650045
26,65,-0.0872665,-0.698132,-0.174533,-0.174533,-0.0831111,-0.697742,-0.152394,-0.200535,-0.508961,-0.0155751,-0.553476,0.650045
26,65,-0.0872665,-0.698132,-0.174533,-0.174533,-0.0831111,-0.697742,-0.152394,-0.200535,-0.508961,-0.0155751,-0.553476,0.650045
26,65,-0.0872665,-0.698132,-0.174533,-0.174533,-0.0831111,-0.697742,-0.152394,-0.200535,-0.508961,-0.0155751,-0.553476,0.650045
26,65,-0.0872665,-0.698132,-0.174533,-0.174533,-0.0831111,-0.697742,-0.152394,-0.200535,-0.508961,-0.0155751,-0.553476,0.650045
26,65,-0.0872665,-0.698132,-0.174533,-0.174533,-0.0831111,-0.697742,-0.152394,-0.200535,-0.508961,-0.0155751,-0.553476,0.650045
26,65,-0.0872665,-0.698132,-0.174533,-0.174533,-0.0831111,-0.697742,-0.152455,-0.200515,-0.508961,-0.0155751,-0.551951,0.649561
26,65,-0.0872665,-0.698132,-0.174533,-0.174533,-0.0831111,-0.697742,-0.152455,-0.200515,-0.508961,-0.0155751,-0.551951,0.649561
26,65,-0.0872665,-0.698132,-0.174533,-0.174533,-0.0831111,-0.697742,-0.152455,-0.200515,-0.508961,-0.0155751,-0.551951,0.649561
26,65,-0.0872665,-0.698132,-0.174533,-0.174533,-0.0831111,-0.697742,-0.152455,-0.200515,-0.508961,-0.0155751,-0.551951,0.649561
26,65,-0.0872665,-0.698132,-0.174533,-0.174533,-0.0831111,-0.697742,-0.152455,-0.200515,-0.508961,-0.0155751,-0.551951,0.649561
26,65,-0.0872665,-0.698132,-0.174533,-0.174533,-0.0831111,-0.697742,-0.152455,-0.200515,-0.508961,-0.0155751,-0.551951,0.649561
26,65,-0.0872665,-0.698132,-0.174533,-0.174533,-0.0831111,-0.697742,-0.152455,-0.200515,-0.508961,-0.0155751,-0.551951,0.649561
26,65,-0.0872665,-0.698132,-0.174533,-0.174533,-0.0831111,-0.697742,-0.152455,-0.200515,-0.508961,-0.0155751,-0.551951,0.649561
26,65,-0.0872665,-0.698132,-0.174533,-0.174533,-0.0831111,-0.697742,-0.152455,-0.200515,-0.508961,-0.0155751,-0.551951,0.649561
26,65,-0.0872665,-0.698132,-0.174533,-0.174533,-0.0831111,-0.697742,-0.152455,-0.200515,-0.508961,-0.0155751,-0.551951,0.649561
26,65,-0.0872665,-0.698132,-0.174533,-0.174533,-0.0831111,-0.697742,-0.152455,-0.200515,-0.508961,-0.0155751,-0.551951,0.649561
26,65,-0.0872665,-0.698132,-0.174533,-0.174533,-0.0831111,-0.697742,-0.152452,-0.200456,-0.508961,-0.0155751,-0.552016,0.648021
26,65,-0.0872665,-0.698132,-0.174533,-0.174533,-0.0831111,-0.697742,-0.152452,-0.200456,-0.508961,-0.0155751,-0.552016,0.648021
26,65,-0.0872665,-0.698132,-0.174533,-0.174533,-0.0831111,-0.697742,-0.152452,-0.200456,-0.508961,-0.0155751,-0.552016,0.648021
26,65,-0.0872665,-0.698132,-0.174533,-0.174533,-0.0831111,-0.697742,-0.152452,-0.200456,-0.508961,-0.0155751,-0.552016,0.648021
26,65,-0.0872665,-0.698132,-0.174533,-0.174533,-0.0831111,-0.697742,-0.152452,-0.200456,-0.508845,-0.0155751,-0.552016,0.648021
26,65,-0.0872665,-0.698132,-0.174533,-0.174533,-0.0831111,-0.697742,-0.152452,-0.200456,-0.508642,-0.0155751,-0.552016,0.648021
26,65,-0.0872665,-0.698132,-0.174533,-0.174533,-0.0831111,-0.697742,-0.152452,-0.200456,-0.508422,-0.0155751,-0.552016,0.648021
26,65,-0.0872665,-0.698132,-0.174533,-0.174533,-0.0831111,-0.697742,-0.152452,-0.200456,-0.508258,-0.0155751,-0.552016,0.648021
26,65,-0.0872665,-0.698132,-0.174533,-0.174533,-0.0831111,-0.697742,-0.152452,-0.200456,-0.508055,-0.0155751,-0.552016,0.648021
26,65,-0.0872665,-0.698132,-0.174533,-0.174533,-0.0831111,-0.697742,-0.152452,-0.200456,-0.507882,-0.0155751,-0.552016,0.648021
26,65,-0.0872665,-0.698132,-0.174533,-0.174533,-0.0831111,-0.697742,-0.152452,-0.200456,-0.507715,-0.0155751,-0.552016,0.648021
26,65,-0.0872665,-0.698132,-0.174533,-0.174533,-0.0831111,-0.697742,-0.152452,-0.200456,-0.507554,-0.0155751,-0.552016,0.648021
26,65,-0.0872665,-0.698132,-0.174533,-0.174533,-0.0831111,-0.697742,-0.152452,-0.200456,-0.507398,-0.0155751,-0.552016,0.648021
26,65,-0.0872665,-0.698132,-0.174533,-0.174533,-0.0831111,-0.697742,-0.152452,-0.200456,-0.507248,-0.0155751,-0.552016,0.648021
26,65,-0.0872665,-0.698132,-0.174533,-0.174533,-0.0831111,-0.697742,-0.152452,-0.200456,-0.507103,-0.0155751,-0.552016,0.648021
26,65,-0.0872665,-0.698132,-0.174533,-0.174533,-0.0831111,-0.697742,-0.152452,-0.200456,-0.506962,-0.0155751,-0.552016,0.648021
26,65,-0.0872665,-0.698132,-0.174533,-0.174533,-0.0831111,-0.697742,-0.152452,-0.200456,-0.506827,-0.0155751,-0.552016,0.648021
26,65,-0.0872665,-0.698132,-0.174533,-0.174533,-0.0831111,-0.697742,-0.152452,-0.200456,-0.506695,-0.0155751,-0.552016,0.648021
26,65,-0.0872665,-0.698132,-0.174533,-0.174533,-0.0831111,-0.697742,-0.152452,-0.200456,-0.506568,-0.0155751,-0.552016,0.648021
26,65,-0.0872665,-0.698132,-0.174533,-0.174533,-0.0831111,-0.697742,-0.152452,-0.200456,-0.506445,-0.0155751,-0.552016,0.648021
26,65,-0.0872665,-0.698132,-0.174533,-0.174533,-0.0831111,-0.697742,-0.152452,-0.200456,-0.506325,-0.0155751,-0.552016,0.648021
26,65,-0.0872665,-0.698132,-0.174533,-0.174533,-0.0831111,-0.697742,-0.152452,-0.200456,-0.506209,-0.0155751,-0.552016,0.648021
26,65,-0.0872665,-0.698132,-0.174533,-0.174533,-0.0831111,-0.697742,-0.152452,-0.200456,-0.506097,-0.0155751,-0.552016,0.648021
26,65,-0.0872665,-0.698132,-0.174533,-0.174533,-0.0831111,-0.697793,-0.152452,-0.200456,-0.505988,-0.0135414,-0.552016,0.648021
26,65,-0.0872665,-0.698132,-0.174533,-0.174533,-0.0831111,-0.697793,-0.152452,-0.200456,-0.505882,-0.0135414,-0.552016,0.648021
26,65,-0.0872665,-0.698132,-0.174533,-0.174533,-0.0831111,-0.697793,-0.152452,-0.200456,-0.505779,-0.0135414,-0.552016,0.648021
26,65,-0.0872665,-0.698132,-0.174533,-0.174533,-0.0831111,-0.697793,-0.152513,-0.200437,-0.505679,-0.0135414,-0.550491,0.647537
26,65,-0.0872665,-0.698132,-0.174533,-0.174533,-0.0831111,-0.697793,-0.152513,-0.200437,-0.505581,-0.0135414,-0.550491,0.647537
26,65,-0.0872665,-0.698132,-0.174533,-0.174533,-0.0831111,-0.697793,-0.152513,-0.200437,-0.505487,-0.0135414,-0.550491,0.647537
26,65,-0.0872665,-0.698132,-0.174533,-0.174533,-0.0831111,-0.697793,-0.152513,-0.200437,-0.505394,-0.0135414,-0.550491,0.647537
26,65,-0.0872665,-0.698132,-0.174533,-0.174533,-0.0831111,-0.697793,-0.152513,-0.200437,-0.505305,-0.0135414,-0.550491,0.647537
26,65,-0.0872665,-0.698132,-0.174533,-0.174533,-0.0831111,-0.697793,-0.152513,-0.200437,-0.505217,-0.0135414,-0.550491,0.647537
26,65,-0.0872665,-0.698132,-0.174533,-0.174533,-0.0831111,-0.697793,-0.152513,-0.200437,-0.505132,-0.0135414,-0.550491,0.647537
26,65,-0.0872665,-0.698132,-0.174533,-0.174533,-0.0831111,-0.697793,-0.152513,-0.200437,-0.50505,-0.0135414,-0.550491,0.647537
26,65,-0.0872665,-0.698132,-0.174533,-0.174533,-0.0831111,-0.697793,-0.152513,-0.200437,-0.504969,-0.0135414,-0.550491,0.647537
26,65,-0.0872665,-0.698132,-0.174533,-0.174533,-0.0831111,-0.697793,-0.152513,-0.200437,-0.50489,-0.0135414,-0.550491,0.647537
26,65,-0.0872665,-0.698132,-0.174533,-0.174533,-0.0831111,-0.697793,-0.152511,-0.200378,-0.504813,-0.0135414,-0.550551,0.646116
26,65,-0.0872665,-0.698132,-0.174533,-0.174533,-0.0831111,-0.697793,-0.152511,-0.200378,-0.504738,-0.0135414,-0.550551,0.646116
26,65,-0.0872665,-0.698132,-0.174533,-0.174533,-0.0831111,-0.697793,-0.152511,-0.200378,-0.504656,-0.0135414,-0.550551,0.646116
26,65,-0.0872665,-0.698132,-0.174533,-0.174533,-0.0831111,-0.697793,-0.152511,-0.200378,-0.498646,-0.0135414,-0.550551,0.646116
26,65,-0.0872665,-0.698132,-0.174533,-0.174533,-0.0831111,-0.697793,-0.152511,-0.200378,-0.498646,-0.0135414,-0.550551,0.646116
26,65,-0.0872665,-0.698132,-0.174533,-0.174533,-0.0831111,-0.697793,-0.152511,-0.200378,-0.498646,-0.0135414,-0.550551,0.646116
26,65,-0.0872665,-0.698132,-0.174533,-0.174533,-0.0831111,-0.697793,-0.152511,-0.200378,-0.498646,-0.0135414,-0.550551,0.646116
26,65,-0.0872665,-0.698132,-0.174533,-0.174533,-0.0831111,-0.697793,-0.152511,-0.200378,-0.498646,-0.0135414,-0.550551,0.646116
26,65,-0.0872665,-0.698132,-0.174533,-0.174533,-0.0831111,-0.697793,-0.152511,-0.200378,-0.498646,-0.0135414,-0.550551,0.646116
26,65,-0.0872665,-0.698132,-0.174533,-0.174533,-0.0831111,-0.697793,-0.152511,-0.200378,-0.498646,-0.0135414,-0.550551,0.646116
26,65,-0.0872665,-0.698132,-0.174533,-0.174533,-0.0831111,-0.697793,-0.152511,-0.200378,-0.498646,-0.0135414,-0.550551,0.646116
26,65,-0.0872665,-0.698132,-0.174533,-0.174533,-0.0831111,-0.697793,-0.152511,-0.200378,-0.498646,-0.0135414,-0.550551,0.646116
26,65,-0.0872665,-0.698132,-0.174533,-0.174533,-0.0831111,-0.697793,-0.152511,-0.200378,-0.498646,-0.0135414,-0.550551,0.646116
26,65,-0.0872665,-0.698132,-0.174533,-0.174533,-0.0831111,-0.697793,-0.152511,-0.200378,-0.498646,-0.0135414,-0.550551,0.646116
26,65,-0.0872665,-0.698132,-0.174533,-0.174533,-0.0831111,-0.697793,-0.152508,-0.200318,-0.498646,-0.0135414,-0.550613,0.644635
26,65,-0.0872665,-0.698132,-0.174533,-0.174533,-0.0831111,-0.697793,-0.152508,-0.200318,-0.498646,-0.0135414,-0.550613,0.644635
26,65,-0.0872665,-0.698132,-0.174533,-0.174533,-0.0831111,-0.697793,-0.152508,-0.200318,-0.498646,-0.0135414,-0.550613,0.644635
26,65,-0.0872665,-0.698132,-0.174533,-0.174533,-0.0831111,-0.697793,-0.152508,-0.200318,-0.498646,-0.0135414,-0.550613,0.644635
26,65,-0.0872665,-0.698132,-0.174533,-0.174533,-0.0831111,-0.697793,-0.152508,-0.200318,-0.498646,-0.0135414,-0.550613,0.644635
26,65,-0.0872665,-0.698132,-0.174533,-0.174533,-0.0831111,-0.697793,-0.152508,-0.200318,-0.498646,-0.0135414,-0.550613,0.644635
26,65,-0.0872665,-0.698132,-0.174533,-0.174533,-0.0831111,-0.697793,-0.152508,-0.200318,-0.498646,-0.0135414,-0.550613,0.644635
26,65,-0.0872665,-0.698132,-0.174533,-0.174533,-0.0831111,-0.697793,-0.152508,-0.200318,-0.498646,-0.0135414,-0.550613,0.644635
26,65,-0.0872665,-0.698132,-0.174533,-0.174533,-0.0831111,-0.697793,-0.152506,-0.200259,-0.498646,-0.0135414,-0.550675,0.643154
26,65,-0.0872665,-0.698132,-0.174533,-0.174533,-0.0831111,-0.697793,-0.152506,-0.200259,-0.498646,-0.0135414,-0.550675,0.643154
26,65,-0.0872665,-0.698132,-0.174533,-0.174533,-0.0831111,-0.697793,-0.152506,-0.200259,-0.498646,-0.0135414,-0.550675,0.643154
26,65,-0.0872665,-0.698132,-0.174533,-0.174533,-0.0831111,-0.697793,-0.152506,-0.200259,-0.498646,-0.0135414,-0.550675,0.643154
26,65,-0.0872665,-0.698132,-0.174533,-0.174533,-0.0831111,-0.697793,-0.152506,-0.200259,-0.498646,-0.0135414,-0.550675,0.643154
26,65,-0.0872665,-0.698132,-0.174533,-0.174533,-0.0831111,-0.697793,-0.152506,-0.200259,-0.498646,-0.0135414,-0.550675,0.643154
26,65,-0.0872665,-0.698132,-0.174533,-0.174533,-0.0831111,-0.697793,-0.152506,-0.200259,-0.498646,-0.0135414,-0.550675,0.643154
26,65,-0.0872665,-0.698132,-0.174533,-0.174533,-0.0831111,-0.697793,-0.152503,-0.2002,-0.498646,-0.0135414,-0.55074,0.641601
26,65,-0.0872665,-0.698132,-0.174533,-0.174533,-0.0831111,-0.697793,-0.152503,-0.2002,-0.498646,-0.0135414,-0.55074,0.641601
26,65,-0.0872665,-0.698132,-0.174533,-0.174533,-0.0831111,-0.697844,-0.152503,-0.2002,-0.498646,-0.0115078,-0.55074,0.641601
26,65,-0.0872665,-0.698132,-0.174533,-0.174533,-0.0831111,-0.697844,-0.152503,-0.2002,-0.498646,-0.0115078,-0.55074,0.641601
26,65,-0.0872665,-0.698132,-0.174533,-0.174533,-0.0831111,-0.697844,-0.152503,-0.2002,-0.498646,-0.0115078,-0.55074,0.641601
26,65,-0.0872665,-0.698132,-0.174533,-0.174533,-0.0831111,-0.697844,-0.152503,-0.2002,-0.498646,-0.0115078,-0.55074,0.641601
26,65,-0.0872665,-0.698132,-0.174533,-0.174533,-0.0831111,-0.697844,-0.152503,-0.2002,-0.498646,-0.0115078,-0.55074,0.641601
26,65,-0.0872665,-0.698132,-0.174533,-0.174533,-0.0831111,-0.697844,-0.152503,-0.2002,-0.498646,-0.0115078,-0.55074,0.641601
26,65,-0.0872665,-0.698132,-0.174533,-0.174533,-0.0831111,-0.697844,-0.152501,-0.200141,-0.498646,-0.0115078,-0.550804,0.640066
26,65,-0.0872665,-0.698132,-0.174533,-0.174533,-0.0831111,-0.697844,-0.152501,-0.200141,-0.498646,-0.0115078,-0.550804,0.640066
26,65,-0.0872665,-0.698132,-0.174533,-0.174533,-0.0831111,-0.697844,-0.152501,-0.200141,-0.498646,-0.0115078,-0.550804,0.640066
26,65,-0.0872665,-0.698132,-0.174533,-0.174533,-0.0831111,-0.697844,-0.152501,-0.200141,-0.498646,-0.0115078,-0.550804,0.640066
26,65,-0.0872665,-0.698132,-0.174533,-0.174533,-0.0831111,-0.697844,-0.152501,-0.200141,-0.498646,-0.0115078,-0.550804,0.640066
26,65,-0.0872665,-0.698132,-0.174533,-0.174533,-0.0831111,-0.697844,-0.152498,-0.200081,-0.498646,-0.0115078,-0.550868,0.638547
26,65,-0.0872665,-0.698132,-0.174533,-0.174533,-0.0831111,-0.697844,-0.152498,-0.200081,-0.498646,-0.0115078,-0.550868,0.638547
26,65,-0.0872665,-0.698132,-0.174533,-0.174533,-0.0831111,-0.697844,-0.152498,-0.200081,-0.498646,-0.0115078,-0.550868,0.638547
26,65,-0.0872665,-0.698132,-0.174533,-0.174533,-0.0831111,-0.697844,-0.152498,-0.200081,-0.498646,-0.0115078,-0.550868,0.638547
26,65,-0.0872665,-0.698132,-0.174533,-0.174533,-0.0831111,-0.697844,-0.152498,-0.200081,-0.498646,-0.0115078,-0.550868,0.638547
26,65,-0.0872665,-0.698132,-0.174533,-0.174533,-0.0831111,-0.697844,-0.152498,-0.200081,-0.498646,-0.0115078,-0.550868,0.638547
26,65,-0.0872665,-0.698132,-0.174533,-0.174533,-0.0831111,-0.697844,-0.152565,-0.200123,-0.498646,-0.0115078,-0.549215,0.639592
26,65,-0.0872665,-0.698132,-0.174533,-0.174533,-0.0831111,-0.697844,-0.152565,-0.200123,-0.498646,-0.0115078,-0.549215,0.639592
26,65,-0.0872665,-0.698132,-0.174533,-0.174533,-0.0831111,-0.697844,-0.152565,-0.200123,-0.498646,-0.0115078,-0.549215,0.639592
26,65,-0.0872665,-0.698132,-0.174533,-0.174533,-0.0831111,-0.697844,-0.152565,-0.200123,-0.498646,-0.0115078,-0.549215,0.639592
26,65,-0.0872665,-0.698132,-0.174533,-0.174533,-0.0831111,-0.697844,-0.152562,-0.200064,-0.498646,-0.0115078,-0.549277,0.638121
26,65,-0.0872665,-0.698132,-0.174533,-0.174533,-0.0831111,-0.697844,-0.152562,-0.200064,-0.498646,-0.0115078,-0.549277,0.638121
26,65,-0.0872665,-0.698132,-0.174533,-0.174533,-0.0831111,-0.697844,-0.152562,-0.200064,-0.498646,-0.0115078,-0.549277,0.638121
26,65,-0.0872665,-0.698132,-0.174533,-0.174533,-0.0831111,-0.697844,-0.152562,-0.200064,-0.498646,-0.0115078,-0.549277,0.638121
26,65,-0.0872665,-0.698132,-0.174533,-0.174533,-0.0831111,-0.697844,-0.152562,-0.200064,-0.498646,-0.0115078,-0.549277,0.638121
26,65,-0.0872665,-0.698132,-0.174533,-0.174533,-0.0831111,-0.697844,-0.152562,-0.200064,-0.498646,-0.0115078,-0.549277,0.638121
26,65,-0.0872665,-0.698132,-0.174533,-0.174533,-0.0831111,-0.697844,-0.152628,-0.200106,-0.498646,-0.0115078,-0.547625,0.639166
26,65,-0.0872665,-0.698132,-0.174533,-0.174533,-0.0831111,-0.697844,-0.152628,-0.200106,-0.498646,-0.0115078,-0.547625,0.639166
26,65,-0.0872665,-0.698132,-0.174533,-0.174533,-0.0831111,-0.697844,-0.152628,-0.200106,-0.498646,-0.0115078,-0.547625,0.639166
26,65,-0.0872665,-0.698132,-0.174533,-0.174533,-0.0831111,-0.697844,-0.152628,-0.200106,-0.498646,-0.0115078,-0.547625,0.639166
26,65,-0.0872665,-0.698132,-0.174533,-0.174533,-0.0831111,-0.697844,-0.152628,-0.200106,-0.498646,-0.0115078,-0.547625,0.639166
26,65,-0.0872665,-0.698132,-0.174533,-0.174533,-0.0831111,-0.697844,-0.152628,-0.200106,-0.498646,-0.0115078,-0.547625,0.639166
26,65,-0.0872665,-0.698132,-0.174533,-0.174533,-0.0831111,-0.697844,-0.152626,-0.200047,-0.498646,-0.0115078,-0.547686,0.63771
26,65,-0.0872665,-0.698132,-0.174533,-0.174533,-0.0831111,-0.697844,-0.152626,-0.200047,-0.498646,-0.0115078,-0.547686,0.63771
26,65,-0.0872665,-0.698132,-0.174533,-0.174533,-0.0831111,-0.697844,-0.152626,-0.200047,-0.498646,-0.0115078,-0.547686,0.63771
26,65,-0.0872665,-0.698132,-0.174533,-0.174533,-0.0831111,-0.697844,-0.152626,-0.200047,-0.498646,-0.0115078,-0.547686,0.63771
26,65,-0.0872665,-0.698132,-0.174533,-0.174533,-0.0831111,-0.697844,-0.152692,-0.200088,-0.498646,-0.0115078,-0.546033,0.638755
26,65,-0.0872665,-0.698132,-0.174533,-0.174533,-0.0831111,-0.697844,-0.152692,-0.200088,-0.498646,-0.0115078,-0.546033,0.638755
26,65,-0.0872665,-0.698132,-0.174533,-0.174533,-0.0831111,-0.697844,-0.152692,-0.200088,-0.498646,-0.0115078,-0.546033,0.638755
26,65,-0.0872665,-0.698132,-0.174533,-0.174533,-0.0831111,-0.697844,-0.152692,-0.200088,-0.498646,-0.0115078,-0.546033,0.638755
26,65,-0.0872665,-0.698132,-0.174533,-0.174533,-0.0831111,-0.697844,-0.152692,-0.200088,-0.498646,-0.0115078,-0.546033,0.638755
26,65,-0.0872665,-0.698132,-0.174533,-0.174533,-0.0831111,-0.697844,-0.152692,-0.200088,-0.498646,-0.0115078,-0.546033,0.638755
26,65,-0.0872665,-0.698132,-0.174533,-0.174533,-0.0831111,-0.697844,-0.152692,-0.200088,-0.498646,-0.0115078,-0.546033,0.638755
26,65,-0.0872665,-0.698132,-0.174533,-0.174533,-0.0831111,-0.697844,-0.152692,-0.200088,-0.498646,-0.0115078,-0.546033,0.638755
26,65,-0.0872665,-0.698132,-0.174533,-0.174533,-0.0831111,-0.697844,-0.152692,-0.200088,-0.498646,-0.0115078,-0.546033,0.638755
26,65,-0.0872665,-0.698132,-0.174533,-0.174533,-0.0831111,-0.697844,-0.152689,-0.200029,-0.498646,-0.0115078,-0.546095,0.637288
26,65,-0.0872665,-0.698132,-0.174533,-0.174533,-0.0831111,-0.697844,-0.152689,-0.200029,-0.498646,-0.0115078,-0.546095,0.637288
26,65,-0.0872665,-0.698132,-0.174533,-0.174533,-0.0831111,-0.697844,-0.152689,-0.200029,-0.498646,-0.0115078,-0.546095,0.637288
26,65,-0.0872665,-0.698132,-0.174533,-0.174533,-0.0831111,-0.697844,-0.152689,-0.200029,-0.498646,-0.0115078,-0.546095,0.637288
26,65,-0.0872665,-0.698132,-0.174533,-0.174533,-0.0831111,-0.697844,-0.152689,-0.200029,-0.498646,-0.0115078,-0.546095,0.637288
26,65,-0.0872665,-0.698132,-0.174533,-0.174533,-0.0831111,-0.697844,-0.152689,-0.200029,-0.498646,-0.0115078,-0.546095,0.637288
26,65,-0.0872665,-0.698132,-0.174533,-0.174533,-0.0831111,-0.697844,-0.152689,-0.200029,-0.498646,-0.0115078,-0.546095,0.637288
26,65,-0.0872665,-0.698132,-0.174533,-0.174533,-0.0831111,-0.697844,-0.152689,-0.200029,-0.498646,-0.0115078,-0.546095,0.637288
26,65,-0.0872665,-0.698132,-0.174533,-0.174533,-0.0831111,-0.697844,-0.152689,-0.200029,-0.498646,-0.0115078,-0.546095,0.637288
26,65,-0.0872665,-0.698132,-0.174533,-0.174533,-0.0831111,-0.697844,-0.152689,-0.200029,-0.498646,-0.0115078,-0.546095,0.637288
26,65,-0.0872665,-0.698132,-0.174533,-0.174533,-0.0831111,-0.697844,-0.152689,-0.200029,-0.498646,-0.0115078,-0.546095,0.637288
26,65,-0.0872665,-0.698132,-0.174533,-0.174533,-0.0831111,-0.697844,-0.152689,-0.200029,-0.498646,-0.0115078,-0.546095,0.637288
26,65,-0.0872665,-0.698132,-0.174533,-0.174533,-0.0831111,-0.697844,-0.152689,-0.200029,-0.498646,-0.0115078,-0.546095,0.637288
26,65,-0.0872665,-0.698132,-0.174533,-0.174533,-0.0831111,-0.697844,-0.152689,-0.200029,-0.498646,-0.0115078,-0.546095,0.637288
26,65,-0.0872665,-0.698132,-0.174533,-0.174533,-0.0831111,-0.697844,-0.152689,-0.200029,-0.498646,-0.0115078,-0.546095,0.637288
26,65,-0.0872665,-0.698132,-0.174533,-0.174533,-0.0831111,-0.697844,-0.152687,-0.19997,-0.498646,-0.0115078,-0.546156,0.635831
26,65,-0.0872665,-0.698132,-0.174533,-0.174533,-0.0831111,-0.697844,-0.152687,-0.19997,-0.498646,-0.0115078,-0.546156,0.635831
26,65,-0.0872665,-0.698132,-0.174533,-0.174533,-0.0831111,-0.697844,-0.152687,-0.19997,-0.498646,-0.0115078,-0.546156,0.635831
26,65,-0.0872665,-0.698132,-0.174533,-0.174533,-0.0831111,-0.697844,-0.152687,-0.19997,-0.498646,-0.0115078,-0.546156,0.635831
26,65,-0.0872665,-0.698132,-0.174533,-0.174533,-0.0831111,-0.697844,-0.152687,-0.19997,-0.498646,-0.0115078,-0.546156,0.635831
26,65,-0.0872665,-0.698132,-0.174533,-0.174533,-0.0831111,-0.697844,-0.152687,-0.19997,-0.498646,-0.0115078,-0.546156,0.635831
26,65,-0.0872665,-0.698132,-0.174533,-0.174533,-0.0831111,-0.697844,-0.152687,-0.19997,-0.498646,-0.0115078,-0.546156,0.635831
26,65,-0.0872665,-0.698132,-0.174533,-0.174533,-0.0831111,-0.697844,-0.152687,-0.19997,-0.498646,-0.0115078,-0.546156,0.635831
26,65,-0.0872665,-0.698132,-0.174533,-0.174533,-0.0831111,-0.697844,-0.152687,-0.19997,-0.498646,-0.0115078,-0.546156,0.635831
26,65,-0.0872665,-0.698132,-0.174533,-0.174533,-0.0831111,-0.697844,-0.152687,-0.19997,-0.498646,-0.0115078,-0.546156,0.635831
26,65,-0.0872665,-0.698132,-0.174533,-0.174533,-0.0831111,-0.697844,-0.152687,-0.19997,-0.498646,-0.0115078,-0.546156,0.635831
26,65,-0.0872665,-0.698132,-0.174533,-0.174533,-0.0831111,-0.697844,-0.152687,-0.19997,-0.498646,-0.0115078,-0.546156,0.635831
26,65,-0.0872665,-0.698132,-0.174533,-0.174533,-0.0831111,-0.697844,-0.152687,-0.19997,-0.498646,-0.0115078,-0.546156,0.635831
26,65,-0.0872665,-0.698132,-0.174533,-0.174533,-0.0831111,-0.697844,-0.152687,-0.19997,-0.498646,-0.0115078,-0.546156,0.635831
26,65,-0.0872665,-0.698132,-0.174533,-0.174533,-0.0831111,-0.697844,-0.152687,-0.19997,-0.498646,-0.0115078,-0.546156,0.635831
26,65,-0.0872665,-0.698132,-0.174533,-0.174533,-0.0831111,-0.697844,-0.152753,-0.200012,-0.498646,-0.0115078,-0.544504,0.636876
26,65,-0.0872665,-0.698132,-0.174533,-0.174533,-0.0831111,-0.697844,-0.152753,-0.200012,-0.498646,-0.0115078,-0.544504,0.636876
26,65,-0.0872665,-0.698132,-0.174533,-0.174533,-0.0831111,-0.697844,-0.152753,-0.200012,-0.498646,-0.0115078,-0.544504,0.636876
26,65,-0.0872665,-0.698132,-0.174533,-0.174533,-0.0831111,-0.697844,-0.152753,-0.200012,-0.498646,-0.0115078,-0.544504,0.636876
26,65,-0.0872665,-0.698132,-0.174533,-0.174533,-0.0831111,-0.697844,-0.152753,-0.200012,-0.498646,-0.0115078,-0.544504,0.636876
26,65,-0.0872665,-0.698132,-0.174533,-0.174533,-0.0831111,-0.697844,-0.152753,-0.200012,-0.498646,-0.0115078,-0.544504,0.636876
26,65,-0.0872665,-0.698132,-0.174533,-0.174533,-0.0831111,-0.697844,-0.152753,-0.200012,-0.498646,-0.0115078,-0.544504,0.636876
26,65,-0.0872665,-0.698132,-0.174533,-0.174533,-0.0831111,-0.697844,-0.152753,-0.200012,-0.498646,-0.0115078,-0.544504,0.636876
26,65,-0.0872665,-0.698132,-0.174533,-0.174533,-0.0831111,-0.697844,-0.152753,-0.200012,-0.498646,-0.0115078,-0.544504,0.636876
26,65,-0.0872665,-0.698132,-0.174533,-0.174533,-0.0831111,-0.697844,-0.152753,-0.200012,-0.498646,-0.0115078,-0.544504,0.636876
26,65,-0.0872665,-0.698132,-0.174533,-0.174533,-0.0831111,-0.697895,-0.15275,-0.199953,-0.498646,-0.00947415,-0.544565,0.635418
26,65,-0.0872665,-0.698132,-0.174533,-0.174533,-0.0831111,-0.697895,-0.15275,-0.199953,-0.498646,-0.00947415,-0.544565,0.635418
26,65,-0.0872665,-0.698132,-0.174533,-0.174533,-0.0831111,-0.697895,-0.15275,-0.199953,-0.498646,-0.00947415,-0.544565,0.635418
26,65,-0.0872665,-0.698132,-0.174533,-0.174533,-0.0831111,-0.697895,-0.15275,-0.199953,-0.498646,-0.00947415,-0.544565,0.635418
26,65,-0.0872665,-0.698132,-0.174533,-0.174533,-0.0831111,-0.697895,-0.15275,-0.199953,-0.498646,-0.00947415,-0.544565,0.635418
26,65,-0.0872665,-0.698132,-0.174533,-0.174533,-0.0831111,-0.697895,-0.15275,-0.199953,-0.498646,-0.00947415,-0.544565,0.635418
26,65,-0.0872665,-0.698132,-0.174533,-0.174533,-0.0831111,-0.697895,-0.15275,-0.199953,-0.498646,-0.00947415,-0.544565,0.635418
26,65,-0.0872665,-0.698132,-0.174533,-0.174533,-0.0831111,-0.697895,-0.15275,-0.199953,-0.498646,-0.00947415,-0.544565,0.635418
26,65,-0.0872665,-0.698132,-0.174533,-0.174533,-0.0831111,-0.697895,-0.15275,-0.199953,-0.498646,-0.00947415,-0.544565,0.635418
26,65,-0.0872665,-0.698132,-0.174533,-0.174533,-0.0831111,-0.697895,-0.15275,-0.199953,-0.498646,-0.00947415,-0.544565,0.635418
26,65,-0.0872665,-0.698132,-0.174533,-0.174533,-0.0831111,-0.697895,-0.15275,-0.199953,-0.498646,-0.00947415,-0.544565,0.635418
26,65,-0.0872665,-0.698132,-0.174533,-0.174533,-0.0831111,-0.697895,-0.15275,-0.199953,-0.498646,-0.00947415,-0.544565,0.635418
26,65,-0.0872665,-0.698132,-0.174533,-0.174533,-0.0831111,-0.697895,-0.15275,-0.199953,-0.498646,-0.00947415,-0.544565,0.635418
26,65,-0.0872665,-0.698132,-0.174533,-0.174533,-0.0831111,-0.697895,-0.15275,-0.199953,-0.498646,-0.00947415,-0.544565,0.635418
26,65,-0.0872665,-0.698132,-0.174533,-0.174533,-0.0831111,-0.697895,-0.15275,-0.199953,-0.498646,-0.00947415,-0.544565,0.635418
26,65,-0.0872665,-0.698132,-0.174533,-0.174533,-0.0831111,-0.697895,-0.15275,-0.199953,-0.498646,-0.00947415,-0.544565,0.635418
26,65,-0.0872665,-0.698132,-0.174533,-0.174533,-0.0831111,-0.697895,-0.15275,-0.199953,-0.498646,-0.00947415,-0.544565,0.635418
26,65,-0.0872665,-0.698132,-0.174533,-0.174533,-0.0831111,-0.697895,-0.15275,-0.199953,-0.498646,-0.00947415,-0.544565,0.635418
26,65,-0.0872665,-0.698132,-0.174533,-0.174533,-0.0831111,-0.697895,-0.15275,-0.199953,-0.498646,-0.00947415,-0.544565,0.635418
26,65,-0.0872665,-0.698132,-0.174533,-0.174533,-0.0831111,-0.697895,-0.15275,-0.199953,-0.498646,-0.00947415,-0.544565,0.635418
26,65,-0.0872665,-0.698132,-0.174533,-0.174533,-0.0831111,-0.697895,-0.15275,-0.199953,-0.498646,-0.00947415,-0.544565,0.635418
26,65,-0.0872665,-0.698132,-0.174533,-0.174533,-0.0831111,-0.697895,-0.15275,-0.199953,-0.498646,-0.00947415,-0.544565,0.635418
26,65,-0.0872665,-0.698132,-0.174533,-0.174533,-0.0831111,-0.697895,-0.15275,-0.199953,-0.498646,-0.00947415,-0.544565,0.635418
26,65,-0.0872665,-0.698132,-0.174533,-0.174533,-0.0831111,-0.697895,-0.15275,-0.199953,-0.498646,-0.00947415,-0.544565,0.635418
26,65,-0.0872665,-0.698132,-0.174533,-0.174533,-0.0831111,-0.697895,-0.15275,-0.199953,-0.498646,-0.00947415,-0.544565,0.635418
26,65,-0.0872665,-0.698132,-0.174533,-0.174533,-0.0831111,-0.697895,-0.15275,-0.199953,-0.498646,-0.00947415,-0.544565,0.635418
26,65,-0.0872665,-0.698132,-0.174533,-0.174533,-0.0831111,-0.697895,-0.15275,-0.199953,-0.498646,-0.00947415,-0.544565,0.635418
26,65,-0.0872665,-0.698132,-0.174533,-0.174533,-0.0831111,-0.697895,-0.15275,-0.199953,-0.498646,-0.00947415,-0.544565,0.635418
26,65,-0.0872665,-0.698132,-0.174533,-0.174533,-0.0831111,-0.697895,-0.15275,-0.199953,-0.498646,-0.00947415,-0.544565,0.635418
26,65,-0.0872665,-0.698132,-0.174533,-0.174533,-0.0831111,-0.697895,-0.15275,-0.199953,-0.498646,-0.00947415,-0.544565,0.635418
26,65,-0.0872665,-0.698132,-0.174533,-0.174533,-0.0831111,-0.697895,-0.15275,-0.199953,-0.498646,-0.00947415,-0.544565,0.635418
26,65,-0.0872665,-0.698132,-0.174533,-0.174533,-0.0831111,-0.697895,-0.15275,-0.199953,-0.498646,-0.00947415,-0.544565,0.635418
26,65,-0.0872665,-0.698132,-0.174533,-0.174533,-0.0831111,-0.697895,-0.15275,-0.199953,-0.498646,-0.00947415,-0.544565,0.635418
26,65,-0.0872665,-0.698132,-0.174533,-0.174533,-0.0831111,-0.697895,-0.15275,-0.199953,-0.498646,-0.00947415,-0.544565,0.635418
26,65,-0.0872665,-0.698132,-0.174533,-0.174533,-0.0831111,-0.697895,-0.15275,-0.199953,-0.498646,-0.00947415,-0.544565,0.635418
26,65,-0.0872665,-0.698132,-0.174533,-0.174533,-0.0831111,-0.697895,-0.152748,-0.199893,-0.498646,-0.00947415,-0.544624,0.634009
26,65,-0.0872665,-0.698132,-0.174533,-0.174533,-0.0831111,-0.697895,-0.152748,-0.199893,-0.498646,-0.00947415,-0.544624,0.634009
26,65,-0.0872665,-0.698132,-0.174533,-0.174533,-0.0831111,-0.697895,-0.152748,-0.199893,-0.498646,-0.00947415,-0.544624,0.634009
26,65,-0.0872665,-0.698132,-0.174533,-0.174533,-0.0831111,-0.697895,-0.152748,-0.199893,-0.498646,-0.00947415,-0.544624,0.634009
26,65,-0.0872665,-0.698132,-0.174533,-0.174533,-0.0831111,-0.697895,-0.152748,-0.199893,-0.498646,-0.00947415,-0.544624,0.634009
26,65,-0.0872665,-0.698132,-0.174533,-0.174533,-0.0831111,-0.697895,-0.152748,-0.199893,-0.498646,-0.00947415,-0.544624,0.634009
26,65,-0.0872665,-0.698132,-0.174533,-0.174533,-0.0831111,-0.697895,-0.152748,-0.199893,-0.498646,-0.00947415,-0.544624,0.634009
26,65,-0.0872665,-0.698132,-0.174533,-0.174533,-0.0831111,-0.697895,-0.152748,-0.199893,-0.498646,-0.00947415,-0.544624,0.634009
26,65,-0.0872665,-0.698132,-0.174533,-0.174533,-0.0831111,-0.697895,-0.152748,-0.199893,-0.498646,-0.00947415,-0.544624,0.634009
26,65,-0.0872665,-0.698132,-0.174533,-0.174533,-0.0831111,-0.697895,-0.152748,-0.199893,-0.498646,-0.00947415,-0.544624,0.634009
26,65,-0.0872665,-0.698132,-0.174533,-0.174533,-0.0831111,-0.697895,-0.152748,-0.199893,-0.498646,-0.00947415,-0.544624,0.634009
26,65,-0.0872665,-0.698132,-0.174533,-0.174533,-0.0831111,-0.697895,-0.152748,-0.199893,-0.498646,-0.00947415,-0.544624,0.634009
26,65,-0.0872665,-0.698132,-0.174533,-0.174533,-0.0831111,-0.697895,-0.152748,-0.199893,-0.498646,-0.00947415,-0.544624,0.634009
26,65,-0.0872665,-0.698132,-0.174533,-0.174533,-0.0831111,-0.697895,-0.152748,-0.199893,-0.498646,-0.00947415,-0.544624,0.634009
26,65,-0.0872665,-0.698132,-0.174533,-0.174533,-0.0831111,-0.697895,-0.152748,-0.199893,-0.498646,-0.00947415,-0.544624,0.634009
26,65,-0.0872665,-0.698132,-0.174533,-0.174533,-0.0831111,-0.697895,-0.152748,-0.199893,-0.498646,-0.00947415,-0.544624,0.634009
26,65,-0.0872665,-0.698132,-0.174533,-0.174533,-0.0831111,-0.697895,-0.152748,-0.199893,-0.498646,-0.00947415,-0.544624,0.634009
26,65,-0.0872665,-0.698132,-0.174533,-0.174533,-0.0831111,-0.697895,-0.152748,-0.199893,-0.498646,-0.00947415,-0.544624,0.634009
26,65,-0.0872665,-0.698132,-0.174533,-0.174533,-0.0831111,-0.697895,-0.152748,-0.199893,-0.498646,-0.00947415,-0.544624,0.634009
26,65,-0.0872665,-0.698132,-0.174533,-0.174533,-0.0831111,-0.697895,-0.152748,-0.199893,-0.498646,-0.00947415,-0.544624,0.634009
26,65,-0.0872665,-0.698132,-0.174533,-0.174533,-0.0831111,-0.697895,-0.152748,-0.199893,-0.498646,-0.00947415,-0.544624,0.634009
26,65,-0.0872665,-0.698132,-0.174533,-0.174533,-0.0831111,-0.697895,-0.152748,-0.199893,-0.498646,-0.00947415,-0.544624,0.634009
26,65,-0.0872665,-0.698132,-0.174533,-0.174533,-0.0831111,-0.697895,-0.152748,-0.199893,-0.498646,-0.00947415,-0.544624,0.634009
26,65,-0.0872665,-0.698132,-0.174533,-0.174533,-0.0831111,-0.697895,-0.152748,-0.199893,-0.498646,-0.00947415,-0.544624,0.634009
26,65,-0.0872665,-0.698132,-0.174533,-0.174533,-0.0831111,-0.697895,-0.152748,-0.199893,-0.498646,-0.00947415,-0.544624,0.634009
26,65,-0.0872665,-0.698132,-0.174533,-0.174533,-0.0831111,-0.697895,-0.152748,-0.199893,-0.498646,-0.00947415,-0.544624,0.634009
26,65,-0.0872665,-0.698132,-0.174533,-0.174533,-0.0831111,-0.697895,-0.152748,-0.199893,-0.498646,-0.00947415,-0.544624,0.634009
26,65,-0.0872665,-0.698132,-0.174533,-0.174533,-0.0831111,-0.697895,-0.152748,-0.199893,-0.498646,-0.00947415,-0.544624,0.634009
26,65,-0.0872665,-0.698132,-0.174533,-0.174533,-0.0831111,-0.697895,-0.152748,-0.199893,-0.498646,-0.00947415,-0.544624,0.634009
26,65,-0.0872665,-0.698132,-0.174533,-0.174533,-0.0831111,-0.697895,-0.152748,-0.199893,-0.498646,-0.00947415,-0.544624,0.634009
26,65,-0.0872665,-0.698132,-0.174533,-0.174533,-0.0831111,-0.697895,-0.152748,-0.199893,-0.498646,-0.00947415,-0.544624,0.634009
26,65,-0.0872665,-0.698132,-0.174533,-0.174533,-0.0831111,-0.697895,-0.152748,-0.199893,-0.498646,-0.00947415,-0.544624,0.634009
26,65,-0.0872665,-0.698132,-0.174533,-0.174533,-0.0831111,-0.697895,-0.152748,-0.199893,-0.498646,-0.00947415,-0.544624,0.634009
26,65,-0.0872665,-0.698132,-0.174533,-0.174533,-0.0831111,-0.697895,-0.152748,-0.199893,-0.498646,-0.00947415,-0.544624,0.634009
26,65,-0.0872665,-0.698132,-0.174533,-0.174533,-0.0831111,-0.697895,-0.152748,-0.199893,-0.498646,-0.00947415,-0.544624,0.634009
26,65,-0.0872665,-0.698132,-0.174533,-0.174533,-0.0831111,-0.697895,-0.152748,-0.199893,-0.498646,-0.00947415,-0.544624,0.634009
26,65,-0.0872665,-0.698132,-0.174533,-0.174533,-0.0831111,-0.697895,-0.152748,-0.199893,-0.498646,-0.00947415,-0.544624,0.634009
26,65,-0.0872665,-0.698132,-0.174533,-0.174533,-0.0831111,-0.697895,-0.152748,-0.199893,-0.498646,-0.00947415,-0.544624,0.634009
26,65,-0.0872665,-0.698132,-0.174533,-0.174533,-0.0831111,-0.697895,-0.152748,-0.199893,-0.498646,-0.00947415,-0.544624,0.634009
26,65,-0.0872665,-0.698132,-0.174533,-0.174533,-0.0831111,-0.697895,-0.152748,-0.199893,-0.498646,-0.00947415,-0.544624,0.634009
26,65,-0.0872665,-0.698132,-0.174533,-0.174533,-0.0831111,-0.697895,-0.152748,-0.199893,-0.498646,-0.00947415,-0.544624,0.634009
26,65,-0.0872665,-0.698132,-0.174533,-0.174533,-0.0831111,-0.697895,-0.152748,-0.199893,-0.498646,-0.00947415,-0.544624,0.634009
26,65,-0.0872665,-0.698132,-0.174533,-0.174533,-0.0831111,-0.697895,-0.152748,-0.199893,-0.498646,-0.00947415,-0.544624,0.634009
26,65,-0.0872665,-0.698132,-0.174533,-0.174533,-0.0831111,-0.697895,-0.152748,-0.199893,-0.498646,-0.00947415,-0.544624,0.634009
26,65,-0.0872665,-0.698132,-0.174533,-0.174533,-0.0831111,-0.697895,-0.152748,-0.199893,-0.498646,-0.00947415,-0.544624,0.634009
26,65,-0.0872665,-0.698132,-0.174533,-0.174533,-0.0831111,-0.697895,-0.152748,-0.199893,-0.498646,-0.00947415,-0.544624,0.634009
26,65,-0.0872665,-0.698132,-0.174533,-0.174533,-0.0831111,-0.697895,-0.152748,-0.199893,-0.498646,-0.00947415,-0.544624,0.634009
26,65,-0.0872665,-0.698132,-0.174533,-0.174533,-0.0831111,-0.697895,-0.152748,-0.199893,-0.498646,-0.00947415,-0.544624,0.634009
26,65,-0.0872665,-0.698132,-0.174533,-0.174533,-0.0831111,-0.697895,-0.152748,-0.199893,-0.498646,-0.00947415,-0.544624,0.634009
26,65,-0.0872665,-0.698132,-0.174533,-0.174533,-0.0831111,-0.697895,-0.152748,-0.199893,-0.498646,-0.00947415,-0.544624,0.634009
26,65,-0.0872665,-0.698132,-0.174533,-0.174533,-0.0831111,-0.697895,-0.152748,-0.199893,-0.498646,-0.00947415,-0.544624,0.634009
26,65,-0.0872665,-0.698132,-0.174533,-0.174533,-0.0831111,-0.697895,-0.152748,-0.199893,-0.498646,-0.00947415,-0.544624,0.634009
26,65,-0.0872665,-0.698132,-0.174533,-0.174533,-0.0831111,-0.697895,-0.152748,-0.199893,-0.498646,-0.00947415,-0.544624,0.634009
26,65,-0.0872665,-0.698132,-0.174533,-0.174533,-0.0831111,-0.697895,-0.152748,-0.199893,-0.498646,-0.00947415,-0.544624,0.634009
26,65,-0.0872665,-0.698132,-0.174533,-0.174533,-0.0831111,-0.697895,-0.152748,-0.199893,-0.498646,-0.00947415,-0.544624,0.634009
26,65,-0.0872665,-0.698132,-0.174533,-0.174533,-0.0831111,-0.697895,-0.152748,-0.199893,-0.498646,-0.00947415,-0.544624,0.634009
26,65,-0.0872665,-0.698132,-0.174533,-0.174533,-0.0831111,-0.697895,-0.152748,-0.199893,-0.498646,-0.00947415,-0.544624,0.634009
26,65,-0.0872665,-0.698132,-0.174533,-0.174533,-0.0831111,-0.697895,-0.152748,-0.199893,-0.498646,-0.00947415,-0.544624,0.634009
26,65,-0.0872665,-0.698132,-0.174533,-0.174533,-0.0831111,-0.697895,-0.152748,-0.199893,-0.498646,-0.00947415,-0.544624,0.634009
26,65,-0.0872665,-0.698132,-0.174533,-0.174533,-0.0831111,-0.697895,-0.152748,-0.199893,-0.498646,-0.00947415,-0.544624,0.634009
26,65,-0.0872665,-0.698132,-0.174533,-0.174533,-0.0831111,-0.697895,-0.152748,-0.199893,-0.498646,-0.00947415,-0.544624,0.634009
26,65,-0.0872665,-0.698132,-0.174533,-0.174533,-0.0831111,-0.697895,-0.152748,-0.199893,-0.498646,-0.00947415,-0.544624,0.634009
26,65,-0.0872665,-0.698132,-0.174533,-0.174533,-0.0831111,-0.697895,-0.152748,-0.199893,-0.498646,-0.00947415,-0.544624,0.634009
26,65,-0.0872665,-0.698132,-0.174533,-0.174533,-0.0831111,-0.697895,-0.152748,-0.199893,-0.498646,-0.00947415,-0.544624,0.634009
26,65,-0.0872665,-0.698132,-0.174533,-0.174533,-0.0831111,-0.697895,-0.152748,-0.199893,-0.498646,-0.00947415,-0.544624,0.634009
26,65,-0.0872665,-0.698132,-0.174533,-0.174533,-0.0831111,-0.697895,-0.152748,-0.199893,-0.498646,-0.00947415,-0.544624,0.634009
26,65,-0.0872665,-0.698132,-0.174533,-0.174533,-0.0831111,-0.697895,-0.152748,-0.199893,-0.498646,-0.00947415,-0.544624,0.634009
26,65,-0.0872665,-0.698132,-0.174533,-0.174533,-0.0831111,-0.697895,-0.152748,-0.199893,-0.498646,-0.00947415,-0.544624,0.634009
26,65,-0.0872665,-0.698132,-0.174533,-0.174533,-0.0831111,-0.697895,-0.152748,-0.199893,-0.498646,-0.00947415,-0.544624,0.634009
26,65,-0.0872665,-0.698132,-0.174533,-0.174533,-0.0831111,-0.697895,-0.152748,-0.199893,-0.498646,-0.00947415,-0.544624,0.634009
26,65,-0.0872665,-0.698132,-0.174533,-0.174533,-0.0831111,-0.697895,-0.152748,-0.199893,-0.498646,-0.00947415,-0.544624,0.634009
26,65,-0.0872665,-0.698132,-0.174533,-0.174533,-0.0831111,-0.697895,-0.152748,-0.199893,-0.498646,-0.00947415,-0.544624,0.634009
26,65,-0.0872665,-0.698132,-0.174533,-0.174533,-0.0831111,-0.697895,-0.152748,-0.199893,-0.498646,-0.00947415,-0.544624,0.634009
26,65,-0.0872665,-0.698132,-0.174533,-0.174533,-0.0831111,-0.697895,-0.152748,-0.199893,-0.498646,-0.00947415,-0.544624,0.634009
26,65,-0.0872665,-0.698132,-0.174533,-0.174533,-0.0831111,-0.697895,-0.152748,-0.199893,-0.498646,-0.00947415,-0.544624,0.634009
26,65,-0.0872665,-0.698132,-0.174533,-0.174533,-0.0831111,-0.697895,-0.152748,-0.199893,-0.498646,-0.00947415,-0.544624,0.634009
26,65,-0.0872665,-0.698132,-0.174533,-0.174533,-0.0831111,-0.697895,-0.152748,-0.199893,-0.498646,-0.00947415,-0.544624,0.634009
26,65,-0.0872665,-0.698132,-0.174533,-0.174533,-0.0831111,-0.697895,-0.152748,-0.199893,-0.498646,-0.00947415,-0.544624,0.634009
26,65,-0.0872665,-0.698132,-0.174533,-0.174533,-0.0831111,-0.697895,-0.152748,-0.199893,-0.498646,-0.00947415,-0.544624,0.634009
26,65,-0.0872665,-0.698132,-0.174533,-0.174533,-0.0831111,-0.697895,-0.152748,-0.199893,-0.498646,-0.00947415,-0.544624,0.634009
26,65,-0.0872665,-0.698132,-0.174533,-0.174533,-0.0831111,-0.697895,-0.152748,-0.199893,-0.498646,-0.00947415,-0.544624,0.634009
26,65,-0.0872665,-0.698132,-0.174533,-0.174533,-0.0831111,-0.697895,-0.152748,-0.199893,-0.498646,-0.00947415,-0.544624,0.634009
26,65,-0.0872665,-0.698132,-0.174533,-0.174533,-0.0831111,-0.697895,-0.152748,-0.199893,-0.498646,-0.00947415,-0.544624,0.634009
26,65,-0.0872665,-0.698132,-0.174533,-0.174533,-0.0831111,-0.697895,-0.152748,-0.199893,-0.498646,-0.00947415,-0.544624,0.634009
26,65,-0.0872665,-0.698132,-0.174533,-0.174533,-0.0831111,-0.697895,-0.152814,-0.199935,-0.498646,-0.00947415,-0.542972,0.635055
26,65,-0.0872665,-0.698132,-0.174533,-0.174533,-0.0831111,-0.697895,-0.152814,-0.199935,-0.498646,-0.00947415,-0.542972,0.635055
26,65,-0.0872665,-0.698132,-0.174533,-0.174533,-0.0831111,-0.697895,-0.152814,-0.199935,-0.498646,-0.00947415,-0.542972,0.635055
26,65,-0.0872665,-0.698132,-0.174533,-0.174533,-0.0831111,-0.697895,-0.152814,-0.199935,-0.498646,-0.00947415,-0.542972,0.635055
26,65,-0.0872665,-0.698132,-0.174533,-0.174533,-0.0831111,-0.697895,-0.152814,-0.199935,-0.498646,-0.00947415,-0.542972,0.635055
26,65,-0.0872665,-0.698132,-0.174533,-0.174533,-0.0831111,-0.697895,-0.152814,-0.199935,-0.498646,-0.00947415,-0.542972,0.635055
26,65,-0.0872665,-0.698132,-0.174533,-0.174533,-0.0831111,-0.697895,-0.152814,-0.199935,-0.498646,-0.00947415,-0.542972,0.635055
26,65,-0.0872665,-0.698132,-0.174533,-0.174533,-0.0831111,-0.697895,-0.152814,-0.199935,-0.498646,-0.00947415,-0.542972,0.635055
26,65,-0.0872665,-0.698132,-0.174533,-0.174533,-0.0831111,-0.697895,-0.152814,-0.199935,-0.498646,-0.00947415,-0.542972,0.635055
26,65,-0.0872665,-0.698132,-0.174533,-0.174533,-0.0831111,-0.697895,-0.152814,-0.199935,-0.498646,-0.00947415,-0.542972,0.635055
26,65,-0.0872665,-0.698132,-0.174533,-0.174533,-0.0831111,-0.697895,-0.152814,-0.199935,-0.498646,-0.00947415,-0.542972,0.635055
26,65,-0.0872665,-0.698132,-0.174533,-0.174533,-0.0831111,-0.697895,-0.152814,-0.199935,-0.498646,-0.00947415,-0.542972,0.635055
26,65,-0.0872665,-0.698132,-0.174533,-0.174533,-0.0831111,-0.697895,-0.152814,-0.199935,-0.498646,-0.00947415,-0.542972,0.635055
26,65,-0.0872665,-0.698132,-0.174533,-0.174533,-0.0831111,-0.697895,-0.152814,-0.199935,-0.498646,-0.00947415,-0.542972,0.635055
26,65,-0.0872665,-0.698132,-0.174533,-0.174533,-0.0831111,-0.697895,-0.152814,-0.199935,-0.498646,-0.00947415,-0.542972,0.635055
26,65,-0.0872665,-0.698132,-0.174533,-0.174533,-0.0831111,-0.697895,-0.152814,-0.199935,-0.498646,-0.00947415,-0.542972,0.635055
26,65,-0.0872665,-0.698132,-0.174533,-0.174533,-0.0831111,-0.697895,-0.152814,-0.199935,-0.498646,-0.00947415,-0.542972,0.635055
26,65,-0.0872665,-0.698132,-0.174533,-0.174533,-0.0831111,-0.697895,-0.152814,-0.199935,-0.498646,-0.00947415,-0.542972,0.635055
26,65,-0.0872665,-0.698132,-0.174533,-0.174533,-0.0831111,-0.697895,-0.152814,-0.199935,-0.498646,-0.00947415,-0.542972,0.635055
26,65,-0.0872665,-0.698132,-0.174533,-0.174533,-0.0831111,-0.697895,-0.152814,-0.199935,-0.498646,-0.00947415,-0.542972,0.635055
26,65,-0.0872665,-0.698132,-0.174533,-0.174533,-0.0831111,-0.697895,-0.152814,-0.199935,-0.498646,-0.00947415,-0.542972,0.635055
26,65,-0.0872665,-0.698132,-0.174533,-0.174533,-0.0831111,-0.697895,-0.152814,-0.199935,-0.498646,-0.00947415,-0.542972,0.635055
26,65,-0.0872665,-0.698132,-0.174533,-0.174533,-0.0831111,-0.697895,-0.152814,-0.199935,-0.498646,-0.00947415,-0.542972,0.635055
26,65,-0.0872665,-0.698132,-0.174533,-0.174533,-0.0831111,-0.697895,-0.152814,-0.199935,-0.498646,-0.00947415,-0.542972,0.635055
26,65,-0.0872665,-0.698132,-0.174533,-0.174533,-0.0831111,-0.697895,-0.152814,-0.199935,-0.498646,-0.00947415,-0.542972,0.635055
26,65,-0.0872665,-0.698132,-0.174533,-0.174533,-0.0831111,-0.697895,-0.152814,-0.199935,-0.498646,-0.00947415,-0.542972,0.635055
26,65,-0.0872665,-0.698132,-0.174533,-0.174533,-0.0831111,-0.697895,-0.152814,-0.199935,-0.498646,-0.00947415,-0.542972,0.635055
26,65,-0.0872665,-0.698132,-0.174533,-0.174533,-0.0831111,-0.697895,-0.152814,-0.199935,-0.498646,-0.00947415,-0.542972,0.635055
26,65,-0.0872665,-0.698132,-0.174533,-0.174533,-0.0831111,-0.697895,-0.152814,-0.199935,-0.498646,-0.00947415,-0.542972,0.635055
26,65,-0.0872665,-0.698132,-0.174533,-0.174533,-0.0831111,-0.697895,-0.152814,-0.199935,-0.498646,-0.00947415,-0.542972,0.635055
26,65,-0.0872665,-0.698132,-0.174533,-0.174533,-0.0831111,-0.697895,-0.152814,-0.199935,-0.498646,-0.00947415,-0.542972,0.635055
26,65,-0.0872665,-0.698132,-0.174533,-0.174533,-0.0831111,-0.697895,-0.152814,-0.199935,-0.498646,-0.00947415,-0.542972,0.635055
26,65,-0.0872665,-0.698132,-0.174533,-0.174533,-0.0831111,-0.697895,-0.152814,-0.199935,-0.498646,-0.00947415,-0.542972,0.635055
26,65,-0.0872665,-0.698132,-0.174533,-0.174533,-0.0831111,-0.697895,-0.152814,-0.199935,-0.498646,-0.00947415,-0.542972,0.635055
26,65,-0.0872665,-0.698132,-0.174533,-0.174533,-0.0831111,-0.697895,-0.152814,-0.199935,-0.498646,-0.00947415,-0.542972,0.635055
26,65,-0.0872665,-0.698132,-0.174533,-0.174533,-0.0831111,-0.697895,-0.152814,-0.199935,-0.498646,-0.00947415,-0.542972,0.635055
26,65,-0.0872665,-0.698132,-0.174533,-0.174533,-0.0831111,-0.697895,-0.152814,-0.199935,-0.498646,-0.00947415,-0.542972,0.635055
26,65,-0.0872665,-0.698132,-0.174533,-0.174533,-0.0831111,-0.697895,-0.152814,-0.199935,-0.498646,-0.00947415,-0.542972,0.635055
26,65,-0.0872665,-0.698132,-0.174533,-0.174533,-0.0831111,-0.697895,-0.15288,-0.199977,-0.498646,-0.00947415,-0.541319,0.636101
26,65,-0.0872665,-0.698132,-0.174533,-0.174533,-0.0831111,-0.697895,-0.15288,-0.199977,-0.498646,-0.00947415,-0.541319,0.636101
26,65,-0.0872665,-0.698132,-0.174533,-0.174533,-0.0831111,-0.697895,-0.15288,-0.199977,-0.498646,-0.00947415,-0.541319,0.636101
26,65,-0.0872665,-0.698132,-0.174533,-0.174533,-0.0831111,-0.697895,-0.15288,-0.199977,-0.498646,-0.00947415,-0.541319,0.636101
26,65,-0.0872665,-0.698132,-0.174533,-0.174533,-0.0831111,-0.697895,-0.15288,-0.199977,-0.498646,-0.00947415,-0.541319,0.636101
26,65,-0.0872665,-0.698132,-0.174533,-0.174533,-0.0831111,-0.697895,-0.15288,-0.199977,-0.498646,-0.00947415,-0.541319,0.636101
26,65,-0.0872665,-0.698132,-0.174533,-0.174533,-0.0831111,-0.697895,-0.15288,-0.199977,-0.498646,-0.00947415,-0.541319,0.636101
26,65,-0.0872665,-0.698132,-0.174533,-0.174533,-0.0831111,-0.697895,-0.15288,-0.199977,-0.498646,-0.00947415,-0.541319,0.636101
26,65,-0.0872665,-0.698132,-0.174533,-0.174533,-0.0831111,-0.697895,-0.15288,-0.199977,-0.498646,-0.00947415,-0.541319,0.636101
26,65,-0.0872665,-0.698132,-0.174533,-0.174533,-0.0831111,-0.697895,-0.15288,-0.199977,-0.498646,-0.00947415,-0.541319,0.636101
26,65,-0.0872665,-0.698132,-0.174533,-0.174533,-0.0831111,-0.697895,-0.15288,-0.199977,-0.498646,-0.00947415,-0.541319,0.636101
26,65,-0.0872665,-0.698132,-0.174533,-0.174533,-0.0831111,-0.697895,-0.15288,-0.199977,-0.498646,-0.00947415,-0.541319,0.636101
26,65,-0.0872665,-0.698132,-0.174533,-0.174533,-0.0831111,-0.697895,-0.15288,-0.199977,-0.498646,-0.00947415,-0.541319,0.636101
26,65,-0.0872665,-0.698132,-0.174533,-0.174533,-0.0831111,-0.697895,-0.15288,-0.199977,-0.498646,-0.00947415,-0.541319,0.636101
26,65,-0.0872665,-0.698132,-0.174533,-0.174533,-0.0831111,-0.697895,-0.15288,-0.199977,-0.498646,-0.00947415,-0.541319,0.636101
26,65,-0.0872665,-0.698132,-0.174533,-0.174533,-0.0831111,-0.697895,-0.15288,-0.199977,-0.498646,-0.00947415,-0.541319,0.636101
26,65,-0.0872665,-0.698132,-0.174533,-0.174533,-0.0831111,-0.697895,-0.15288,-0.199977,-0.498646,-0.00947415,-0.541319,0.636101
26,65,-0.0872665,-0.698132,-0.174533,-0.174533,-0.0831111,-0.697895,-0.15288,-0.199977,-0.498646,-0.00947415,-0.541319,0.636101
26,65,-0.0872665,-0.698132,-0.174533,-0.174533,-0.0831111,-0.697895,-0.15288,-0.199977,-0.498646,-0.00947415,-0.541319,0.636101
26,65,-0.0872665,-0.698132,-0.174533,-0.174533,-0.0831111,-0.697895,-0.15288,-0.199977,-0.498646,-0.00947415,-0.541319,0.636101
26,65,-0.0872665,-0.698132,-0.174533,-0.174533,-0.0831111,-0.697895,-0.15288,-0.199977,-0.498646,-0.00947415,-0.541319,0.636101
26,65,-0.0872665,-0.698132,-0.174533,-0.174533,-0.0831111,-0.697895,-0.15288,-0.199977,-0.498646,-0.00947415,-0.541319,0.636101
26,65,-0.0872665,-0.698132,-0.174533,-0.174533,-0.0831111,-0.697895,-0.15288,-0.199977,-0.498646,-0.00947415,-0.541319,0.636101
26,65,-0.0872665,-0.698132,-0.174533,-0.174533,-0.0831111,-0.697895,-0.15288,-0.199977,-0.498646,-0.00947415,-0.541319,0.636101
26,65,-0.0872665,-0.698132,-0.174533,-0.174533,-0.0831111,-0.697895,-0.15288,-0.199977,-0.498646,-0.00947415,-0.541319,0.636101
26,65,-0.0872665,-0.698132,-0.174533,-0.174533,-0.0831111,-0.697895,-0.15288,-0.199977,-0.498646,-0.00947415,-0.541319,0.636101
26,65,-0.0872665,-0.698132,-0.174533,-0.174533,-0.0831111,-0.697895,-0.15288,-0.199977,-0.498646,-0.00947415,-0.541319,0.636101
26,65,-0.0872665,-0.698132,-0.174533,-0.174533,-0.0831111,-0.697895,-0.15288,-0.199977,-0.498646,-0.00947415,-0.541319,0.636101
26,65,-0.0872665,-0.698132,-0.174533,-0.174533,-0.0831111,-0.697895,-0.15288,-0.199977,-0.498646,-0.00947415,-0.541319,0.636101
26,65,-0.0872665,-0.698132,-0.174533,-0.174533,-0.0831111,-0.697895,-0.15288,-0.199977,-0.498646,-0.00947415,-0.541319,0.636101
26,65,-0.0872665,-0.698132,-0.174533,-0.174533,-0.0831111,-0.697895,-0.15288,-0.199977,-0.498646,-0.00947415,-0.541319,0.636101
26,65,-0.0872665,-0.698132,-0.174533,-0.174533,-0.0831111,-0.697895,-0.15288,-0.199977,-0.498646,-0.00947415,-0.541319,0.636101
26,65,-0.0872665,-0.698132,-0.174533,-0.174533,-0.0831111,-0.697895,-0.15288,-0.199977,-0.498646,-0.00947415,-0.541319,0.636101
26,65,-0.0872665,-0.698132,-0.174533,-0.174533,-0.0831111,-0.697895,-0.15288,-0.199977,-0.498646,-0.00947415,-0.541319,0.636101
26,65,-0.0872665,-0.698132,-0.174533,-0.174533,-0.0831111,-0.697895,-0.15288,-0.199977,-0.498646,-0.00947415,-0.541319,0.636101
26,65,-0.0872665,-0.698132,-0.174533,-0.174533,-0.0831111,-0.697895,-0.152946,-0.200019,-0.498646,-0.00947415,-0.539666,0.637146
26,65,-0.0872665,-0.698132,-0.174533,-0.174533,-0.0831111,-0.697895,-0.152946,-0.200019,-0.498646,-0.00947415,-0.539666,0.637146
26,65,-0.0872665,-0.698132,-0.174533,-0.174533,-0.0831111,-0.697895,-0.152946,-0.200019,-0.498646,-0.00947415,-0.539666,0.637146
26,65,-0.0872665,-0.698132,-0.174533,-0.174533,-0.0831111,-0.697895,-0.152946,-0.200019,-0.498646,-0.00947415,-0.539666,0.637146
26,65,-0.0872665,-0.698132,-0.174533,-0.174533,-0.0831111,-0.697895,-0.152946,-0.200019,-0.498646,-0.00947415,-0.539666,0.637146
26,65,-0.0872665,-0.698132,-0.174533,-0.174533,-0.0831111,-0.697895,-0.152946,-0.200019,-0.498646,-0.00947415,-0.539666,0.637146
26,65,-0.0872665,-0.698132,-0.174533,-0.174533,-0.0831111,-0.697895,-0.152946,-0.200019,-0.498646,-0.00947415,-0.539666,0.637146
26,65,-0.0872665,-0.698132,-0.174533,-0.174533,-0.0831111,-0.697895,-0.152946,-0.200019,-0.498646,-0.00947415,-0.539666,0.637146
26,65,-0.0872665,-0.698132,-0.174533,-0.174533,-0.0831111,-0.697895,-0.152946,-0.200019,-0.498646,-0.00947415,-0.539666,0.637146
26,65,-0.0872665,-0.698132,-0.174533,-0.174533,-0.0831111,-0.697895,-0.152946,-0.200019,-0.498646,-0.00947415,-0.539666,0.637146
26,65,-0.0872665,-0.698132,-0.174533,-0.174533,-0.0831111,-0.697895,-0.152946,-0.200019,-0.498646,-0.00947415,-0.539666,0.637146
26,65,-0.0872665,-0.698132,-0.174533,-0.174533,-0.0831111,-0.697895,-0.152946,-0.200019,-0.498646,-0.00947415,-0.539666,0.637146
26,65,-0.0872665,-0.698132,-0.174533,-0.174533,-0.0831111,-0.697895,-0.152946,-0.200019,-0.498646,-0.00947415,-0.539666,0.637146
26,65,-0.0872665,-0.698132,-0.174533,-0.174533,-0.0831111,-0.697895,-0.152946,-0.200019,-0.498646,-0.00947415,-0.539666,0.637146
26,65,-0.0872665,-0.698132,-0.174533,-0.174533,-0.0831111,-0.697895,-0.152946,-0.200019,-0.498646,-0.00947415,-0.539666,0.637146
26,65,-0.0872665,-0.698132,-0.174533,-0.174533,-0.0831111,-0.697895,-0.152946,-0.200019,-0.498646,-0.00947415,-0.539666,0.637146
26,65,-0.0872665,-0.698132,-0.174533,-0.174533,-0.0831111,-0.697895,-0.152946,-0.200019,-0.498646,-0.00947415,-0.539666,0.637146
26,65,-0.0872665,-0.698132,-0.174533,-0.174533,-0.0831111,-0.697895,-0.152944,-0.19996,-0.498646,-0.00947415,-0.539729,0.635666
26,65,-0.0872665,-0.698132,-0.174533,-0.174533,-0.0831111,-0.697895,-0.152944,-0.19996,-0.498646,-0.00947415,-0.539729,0.635666
26,65,-0.0872665,-0.698132,-0.174533,-0.174533,-0.0831111,-0.697895,-0.152944,-0.19996,-0.498646,-0.00947415,-0.539729,0.635666
26,65,-0.0872665,-0.698132,-0.174533,-0.174533,-0.0831111,-0.697895,-0.152944,-0.19996,-0.498646,-0.00947415,-0.539729,0.635666
26,65,-0.0872665,-0.698132,-0.174533,-0.174533,-0.0831111,-0.697895,-0.152944,-0.19996,-0.498646,-0.00947415,-0.539729,0.635666
26,65,-0.0872665,-0.698132,-0.174533,-0.174533,-0.0831111,-0.697895,-0.152944,-0.19996,-0.498646,-0.00947415,-0.539729,0.635666
26,65,-0.0872665,-0.698132,-0.174533,-0.174533,-0.0831111,-0.697895,-0.152944,-0.19996,-0.498646,-0.00947415,-0.539729,0.635666
26,65,-0.0872665,-0.698132,-0.174533,-0.174533,-0.0831111,-0.697895,-0.152944,-0.19996,-0.498646,-0.00947415,-0.539729,0.635666
26,65,-0.0872665,-0.698132,-0.174533,-0.174533,-0.0831111,-0.697895,-0.152944,-0.19996,-0.498646,-0.00947415,-0.539729,0.635666
26,65,-0.0872665,-0.698132,-0.174533,-0.174533,-0.0831111,-0.697895,-0.152944,-0.19996,-0.498646,-0.00947415,-0.539729,0.635666
26,65,-0.0872665,-0.698132,-0.174533,-0.174533,-0.0831111,-0.697895,-0.152944,-0.19996,-0.498646,-0.00947415,-0.539729,0.635666
26,65,-0.0872665,-0.698132,-0.174533,-0.174533,-0.0831111,-0.697895,-0.152944,-0.19996,-0.498646,-0.00947415,-0.539729,0.635666
26,65,-0.0872665,-0.698132,-0.174533,-0.174533,-0.0831111,-0.697895,-0.152944,-0.19996,-0.498646,-0.00947415,-0.539729,0.635666
26,65,-0.0872665,-0.698132,-0.174533,-0.174533,-0.0831111,-0.697895,-0.152944,-0.19996,-0.498646,-0.00947415,-0.539729,0.635666
26,65,-0.0872665,-0.698132,-0.174533,-0.174533,-0.0831111,-0.697895,-0.152944,-0.19996,-0.498646,-0.00947415,-0.539729,0.635666
26,65,-0.0872665,-0.698132,-0.174533,-0.174533,-0.0831111,-0.697895,-0.152944,-0.19996,-0.498646,-0.00947415,-0.539729,0.635666
26,65,-0.0872665,-0.698132,-0.174533,-0.174533,-0.0831111,-0.697895,-0.152944,-0.19996,-0.498646,-0.00947415,-0.539729,0.635666
26,65,-0.0872665,-0.698132,-0.174533,-0.174533,-0.0831111,-0.697895,-0.152944,-0.19996,-0.498646,-0.00947415,-0.539729,0.635666
26,65,-0.0872665,-0.698132,-0.174533,-0.174533,-0.0831111,-0.697895,-0.152944,-0.19996,-0.498646,-0.00947415,-0.539729,0.635666
26,65,-0.0872665,-0.698132,-0.174533,-0.174533,-0.0831111,-0.697895,-0.152944,-0.19996,-0.498646,-0.00947415,-0.539729,0.635666
26,65,-0.0872665,-0.698132,-0.174533,-0.174533,-0.0831111,-0.697895,-0.152944,-0.19996,-0.498646,-0.00947415,-0.539729,0.635666
26,65,-0.0872665,-0.698132,-0.174533,-0.174533,-0.0831111,-0.697895,-0.152944,-0.19996,-0.498646,-0.00947415,-0.539729,0.635666
26,65,-0.0872665,-0.698132,-0.174533,-0.174533,-0.0831111,-0.697895,-0.152944,-0.19996,-0.498646,-0.00947415,-0.539729,0.635666
26,65,-0.0872665,-0.698132,-0.174533,-0.174533,-0.0831111,-0.697895,-0.152944,-0.19996,-0.498646,-0.00947415,-0.539729,0.635666
26,65,-0.0872665,-0.698132,-0.174533,-0.174533,-0.0831111,-0.697895,-0.152944,-0.19996,-0.498646,-0.00947415,-0.539729,0.635666
26,65,-0.0872665,-0.698132,-0.174533,-0.174533,-0.0831111,-0.697895,-0.152944,-0.19996,-0.498646,-0.00947415,-0.539729,0.635666
26,65,-0.0872665,-0.698132,-0.174533,-0.174533,-0.0831111,-0.697895,-0.152944,-0.19996,-0.498646,-0.00947415,-0.539729,0.635666
26,65,-0.0872665,-0.698132,-0.174533,-0.174533,-0.0831111,-0.697895,-0.152944,-0.19996,-0.498646,-0.00947415,-0.539729,0.635666
26,65,-0.0872665,-0.698132,-0.174533,-0.174533,-0.0831111,-0.697895,-0.152944,-0.19996,-0.498646,-0.00947415,-0.539729,0.635666
26,65,-0.0872665,-0.698132,-0.174533,-0.174533,-0.0831111,-0.697895,-0.152944,-0.19996,-0.498646,-0.00947415,-0.539729,0.635666
26,65,-0.0872665,-0.698132,-0.174533,-0.174533,-0.0831111,-0.697895,-0.152944,-0.19996,-0.498646,-0.00947415,-0.539729,0.635666
26,65,-0.0872665,-0.698132,-0.174533,-0.174533,-0.0831111,-0.697895,-0.152944,-0.19996,-0.498646,-0.00947415,-0.539729,0.635666
26,65,-0.0872665,-0.698132,-0.174533,-0.174533,-0.0831111,-0.697946,-0.152944,-0.19996,-0.498646,-0.00744051,-0.539729,0.635666
26,65,-0.0872665,-0.698132,-0.174533,-0.174533,-0.0831111,-0.697946,-0.152944,-0.19996,-0.498646,-0.00744051,-0.539729,0.635666
26,65,-0.0872665,-0.698132,-0.174533,-0.174533,-0.0831111,-0.697946,-0.152944,-0.19996,-0.498646,-0.00744051,-0.539729,0.635666
26,65,-0.0872665,-0.698132,-0.174533,-0.174533,-0.0831111,-0.697946,-0.152944,-0.19996,-0.498646,-0.00744051,-0.539729,0.635666
26,65,-0.0872665,-0.698132,-0.174533,-0.174533,-0.0831111,-0.697946,-0.152944,-0.19996,-0.498646,-0.00744051,-0.539729,0.635666
26,65,-0.0872665,-0.698132,-0.174533,-0.174533,-0.0831111,-0.697946,-0.152944,-0.19996,-0.498646,-0.00744051,-0.539729,0.635666
26,65,-0.0872665,-0.698132,-0.174533,-0.174533,-0.0831111,-0.697946,-0.152944,-0.19996,-0.498646,-0.00744051,-0.539729,0.635666
26,65,-0.0872665,-0.698132,-0.174533,-0.174533,-0.0831111,-0.697946,-0.152944,-0.19996,-0.498646,-0.00744051,-0.539729,0.635666
26,65,-0.0872665,-0.698132,-0.174533,-0.174533,-0.0831111,-0.697946,-0.152944,-0.19996,-0.498646,-0.00744051,-0.539729,0.635666
26,65,-0.0872665,-0.698132,-0.174533,-0.174533,-0.0831111,-0.697946,-0.152944,-0.19996,-0.498646,-0.00744051,-0.539729,0.635666
26,65,-0.0872665,-0.698132,-0.174533,-0.174533,-0.0831111,-0.697946,-0.152944,-0.19996,-0.498646,-0.00744051,-0.539729,0.635666
26,65,-0.0872665,-0.698132,-0.174533,-0.174533,-0.0831111,-0.697946,-0.152944,-0.19996,-0.498646,-0.00744051,-0.539729,0.635666
26,65,-0.0872665,-0.698132,-0.174533,-0.174533,-0.0831111,-0.697946,-0.152944,-0.19996,-0.498646,-0.00744051,-0.539729,0.635666
26,65,-0.0872665,-0.698132,-0.174533,-0.174533,-0.0831111,-0.697946,-0.152944,-0.19996,-0.498646,-0.00744051,-0.539729,0.635666
26,65,-0.0872665,-0.698132,-0.174533,-0.174533,-0.0831111,-0.697946,-0.152944,-0.19996,-0.498646,-0.00744051,-0.539729,0.635666
26,65,-0.0872665,-0.698132,-0.174533,-0.174533,-0.0831111,-0.697946,-0.152944,-0.19996,-0.498646,-0.00744051,-0.539729,0.635666
26,65,-0.0872665,-0.698132,-0.174533,-0.174533,-0.0831111,-0.697946,-0.152944,-0.19996,-0.498646,-0.00744051,-0.539729,0.635666
26,65,-0.0872665,-0.698132,-0.174533,-0.174533,-0.0831111,-0.697946,-0.152944,-0.19996,-0.498646,-0.00744051,-0.539729,0.635666
26,65,-0.0872665,-0.698132,-0.174533,-0.174533,-0.0831111,-0.697946,-0.152944,-0.19996,-0.498646,-0.00744051,-0.539729,0.635666
26,65,-0.0872665,-0.698132,-0.174533,-0.174533,-0.0831111,-0.697946,-0.152944,-0.19996,-0.498646,-0.00744051,-0.539729,0.635666
26,65,-0.0872665,-0.698132,-0.174533,-0.174533,-0.0831111,-0.697946,-0.152944,-0.19996,-0.498646,-0.00744051,-0.539729,0.635666
26,65,-0.0872665,-0.698132,-0.174533,-0.174533,-0.0831111,-0.697946,-0.152944,-0.19996,-0.498646,-0.00744051,-0.539729,0.635666
26,65,-0.0872665,-0.698132,-0.174533,-0.174533,-0.0831111,-0.697946,-0.15301,-0.200001,-0.498646,-0.00744051,-0.538076,0.636711
26,65,-0.0872665,-0.698132,-0.174533,-0.174533,-0.0831111,-0.697946,-0.15301,-0.200001,-0.498646,-0.00744051,-0.538076,0.636711
26,65,-0.0872665,-0.698132,-0.174533,-0.174533,-0.0831111,-0.697946,-0.15301,-0.200001,-0.498646,-0.00744051,-0.538076,0.636711
26,65,-0.0872665,-0.698132,-0.174533,-0.174533,-0.0831111,-0.697946,-0.15301,-0.200001,-0.498646,-0.00744051,-0.538076,0.636711
26,65,-0.0872665,-0.698132,-0.174533,-0.174533,-0.0831111,-0.697946,-0.15301,-0.200001,-0.498646,-0.00744051,-0.538076,0.636711
26,65,-0.0872665,-0.698132,-0.174533,-0.174533,-0.0831111,-0.697946,-0.15301,-0.200001,-0.498646,-0.00744051,-0.538076,0.636711
26,65,-0.0872665,-0.698132,-0.174533,-0.174533,-0.0831111,-0.697946,-0.15301,-0.200001,-0.498646,-0.00744051,-0.538076,0.636711
26,65,-0.0872665,-0.698132,-0.174533,-0.174533,-0.0831111,-0.697946,-0.15301,-0.200001,-0.498646,-0.00744051,-0.538076,0.636711
26,65,-0.0872665,-0.698132,-0.174533,-0.174533,-0.0831111,-0.697946,-0.15301,-0.200001,-0.498646,-0.00744051,-0.538076,0.636711
26,65,-0.0872665,-0.698132,-0.174533,-0.174533,-0.0831111,-0.697946,-0.153071,-0.199982,-0.498646,-0.00744051,-0.536552,0.636228
26,65,-0.0872665,-0.698132,-0.174533,-0.174533,-0.0831111,-0.697946,-0.153071,-0.199982,-0.498646,-0.00744051,-0.536552,0.636228
26,65,-0.0872665,-0.698132,-0.174533,-0.174533,-0.0831111,-0.697946,-0.153071,-0.199982,-0.498646,-0.00744051,-0.536552,0.636228
26,65,-0.0872665,-0.698132,-0.174533,-0.174533,-0.0831111,-0.697946,-0.153071,-0.199982,-0.498646,-0.00744051,-0.536552,0.636228
26,65,-0.0872665,-0.698132,-0.174533,-0.174533,-0.0831111,-0.697946,-0.153071,-0.199982,-0.498646,-0.00744051,-0.536552,0.636228
26,65,-0.0872665,-0.698132,-0.174533,-0.174533,-0.0831111,-0.697946,-0.153071,-0.199982,-0.498646,-0.00744051,-0.536552,0.636228
26,65,-0.0872665,-0.698132,-0.174533,-0.174533,-0.0831111,-0.697946,-0.153071,-0.199982,-0.498646,-0.00744051,-0.536552,0.636228
26,65,-0.0872665,-0.698132,-0.174533,-0.174533,-0.0831111,-0.697946,-0.153071,-0.199982,-0.498646,-0.00744051,-0.536552,0.636228
26,65,-0.0872665,-0.698132,-0.174533,-0.174533,-0.0831111,-0.697946,-0.153071,-0.199982,-0.498646,-0.00744051,-0.536552,0.636228
26,65,-0.0872665,-0.698132,-0.174533,-0.174533,-0.0831111,-0.697946,-0.153071,-0.199982,-0.498646,-0.00744051,-0.536552,0.636228
26,65,-0.0872665,-0.698132,-0.174533,-0.174533,-0.0831111,-0.697946,-0.153071,-0.199982,-0.498646,-0.00744051,-0.536552,0.636228
26,65,-0.0872665,-0.698132,-0.174533,-0.174533,-0.0831111,-0.697946,-0.153071,-0.199982,-0.498646,-0.00744051,-0.536552,0.636228
26,65,-0.0872665,-0.698132,-0.174533,-0.174533,-0.0831111,-0.697946,-0.153071,-0.199982,-0.498646,-0.00744051,-0.536552,0.636228
26,65,-0.0872665,-0.698132,-0.174533,-0.174533,-0.0831111,-0.697946,-0.153071,-0.199982,-0.498646,-0.00744051,-0.536552,0.636228
26,65,-0.0872665,-0.698132,-0.174533,-0.174533,-0.0831111,-0.697946,-0.153071,-0.199982,-0.498646,-0.00744051,-0.536552,0.636228
26,65,-0.0872665,-0.698132,-0.174533,-0.174533,-0.0831111,-0.697946,-0.153071,-0.199982,-0.498646,-0.00744051,-0.536552,0.636228
26,65,-0.0872665,-0.698132,-0.174533,-0.174533,-0.0831111,-0.697946,-0.153071,-0.199982,-0.498646,-0.00744051,-0.536552,0.636228
26,65,-0.0872665,-0.698132,-0.174533,-0.174533,-0.0831111,-0.697946,-0.153071,-0.199982,-0.498646,-0.00744051,-0.536552,0.636228
26,65,-0.0872665,-0.698132,-0.174533,-0.174533,-0.0831111,-0.697946,-0.153071,-0.199982,-0.498646,-0.00744051,-0.536552,0.636228
26,65,-0.0872665,-0.698132,-0.174533,-0.174533,-0.0831111,-0.697946,-0.153071,-0.199982,-0.498646,-0.00744051,-0.536552,0.636228
26,65,-0.0872665,-0.698132,-0.174533,-0.174533,-0.0831111,-0.697946,-0.153071,-0.199982,-0.498646,-0.00744051,-0.536552,0.636228
26,65,-0.0872665,-0.698132,-0.174533,-0.174533,-0.0831111,-0.697946,-0.153071,-0.199982,-0.498646,-0.00744051,-0.536552,0.636228
26,65,-0.0872665,-0.698132,-0.174533,-0.174533,-0.0831111,-0.697946,-0.153071,-0.199982,-0.498646,-0.00744051,-0.536552,0.636228
26,65,-0.0872665,-0.698132,-0.174533,-0.174533,-0.0831111,-0.697946,-0.153071,-0.199982,-0.498646,-0.00744051,-0.536552,0.636228
26,65,-0.0872665,-0.698132,-0.174533,-0.174533,-0.0831111,-0.697946,-0.153071,-0.199982,-0.498646,-0.00744051,-0.536552,0.636228
26,65,-0.0872665,-0.698132,-0.174533,-0.174533,-0.0831111,-0.697946,-0.153071,-0.199982,-0.498646,-0.00744051,-0.536552,0.636228
26,65,-0.0872665,-0.698132,-0.174533,-0.174533,-0.0831111,-0.697946,-0.153071,-0.199982,-0.498646,-0.00744051,-0.536552,0.636228
26,65,-0.0872665,-0.698132,-0.174533,-0.174533,-0.0831111,-0.697946,-0.153071,-0.199982,-0.498646,-0.00744051,-0.536552,0.636228
26,65,-0.0872665,-0.698132,-0.174533,-0.174533,-0.0831111,-0.697946,-0.153071,-0.199982,-0.498646,-0.00744051,-0.536552,0.636228
26,65,-0.0872665,-0.698132,-0.174533,-0.174533,-0.0831111,-0.697946,-0.153071,-0.199982,-0.498646,-0.00744051,-0.536552,0.636228
26,65,-0.0872665,-0.698132,-0.174533,-0.174533,-0.0831111,-0.697946,-0.153071,-0.199982,-0.498646,-0.00744051,-0.536552,0.636228
26,65,-0.0872665,-0.698132,-0.174533,-0.174533,-0.0831111,-0.697946,-0.153071,-0.199982,-0.498646,-0.00744051,-0.536552,0.636228
26,65,-0.0872665,-0.698132,-0.174533,-0.174533,-0.0831111,-0.697946,-0.153071,-0.199982,-0.498646,-0.00744051,-0.536552,0.636228
26,65,-0.0872665,-0.698132,-0.174533,-0.174533,-0.0831111,-0.697946,-0.153071,-0.199982,-0.498646,-0.00744051,-0.536552,0.636228
26,65,-0.0872665,-0.698132,-0.174533,-0.174533,-0.0831111,-0.697946,-0.153071,-0.199982,-0.498646,-0.00744051,-0.536552,0.636228
26,65,-0.0872665,-0.698132,-0.174533,-0.174533,-0.0831111,-0.697946,-0.153071,-0.199982,-0.498646,-0.00744051,-0.536552,0.636228
26,65,-0.0872665,-0.698132,-0.174533,-0.174533,-0.0831111,-0.697946,-0.153071,-0.199982,-0.498646,-0.00744051,-0.536552,0.636228
26,65,-0.0872665,-0.698132,-0.174533,-0.174533,-0.0831111,-0.697946,-0.153071,-0.199982,-0.498646,-0.00744051,-0.536552,0.636228
26,65,-0.0872665,-0.698132,-0.174533,-0.174533,-0.0831111,-0.697946,-0.153071,-0.199982,-0.498646,-0.00744051,-0.536552,0.636228
26,65,-0.0872665,-0.698132,-0.174533,-0.174533,-0.0831111,-0.697946,-0.153071,-0.199982,-0.498646,-0.00744051,-0.536552,0.636228
26,65,-0.0872665,-0.698132,-0.174533,-0.174533,-0.0831111,-0.697946,-0.153071,-0.199982,-0.498646,-0.00744051,-0.536552,0.636228
26,65,-0.0872665,-0.698132,-0.174533,-0.174533,-0.0831111,-0.697946,-0.153071,-0.199982,-0.498646,-0.00744051,-0.536552,0.636228
26,65,-0.0872665,-0.698132,-0.174533,-0.174533,-0.0831111,-0.697946,-0.153071,-0.199982,-0.498646,-0.00744051,-0.536552,0.636228
26,65,-0.0872665,-0.698132,-0.174533,-0.174533,-0.0831111,-0.697946,-0.153071,-0.199982,-0.498646,-0.00744051,-0.536552,0.636228
26,65,-0.0872665,-0.698132,-0.174533,-0.174533,-0.0831111,-0.697946,-0.153071,-0.199982,-0.498646,-0.00744051,-0.536552,0.636228
26,65,-0.0872665,-0.698132,-0.174533,-0.174533,-0.0831111,-0.697946,-0.153071,-0.199982,-0.498646,-0.00744051,-0.536552,0.636228
26,65,-0.0872665,-0.698132,-0.174533,-0.174533,-0.0831111,-0.697946,-0.153071,-0.199982,-0.498646,-0.00744051,-0.536552,0.636228
26,65,-0.0872665,-0.698132,-0.174533,-0.174533,-0.0831111,-0.697946,-0.153071,-0.199982,-0.498646,-0.00744051,-0.536552,0.636228
26,65,-0.0872665,-0.698132,-0.174533,-0.174533,-0.0831111,-0.697946,-0.153071,-0.199982,-0.498646,-0.00744051,-0.536552,0.636228
26,65,-0.0872665,-0.698132,-0.174533,-0.174533,-0.0831111,-0.697946,-0.153071,-0.199982,-0.498646,-0.00744051,-0.536552,0.636228
26,65,-0.0872665,-0.698132,-0.174533,-0.174533,-0.0831111,-0.697946,-0.153071,-0.199982,-0.498646,-0.00744051,-0.536552,0.636228
26,65,-0.0872665,-0.698132,-0.174533,-0.174533,-0.0831111,-0.697946,-0.153071,-0.199982,-0.498646,-0.00744051,-0.536552,0.636228
26,65,-0.0872665,-0.698132,-0.174533,-0.174533,-0.0831111,-0.697946,-0.153071,-0.199982,-0.498646,-0.00744051,-0.536552,0.636228
26,65,-0.0872665,-0.698132,-0.174533,-0.174533,-0.0831111,-0.697946,-0.153071,-0.199982,-0.498646,-0.00744051,-0.536552,0.636228
26,65,-0.0872665,-0.698132,-0.174533,-0.174533,-0.0831111,-0.697946,-0.153071,-0.199982,-0.498646,-0.00744051,-0.536552,0.636228
26,65,-0.0872665,-0.698132,-0.174533,-0.174533,-0.0831111,-0.697946,-0.153071,-0.199982,-0.498646,-0.00744051,-0.536552,0.636228
26,65,-0.0872665,-0.698132,-0.174533,-0.174533,-0.0831111,-0.697946,-0.153071,-0.199982,-0.498646,-0.00744051,-0.536552,0.636228
26,65,-0.0872665,-0.698132,-0.174533,-0.174533,-0.0831111,-0.697946,-0.153071,-0.199982,-0.498646,-0.00744051,-0.536552,0.636228
26,65,-0.0872665,-0.698132,-0.174533,-0.174533,-0.0831111,-0.697946,-0.153071,-0.199982,-0.498646,-0.00744051,-0.536552,0.636228
26,65,-0.0872665,-0.698132,-0.174533,-0.174533,-0.0831111,-0.697946,-0.153071,-0.199982,-0.498646,-0.00744051,-0.536552,0.636228
26,65,-0.0872665,-0.698132,-0.174533,-0.174533,-0.0831111,-0.697946,-0.153071,-0.199982,-0.498646,-0.00744051,-0.536552,0.636228
26,65,-0.0872665,-0.698132,-0.174533,-0.174533,-0.0831111,-0.697946,-0.153071,-0.199982,-0.498646,-0.00744051,-0.536552,0.636228
26,65,-0.0872665,-0.698132,-0.174533,-0.174533,-0.0831111,-0.697946,-0.153071,-0.199982,-0.498646,-0.00744051,-0.536552,0.636228
26,65,-0.0872665,-0.698132,-0.174533,-0.174533,-0.0831111,-0.697946,-0.153071,-0.199982,-0.498646,-0.00744051,-0.536552,0.636228
26,65,-0.0872665,-0.698132,-0.174533,-0.174533,-0.0831111,-0.697946,-0.153071,-0.199982,-0.498646,-0.00744051,-0.536552,0.636228
26,65,-0.0872665,-0.698132,-0.174533,-0.174533,-0.0831111,-0.697946,-0.153071,-0.199982,-0.498646,-0.00744051,-0.536552,0.636228
26,65,-0.0872665,-0.698132,-0.174533,-0.174533,-0.0831111,-0.697946,-0.153071,-0.199982,-0.498646,-0.00744051,-0.536552,0.636228
26,65,-0.0872665,-0.698132,-0.174533,-0.174533,-0.0831111,-0.697946,-0.153071,-0.199982,-0.498646,-0.00744051,-0.536552,0.636228
26,65,-0.0872665,-0.698132,-0.174533,-0.174533,-0.0831111,-0.697946,-0.153071,-0.199982,-0.498646,-0.00744051,-0.536552,0.636228
26,65,-0.0872665,-0.698132,-0.174533,-0.174533,-0.0831111,-0.697946,-0.153071,-0.199982,-0.498646,-0.00744051,-0.536552,0.636228
26,65,-0.0872665,-0.698132,-0.174533,-0.174533,-0.0831111,-0.697946,-0.153071,-0.199982,-0.498646,-0.00744051,-0.536552,0.636228
26,65,-0.0872665,-0.698132,-0.174533,-0.174533,-0.0831111,-0.697946,-0.153132,-0.199963,-0.498646,-0.00744051,-0.535028,0.635744
26,65,-0.0872665,-0.698132,-0.174533,-0.174533,-0.0831111,-0.697946,-0.153132,-0.199963,-0.498646,-0.00744051,-0.535028,0.635744
26,65,-0.0872665,-0.698132,-0.174533,-0.174533,-0.0831111,-0.697946,-0.153132,-0.199963,-0.498646,-0.00744051,-0.535028,0.635744
26,65,-0.0872665,-0.698132,-0.174533,-0.174533,-0.0831111,-0.697946,-0.153132,-0.199963,-0.498646,-0.00744051,-0.535028,0.635744
26,65,-0.0872665,-0.698132,-0.174533,-0.174533,-0.0831111,-0.697946,-0.153132,-0.199963,-0.498646,-0.00744051,-0.535028,0.635744
26,65,-0.0872665,-0.698132,-0.174533,-0.174533,-0.0831111,-0.697946,-0.153132,-0.199963,-0.498646,-0.00744051,-0.535028,0.635744
26,65,-0.0872665,-0.698132,-0.174533,-0.174533,-0.0831111,-0.697946,-0.153132,-0.199963,-0.498646,-0.00744051,-0.535028,0.635744
26,65,-0.0872665,-0.698132,-0.174533,-0.174533,-0.0831111,-0.697946,-0.153132,-0.199963,-0.498646,-0.00744051,-0.535028,0.635744
26,65,-0.0872665,-0.698132,-0.174533,-0.174533,-0.0831111,-0.697946,-0.153132,-0.199963,-0.498646,-0.00744051,-0.535028,0.635744
26,65,-0.0872665,-0.698132,-0.174533,-0.174533,-0.0831111,-0.697946,-0.153132,-0.199963,-0.498646,-0.00744051,-0.535028,0.635744
26,65,-0.0872665,-0.698132,-0.174533,-0.174533,-0.0831111,-0.697946,-0.153132,-0.199963,-0.498646,-0.00744051,-0.535028,0.635744
26,65,-0.0872665,-0.698132,-0.174533,-0.174533,-0.0831111,-0.697946,-0.153132,-0.199963,-0.498646,-0.00744051,-0.535028,0.635744
26,65,-0.0872665,-0.698132,-0.174533,-0.174533,-0.0831111,-0.697946,-0.153132,-0.199963,-0.498646,-0.00744051,-0.535028,0.635744
26,65,-0.0872665,-0.698132,-0.174533,-0.174533,-0.0831111,-0.697946,-0.153132,-0.199963,-0.498646,-0.00744051,-0.535028,0.635744
26,65,-0.0872665,-0.698132,-0.174533,-0.174533,-0.0831111,-0.697946,-0.153132,-0.199963,-0.498646,-0.00744051,-0.535028,0.635744
26,65,-0.0872665,-0.698132,-0.174533,-0.174533,-0.0831111,-0.697946,-0.153132,-0.199963,-0.498646,-0.00744051,-0.535028,0.635744
26,65,-0.0872665,-0.698132,-0.174533,-0.174533,-0.0831111,-0.697946,-0.153132,-0.199963,-0.498646,-0.00744051,-0.535028,0.635744
26,65,-0.0872665,-0.698132,-0.174533,-0.174533,-0.0831111,-0.697946,-0.153132,-0.199963,-0.498646,-0.00744051,-0.535028,0.635744
26,65,-0.0872665,-0.698132,-0.174533,-0.174533,-0.0831111,-0.697946,-0.153132,-0.199963,-0.498646,-0.00744051,-0.535028,0.635744
26,65,-0.0872665,-0.698132,-0.174533,-0.174533,-0.0831111,-0.697946,-0.153132,-0.199963,-0.498646,-0.00744051,-0.535028,0.635744
26,65,-0.0872665,-0.698132,-0.174533,-0.174533,-0.0831111,-0.697946,-0.153132,-0.199963,-0.498646,-0.00744051,-0.535028,0.635744
26,65,-0.0872665,-0.698132,-0.174533,-0.174533,-0.0831111,-0.697946,-0.153132,-0.199963,-0.498646,-0.00744051,-0.535028,0.635744
26,65,-0.0872665,-0.698132,-0.174533,-0.174533,-0.0831111,-0.697946,-0.153132,-0.199963,-0.498646,-0.00744051,-0.535028,0.635744
26,65,-0.0872665,-0.698132,-0.174533,-0.174533,-0.0831111,-0.697946,-0.153132,-0.199963,-0.498646,-0.00744051,-0.535028,0.635744
26,65,-0.0872665,-0.698132,-0.174533,-0.174533,-0.0831111,-0.697946,-0.153132,-0.199963,-0.498646,-0.00744051,-0.535028,0.635744
26,65,-0.0872665,-0.698132,-0.174533,-0.174533,-0.0831111,-0.697946,-0.153132,-0.199963,-0.498646,-0.00744051,-0.535028,0.635744
26,65,-0.0872665,-0.698132,-0.174533,-0.174533,-0.0831111,-0.697946,-0.153132,-0.199963,-0.498646,-0.00744051,-0.535028,0.635744
26,65,-0.0872665,-0.698132,-0.174533,-0.174533,-0.0831111,-0.697946,-0.153132,-0.199963,-0.498646,-0.00744051,-0.535028,0.635744
26,65,-0.0872665,-0.698132,-0.174533,-0.174533,-0.0831111,-0.697946,-0.153132,-0.199963,-0.498646,-0.00744051,-0.535028,0.635744
26,65,-0.0872665,-0.698132,-0.174533,-0.174533,-0.0831111,-0.697946,-0.153132,-0.199963,-0.498646,-0.00744051,-0.535028,0.635744
26,65,-0.0872665,-0.698132,-0.174533,-0.174533,-0.0831111,-0.697946,-0.153132,-0.199963,-0.498646,-0.00744051,-0.535028,0.635744
26,65,-0.0872665,-0.698132,-0.174533,-0.174533,-0.0831111,-0.697946,-0.153132,-0.199963,-0.498646,-0.00744051,-0.535028,0.635744
26,65,-0.0872665,-0.698132,-0.174533,-0.174533,-0.0831111,-0.697946,-0.153132,-0.199963,-0.498646,-0.00744051,-0.535028,0.635744
26,65,-0.0872665,-0.698132,-0.174533,-0.174533,-0.0831111,-0.697946,-0.153132,-0.199963,-0.498646,-0.00744051,-0.535028,0.635744
26,65,-0.0872665,-0.698132,-0.174533,-0.174533,-0.0831111,-0.697946,-0.153132,-0.199963,-0.498646,-0.00744051,-0.535028,0.635744
26,65,-0.0872665,-0.698132,-0.174533,-0.174533,-0.0831111,-0.697946,-0.153132,-0.199963,-0.498646,-0.00744051,-0.535028,0.635744
26,65,-0.0872665,-0.698132,-0.174533,-0.174533,-0.0831111,-0.697946,-0.153132,-0.199963,-0.498646,-0.00744051,-0.535028,0.635744
26,65,-0.0872665,-0.698132,-0.174533,-0.174533,-0.0831111,-0.697946,-0.153132,-0.199963,-0.498646,-0.00744051,-0.535028,0.635744
26,65,-0.0872665,-0.698132,-0.174533,-0.174533,-0.0831111,-0.697946,-0.153132,-0.199963,-0.498646,-0.00744051,-0.535028,0.635744
26,65,-0.0872665,-0.698132,-0.174533,-0.174533,-0.0831111,-0.697946,-0.153132,-0.199963,-0.498646,-0.00744051,-0.535028,0.635744
26,65,-0.0872665,-0.698132,-0.174533,-0.174533,-0.0831111,-0.697946,-0.153132,-0.199963,-0.498646,-0.00744051,-0.535028,0.635744
26,65,-0.0872665,-0.698132,-0.174533,-0.174533,-0.0831111,-0.697946,-0.153132,-0.199963,-0.498646,-0.00744051,-0.535028,0.635744
26,65,-0.0872665,-0.698132,-0.174533,-0.174533,-0.0831111,-0.697997,-0.153132,-0.199963,-0.498646,-0.00540687,-0.535028,0.635744
26,65,-0.0872665,-0.698132,-0.174533,-0.174533,-0.0831111,-0.697997,-0.153132,-0.199963,-0.498646,-0.00540687,-0.535028,0.635744
26,65,-0.0872665,-0.698132,-0.174533,-0.174533,-0.0831111,-0.697997,-0.153132,-0.199963,-0.498646,-0.00540687,-0.535028,0.635744
26,65,-0.0872665,-0.698132,-0.174533,-0.174533,-0.0831111,-0.697997,-0.153132,-0.199963,-0.498646,-0.00540687,-0.535028,0.635744
26,65,-0.0872665,-0.698132,-0.174533,-0.174533,-0.0831111,-0.697997,-0.153132,-0.199963,-0.498646,-0.00540687,-0.535028,0.635744
26,65,-0.0872665,-0.698132,-0.174533,-0.174533,-0.0831111,-0.697997,-0.153132,-0.199963,-0.498646,-0.00540687,-0.535028,0.635744
26,65,-0.0872665,-0.698132,-0.174533,-0.174533,-0.0831111,-0.697997,-0.153132,-0.199963,-0.498646,-0.00540687,-0.535028,0.635744
26,65,-0.0872665,-0.698132,-0.174533,-0.174533,-0.0831111,-0.697997,-0.153132,-0.199963,-0.498646,-0.00540687,-0.535028,0.635744
26,65,-0.0872665,-0.698132,-0.174533,-0.174533,-0.0831111,-0.697997,-0.153132,-0.199963,-0.498646,-0.00540687,-0.535028,0.635744
26,65,-0.0872665,-0.698132,-0.174533,-0.174533,-0.0831111,-0.697997,-0.153132,-0.199963,-0.498646,-0.00540687,-0.535028,0.635744
26,65,-0.0872665,-0.698132,-0.174533,-0.174533,-0.0831111,-0.697997,-0.153132,-0.199963,-0.498646,-0.00540687,-0.535028,0.635744
26,65,-0.0872665,-0.698132,-0.174533,-0.174533,-0.0831111,-0.697997,-0.153132,-0.199963,-0.498646,-0.00540687,-0.535028,0.635744
26,65,-0.0872665,-0.698132,-0.174533,-0.174533,-0.0831111,-0.697997,-0.153132,-0.199963,-0.498646,-0.00540687,-0.535028,0.635744
26,65,-0.0872665,-0.698132,-0.174533,-0.174533,-0.0831111,-0.697997,-0.153132,-0.199963,-0.498646,-0.00540687,-0.535028,0.635744
26,65,-0.0872665,-0.698132,-0.174533,-0.174533,-0.0831111,-0.697997,-0.153132,-0.199963,-0.498646,-0.00540687,-0.535028,0.635744
26,65,-0.0872665,-0.698132,-0.174533,-0.174533,-0.0831111,-0.697997,-0.153132,-0.199963,-0.498646,-0.00540687,-0.535028,0.635744
26,65,-0.0872665,-0.698132,-0.174533,-0.174533,-0.0831111,-0.697997,-0.153132,-0.199963,-0.498646,-0.00540687,-0.535028,0.635744
26,65,-0.0872665,-0.698132,-0.174533,-0.174533,-0.0831111,-0.697997,-0.153132,-0.199963,-0.498646,-0.00540687,-0.535028,0.635744
26,65,-0.0872665,-0.698132,-0.174533,-0.174533,-0.0831111,-0.697997,-0.153132,-0.199963,-0.498646,-0.00540687,-0.535028,0.635744
26,65,-0.0872665,-0.698132,-0.174533,-0.174533,-0.0831111,-0.697997,-0.153132,-0.199963,-0.498646,-0.00540687,-0.535028,0.635744
26,65,-0.0872665,-0.698132,-0.174533,-0.174533,-0.0831111,-0.697997,-0.153132,-0.199963,-0.498646,-0.00540687,-0.535028,0.635744
26,65,-0.0872665,-0.698132,-0.174533,-0.174533,-0.0831111,-0.697997,-0.153193,-0.199943,-0.498646,-0.00540687,-0.533504,0.63526
26,65,-0.0872665,-0.698132,-0.174533,-0.174533,-0.0831111,-0.697997,-0.153193,-0.199943,-0.498646,-0.00540687,-0.533504,0.63526
26,65,-0.0872665,-0.698132,-0.174533,-0.174533,-0.0831111,-0.697997,-0.153193,-0.199943,-0.498646,-0.00540687,-0.533504,0.63526
26,65,-0.0872665,-0.698132,-0.174533,-0.174533,-0.0831111,-0.697997,-0.153193,-0.199943,-0.498646,-0.00540687,-0.533504,0.63526
26,65,-0.0872665,-0.698132,-0.174533,-0.174533,-0.0831111,-0.697997,-0.153193,-0.199943,-0.498646,-0.00540687,-0.533504,0.63526
26,65,-0.0872665,-0.698132,-0.174533,-0.174533,-0.0831111,-0.697997,-0.153193,-0.199943,-0.498646,-0.00540687,-0.533504,0.63526
26,65,-0.0872665,-0.698132,-0.174533,-0.174533,-0.0831111,-0.697997,-0.153193,-0.199943,-0.498646,-0.00540687,-0.533504,0.63526
26,65,-0.0872665,-0.698132,-0.174533,-0.174533,-0.0831111,-0.697997,-0.153193,-0.199943,-0.498646,-0.00540687,-0.533504,0.63526
26,65,-0.0872665,-0.698132,-0.174533,-0.174533,-0.0831111,-0.697997,-0.153193,-0.199943,-0.498646,-0.00540687,-0.533504,0.63526
26,65,-0.0872665,-0.698132,-0.174533,-0.174533,-0.0831111,-0.697997,-0.153193,-0.199943,-0.498646,-0.00540687,-0.533504,0.63526
26,65,-0.0872665,-0.698132,-0.174533,-0.174533,-0.0831111,-0.697997,-0.153193,-0.199943,-0.498646,-0.00540687,-0.533504,0.63526
26,65,-0.0872665,-0.698132,-0.174533,-0.174533,-0.0831111,-0.697997,-0.153193,-0.199943,-0.498646,-0.00540687,-0.533504,0.63526
26,65,-0.0872665,-0.698132,-0.174533,-0.174533,-0.0831111,-0.697997,-0.153193,-0.199943,-0.498646,-0.00540687,-0.533504,0.63526
26,65,-0.0872665,-0.698132,-0.174533,-0.174533,-0.0831111,-0.697997,-0.153193,-0.199943,-0.498646,-0.00540687,-0.533504,0.63526
26,65,-0.0872665,-0.698132,-0.174533,-0.174533,-0.0831111,-0.697997,-0.153193,-0.199943,-0.498646,-0.00540687,-0.533504,0.63526
26,65,-0.0872665,-0.698132,-0.174533,-0.174533,-0.0831111,-0.697997,-0.153193,-0.199943,-0.498646,-0.00540687,-0.533504,0.63526
26,65,-0.0872665,-0.698132,-0.174533,-0.174533,-0.0831111,-0.697997,-0.153193,-0.199943,-0.498646,-0.00540687,-0.533504,0.63526
26,65,-0.0872665,-0.698132,-0.174533,-0.174533,-0.0831111,-0.697997,-0.153193,-0.199943,-0.498646,-0.00540687,-0.533504,0.63526
26,65,-0.0872665,-0.698132,-0.174533,-0.174533,-0.0831111,-0.697997,-0.153193,-0.199943,-0.498646,-0.00540687,-0.533504,0.63526
26,65,-0.0872665,-0.698132,-0.174533,-0.174533,-0.0831111,-0.697997,-0.153193,-0.199943,-0.498646,-0.00540687,-0.533504,0.63526
26,65,-0.0872665,-0.698132,-0.174533,-0.174533,-0.0831111,-0.697997,-0.153193,-0.199943,-0.498646,-0.00540687,-0.533504,0.63526
26,65,-0.0872665,-0.698132,-0.174533,-0.174533,-0.0831111,-0.697997,-0.153193,-0.199943,-0.498646,-0.00540687,-0.533504,0.63526
26,65,-0.0872665,-0.698132,-0.174533,-0.174533,-0.0831111,-0.697997,-0.153193,-0.199943,-0.498646,-0.00540687,-0.533504,0.63526
26,65,-0.0872665,-0.698132,-0.174533,-0.174533,-0.0831111,-0.697997,-0.153193,-0.199943,-0.498646,-0.00540687,-0.533504,0.63526
26,65,-0.0872665,-0.698132,-0.174533,-0.174533,-0.0831111,-0.697997,-0.153193,-0.199943,-0.498646,-0.00540687,-0.533504,0.63526
26,65,-0.0872665,-0.698132,-0.174533,-0.174533,-0.0831111,-0.697997,-0.153193,-0.199943,-0.498646,-0.00540687,-0.533504,0.63526
26,65,-0.0872665,-0.698132,-0.174533,-0.174533,-0.0831111,-0.697997,-0.153193,-0.199943,-0.498646,-0.00540687,-0.533504,0.63526
26,65,-0.0872665,-0.698132,-0.174533,-0.174533,-0.0831111,-0.697997,-0.153193,-0.199943,-0.498646,-0.00540687,-0.533504,0.63526
26,65,-0.0872665,-0.698132,-0.174533,-0.174533,-0.0831111,-0.697997,-0.153193,-0.199943,-0.498646,-0.00540687,-0.533504,0.63526
26,65,-0.0872665,-0.698132,-0.174533,-0.174533,-0.0831111,-0.697997,-0.153193,-0.199943,-0.498646,-0.00540687,-0.533504,0.63526
26,65,-0.0872665,-0.698132,-0.174533,-0.174533,-0.0831111,-0.697997,-0.153193,-0.199943,-0.498646,-0.00540687,-0.533504,0.63526
26,65,-0.0872665,-0.698132,-0.174533,-0.174533,-0.0831111,-0.697997,-0.153193,-0.199943,-0.498646,-0.00540687,-0.533504,0.63526
26,65,-0.0872665,-0.698132,-0.174533,-0.174533,-0.0831111,-0.697997,-0.153193,-0.199943,-0.498646,-0.00540687,-0.533504,0.63526
26,65,-0.0872665,-0.698132,-0.174533,-0.174533,-0.0831111,-0.697997,-0.153193,-0.199943,-0.498646,-0.00540687,-0.533504,0.63526
26,65,-0.0872665,-0.698132,-0.174533,-0.174533,-0.0831111,-0.697997,-0.153193,-0.199943,-0.498646,-0.00540687,-0.533504,0.63526
26,65,-0.0872665,-0.698132,-0.174533,-0.174533,-0.0831111,-0.697997,-0.153193,-0.199943,-0.498646,-0.00540687,-0.533504,0.63526
26,65,-0.0872665,-0.698132,-0.174533,-0.174533,-0.0831111,-0.697997,-0.153193,-0.199943,-0.498646,-0.00540687,-0.533504,0.63526
26,65,-0.0872665,-0.698132,-0.174533,-0.174533,-0.0831111,-0.697997,-0.153193,-0.199943,-0.498646,-0.00540687,-0.533504,0.63526
26,65,-0.0872665,-0.698132,-0.174533,-0.174533,-0.0831111,-0.697997,-0.153193,-0.199943,-0.498646,-0.00540687,-0.533504,0.63526
26,65,-0.0872665,-0.698132,-0.174533,-0.174533,-0.0831111,-0.697997,-0.153193,-0.199943,-0.498646,-0.00540687,-0.533504,0.63526
26,65,-0.0872665,-0.698132,-0.174533,-0.174533,-0.0831111,-0.697997,-0.153193,-0.199943,-0.498646,-0.00540687,-0.533504,0.63526
26,65,-0.0872665,-0.698132,-0.174533,-0.174533,-0.0831111,-0.697997,-0.153193,-0.199943,-0.498646,-0.00540687,-0.533504,0.63526
26,65,-0.0872665,-0.698132,-0.174533,-0.174533,-0.0831111,-0.697997,-0.153193,-0.199943,-0.498646,-0.00540687,-0.533504,0.63526
26,65,-0.0872665,-0.698132,-0.174533,-0.174533,-0.0831111,-0.697997,-0.153193,-0.199943,-0.498646,-0.00540687,-0.533504,0.63526
26,65,-0.0872665,-0.698132,-0.174533,-0.174533,-0.0831111,-0.697997,-0.153193,-0.199943,-0.498646,-0.00540687,-0.533504,0.63526
26,65,-0.0872665,-0.698132,-0.174533,-0.174533,-0.0831111,-0.697997,-0.153193,-0.199943,-0.498646,-0.00540687,-0.533504,0.63526
26,65,-0.0872665,-0.698132,-0.174533,-0.174533,-0.0831111,-0.697997,-0.153193,-0.199943,-0.498646,-0.00540687,-0.533504,0.63526
26,65,-0.0872665,-0.698132,-0.174533,-0.174533,-0.0831111,-0.697997,-0.153193,-0.199943,-0.498646,-0.00540687,-0.533504,0.63526
26,65,-0.0872665,-0.698132,-0.174533,-0.174533,-0.0831111,-0.697997,-0.153193,-0.199943,-0.498646,-0.00540687,-0.533504,0.63526
26,65,-0.0872665,-0.698132,-0.174533,-0.174533,-0.0831111,-0.697997,-0.153193,-0.199943,-0.498646,-0.00540687,-0.533504,0.63526
26,65,-0.0872665,-0.698132,-0.174533,-0.174533,-0.0831111,-0.697997,-0.153193,-0.199943,-0.498646,-0.00540687,-0.533504,0.63526
26,65,-0.0872665,-0.698132,-0.174533,-0.174533,-0.0831111,-0.697997,-0.153193,-0.199943,-0.498646,-0.00540687,-0.533504,0.63526
26,65,-0.0872665,-0.698132,-0.174533,-0.174533,-0.0831111,-0.697997,-0.153193,-0.199943,-0.498646,-0.00540687,-0.533504,0.63526
26,65,-0.0872665,-0.698132,-0.174533,-0.174533,-0.0831111,-0.697997,-0.153193,-0.199943,-0.498646,-0.00540687,-0.533504,0.63526
26,65,-0.0872665,-0.698132,-0.174533,-0.174533,-0.0831111,-0.697997,-0.153193,-0.199943,-0.498646,-0.00540687,-0.533504,0.63526
26,65,-0.0872665,-0.698132,-0.174533,-0.174533,-0.0831111,-0.697997,-0.153193,-0.199943,-0.498646,-0.00540687,-0.533504,0.63526
26,65,-0.0872665,-0.698132,-0.174533,-0.174533,-0.0831111,-0.697997,-0.153193,-0.199943,-0.498646,-0.00540687,-0.533504,0.63526
26,65,-0.0872665,-0.698132,-0.174533,-0.174533,-0.0831111,-0.697997,-0.153193,-0.199943,-0.498646,-0.00540687,-0.533504,0.63526
26,65,-0.0872665,-0.698132,-0.174533,-0.174533,-0.0831111,-0.697997,-0.153193,-0.199943,-0.498646,-0.00540687,-0.533504,0.63526
26,65,-0.0872665,-0.698132,-0.174533,-0.174533,-0.0831111,-0.697997,-0.153193,-0.199943,-0.498646,-0.00540687,-0.533504,0.63526
26,65,-0.0872665,-0.698132,-0.174533,-0.174533,-0.0831111,-0.697997,-0.153193,-0.199943,-0.498646,-0.00540687,-0.533504,0.63526
26,65,-0.0872665,-0.698132,-0.174533,-0.174533,-0.0831111,-0.697997,-0.153193,-0.199943,-0.498646,-0.00540687,-0.533504,0.63526
26,65,-0.0872665,-0.698132,-0.174533,-0.174533,-0.0831111,-0.697997,-0.153193,-0.199943,-0.498646,-0.00540687,-0.533504,0.63526
26,65,-0.0872665,-0.698132,-0.174533,-0.174533,-0.0831111,-0.698047,-0.153193,-0.199943,-0.498646,-0.00337323,-0.533504,0.63526
26,65,-0.0872665,-0.698132,-0.174533,-0.174533,-0.0831111,-0.698047,-0.153193,-0.199943,-0.498646,-0.00337323,-0.533504,0.63526
26,65,-0.0872665,-0.698132,-0.174533,-0.174533,-0.0831111,-0.698047,-0.153193,-0.199943,-0.498646,-0.00337323,-0.533504,0.63526
26,65,-0.0872665,-0.698132,-0.174533,-0.174533,-0.0831111,-0.698047,-0.153193,-0.199943,-0.498646,-0.00337323,-0.533504,0.63526
26,65,-0.0872665,-0.698132,-0.174533,-0.174533,-0.0831111,-0.698047,-0.153193,-0.199943,-0.498646,-0.00337323,-0.533504,0.63526
26,65,-0.0872665,-0.698132,-0.174533,-0.174533,-0.0831111,-0.698047,-0.153193,-0.199943,-0.498646,-0.00337323,-0.533504,0.63526
26,65,-0.0872665,-0.698132,-0.174533,-0.174533,-0.0831111,-0.698047,-0.153193,-0.199943,-0.498646,-0.00337323,-0.533504,0.63526
26,65,-0.0872665,-0.698132,-0.174533,-0.174533,-0.0831111,-0.698047,-0.153193,-0.199943,-0.498646,-0.00337323,-0.533504,0.63526
26,65,-0.0872665,-0.698132,-0.174533,-0.174533,-0.0831111,-0.698047,-0.153193,-0.199943,-0.498646,-0.00337323,-0.533504,0.63526
26,65,-0.0872665,-0.698132,-0.174533,-0.174533,-0.0831111,-0.698047,-0.153193,-0.199943,-0.498646,-0.00337323,-0.533504,0.63526
26,65,-0.0872665,-0.698132,-0.174533,-0.174533,-0.0831111,-0.698047,-0.153193,-0.199943,-0.498646,-0.00337323,-0.533504,0.63526
26,65,-0.0872665,-0.698132,-0.174533,-0.174533,-0.0831111,-0.698047,-0.153254,-0.199924,-0.498646,-0.00337323,-0.53198,0.634776
26,65,-0.0872665,-0.698132,-0.174533,-0.174533,-0.0831111,-0.698047,-0.153254,-0.199924,-0.498646,-0.00337323,-0.53198,0.634776
26,65,-0.0872665,-0.698132,-0.174533,-0.174533,-0.0831111,-0.698047,-0.153254,-0.199924,-0.498646,-0.00337323,-0.53198,0.634776
26,65,-0.0872665,-0.698132,-0.174533,-0.174533,-0.0831111,-0.698047,-0.153254,-0.199924,-0.498646,-0.00337323,-0.53198,0.634776
26,65,-0.0872665,-0.698132,-0.174533,-0.174533,-0.0831111,-0.698047,-0.153254,-0.199924,-0.498646,-0.00337323,-0.53198,0.634776
26,65,-0.0872665,-0.698132,-0.174533,-0.174533,-0.0831111,-0.698047,-0.153254,-0.199924,-0.498646,-0.00337323,-0.53198,0.634776
26,65,-0.0872665,-0.698132,-0.174533,-0.174533,-0.0831111,-0.698047,-0.153254,-0.199924,-0.498646,-0.00337323,-0.53198,0.634776
26,65,-0.0872665,-0.698132,-0.174533,-0.174533,-0.0831111,-0.698047,-0.153254,-0.199924,-0.498646,-0.00337323,-0.53198,0.634776
26,65,-0.0872665,-0.698132,-0.174533,-0.174533,-0.0831111,-0.698047,-0.153254,-0.199924,-0.498646,-0.00337323,-0.53198,0.634776
26,65,-0.0872665,-0.698132,-0.174533,-0.174533,-0.0831111,-0.698047,-0.153254,-0.199924,-0.498646,-0.00337323,-0.53198,0.634776
26,65,-0.0872665,-0.698132,-0.174533,-0.174533,-0.0831111,-0.698047,-0.153254,-0.199924,-0.498646,-0.00337323,-0.53198,0.634776
26,65,-0.0872665,-0.698132,-0.174533,-0.174533,-0.0831111,-0.698047,-0.153254,-0.199924,-0.498646,-0.00337323,-0.53198,0.634776
26,65,-0.0872665,-0.698132,-0.174533,-0.174533,-0.0831111,-0.698047,-0.153254,-0.199924,-0.498646,-0.00337323,-0.53198,0.634776
26,65,-0.0872665,-0.698132,-0.174533,-0.174533,-0.0831111,-0.698047,-0.153254,-0.199924,-0.498646,-0.00337323,-0.53198,0.634776
26,65,-0.0872665,-0.698132,-0.174533,-0.174533,-0.0831111,-0.698047,-0.153254,-0.199924,-0.498646,-0.00337323,-0.53198,0.634776
26,65,-0.0872665,-0.698132,-0.174533,-0.174533,-0.0831111,-0.698047,-0.153254,-0.199924,-0.498646,-0.00337323,-0.53198,0.634776
26,65,-0.0872665,-0.698132,-0.174533,-0.174533,-0.0831111,-0.698047,-0.153254,-0.199924,-0.498646,-0.00337323,-0.53198,0.634776
26,65,-0.0872665,-0.698132,-0.174533,-0.174533,-0.0831111,-0.698047,-0.153254,-0.199924,-0.498646,-0.00337323,-0.53198,0.634776
26,65,-0.0872665,-0.698132,-0.174533,-0.174533,-0.0831111,-0.698047,-0.153254,-0.199924,-0.498646,-0.00337323,-0.53198,0.634776
26,65,-0.0872665,-0.698132,-0.174533,-0.174533,-0.0831111,-0.698047,-0.153254,-0.199924,-0.498646,-0.00337323,-0.53198,0.634776
26,65,-0.0872665,-0.698132,-0.174533,-0.174533,-0.0831111,-0.698047,-0.153254,-0.199924,-0.498646,-0.00337323,-0.53198,0.634776
26,65,-0.0872665,-0.698132,-0.174533,-0.174533,-0.0831111,-0.698047,-0.153254,-0.199924,-0.498646,-0.00337323,-0.53198,0.634776
26,65,-0.0872665,-0.698132,-0.174533,-0.174533,-0.0831111,-0.698047,-0.153254,-0.199924,-0.498646,-0.00337323,-0.53198,0.634776
26,65,-0.0872665,-0.698132,-0.174533,-0.174533,-0.0831111,-0.698047,-0.153254,-0.199924,-0.498646,-0.00337323,-0.53198,0.634776
26,65,-0.0872665,-0.698132,-0.174533,-0.174533,-0.0831111,-0.698047,-0.153254,-0.199924,-0.498646,-0.00337323,-0.53198,0.634776
26,65,-0.0872665,-0.698132,-0.174533,-0.174533,-0.0831111,-0.698047,-0.153254,-0.199924,-0.498646,-0.00337323,-0.53198,0.634776
26,65,-0.0872665,-0.698132,-0.174533,-0.174533,-0.0831111,-0.698047,-0.153254,-0.199924,-0.498646,-0.00337323,-0.53198,0.634776
26,65,-0.0872665,-0.698132,-0.174533,-0.174533,-0.0831111,-0.698047,-0.153254,-0.199924,-0.498646,-0.00337323,-0.53198,0.634776
26,65,-0.0872665,-0.698132,-0.174533,-0.174533,-0.0831111,-0.698047,-0.153254,-0.199924,-0.498646,-0.00337323,-0.53198,0.634776
26,65,-0.0872665,-0.698132,-0.174533,-0.174533,-0.0831111,-0.698047,-0.153254,-0.199924,-0.498646,-0.00337323,-0.53198,0.634776
26,65,-0.0872665,-0.698132,-0.174533,-0.174533,-0.0831111,-0.698047,-0.153254,-0.199924,-0.498646,-0.00337323,-0.53198,0.634776
26,65,-0.0872665,-0.698132,-0.174533,-0.174533,-0.0831111,-0.698047,-0.153254,-0.199924,-0.498646,-0.00337323,-0.53198,0.634776
26,65,-0.0872665,-0.698132,-0.174533,-0.174533,-0.0831111,-0.698047,-0.153254,-0.199924,-0.498646,-0.00337323,-0.53198,0.634776
26,65,-0.0872665,-0.698132,-0.174533,-0.174533,-0.0831111,-0.698047,-0.153254,-0.199924,-0.498646,-0.00337323,-0.53198,0.634776
26,65,-0.0872665,-0.698132,-0.174533,-0.174533,-0.0831111,-0.698047,-0.153254,-0.199924,-0.498646,-0.00337323,-0.53198,0.634776
26,65,-0.0872665,-0.698132,-0.174533,-0.174533,-0.0831111,-0.698047,-0.153254,-0.199924,-0.498646,-0.00337323,-0.53198,0.634776
26,65,-0.0872665,-0.698132,-0.174533,-0.174533,-0.0831111,-0.698047,-0.153254,-0.199924,-0.498646,-0.00337323,-0.53198,0.634776
26,65,-0.0872665,-0.698132,-0.174533,-0.174533,-0.0831111,-0.698047,-0.153315,-0.199905,-0.498646,-0.00337323,-0.530456,0.634292
26,65,-0.0872665,-0.698132,-0.174533,-0.174533,-0.0831111,-0.698047,-0.153315,-0.199905,-0.498646,-0.00337323,-0.530456,0.634292
26,65,-0.0872665,-0.698132,-0.174533,-0.174533,-0.0831111,-0.698047,-0.153315,-0.199905,-0.498646,-0.00337323,-0.530456,0.634292
26,65,-0.0872665,-0.698132,-0.174533,-0.174533,-0.0831111,-0.698047,-0.153315,-0.199905,-0.498646,-0.00337323,-0.530456,0.634292
26,65,-0.0872665,-0.698132,-0.174533,-0.174533,-0.0831111,-0.698047,-0.153315,-0.199905,-0.498646,-0.00337323,-0.530456,0.634292
26,65,-0.0872665,-0.698132,-0.174533,-0.174533,-0.0831111,-0.698047,-0.153315,-0.199905,-0.498646,-0.00337323,-0.530456,0.634292
26,65,-0.0872665,-0.698132,-0.174533,-0.174533,-0.0831111,-0.698047,-0.153315,-0.199905,-0.498646,-0.00337323,-0.530456,0.634292
26,65,-0.0872665,-0.698132,-0.174533,-0.174533,-0.0831111,-0.698047,-0.153315,-0.199905,-0.498646,-0.00337323,-0.530456,0.634292
26,65,-0.0872665,-0.698132,-0.174533,-0.174533,-0.0831111,-0.698047,-0.153315,-0.199905,-0.498646,-0.00337323,-0.530456,0.634292
26,65,-0.0872665,-0.698132,-0.174533,-0.174533,-0.0831111,-0.698047,-0.153315,-0.199905,-0.498646,-0.00337323,-0.530456,0.634292
26,65,-0.0872665,-0.698132,-0.174533,-0.174533,-0.0831111,-0.698047,-0.153315,-0.199905,-0.498646,-0.00337323,-0.530456,0.634292
26,65,-0.0872665,-0.698132,-0.174533,-0.174533,-0.0831111,-0.698047,-0.153315,-0.199905,-0.498646,-0.00337323,-0.530456,0.634292
26,65,-0.0872665,-0.698132,-0.174533,-0.174533,-0.0831111,-0.698047,-0.153315,-0.199905,-0.498646,-0.00337323,-0.530456,0.634292
26,65,-0.0872665,-0.698132,-0.174533,-0.174533,-0.0831111,-0.698047,-0.153315,-0.199905,-0.498646,-0.00337323,-0.530456,0.634292
26,65,-0.0872665,-0.698132,-0.174533,-0.174533,-0.0831111,-0.698047,-0.153315,-0.199905,-0.498646,-0.00337323,-0.530456,0.634292
26,65,-0.0872665,-0.698132,-0.174533,-0.174533,-0.0831111,-0.698047,-0.153315,-0.199905,-0.498646,-0.00337323,-0.530456,0.634292
26,65,-0.0872665,-0.698132,-0.174533,-0.174533,-0.0831111,-0.698047,-0.153315,-0.199905,-0.498646,-0.00337323,-0.530456,0.634292
26,65,-0.0872665,-0.698132,-0.174533,-0.174533,-0.0831111,-0.698047,-0.153315,-0.199905,-0.498646,-0.00337323,-0.530456,0.634292
26,65,-0.0872665,-0.698132,-0.174533,-0.174533,-0.0831111,-0.698047,-0.153315,-0.199905,-0.498646,-0.00337323,-0.530456,0.634292
26,65,-0.0872665,-0.698132,-0.174533,-0.174533,-0.0831111,-0.698047,-0.153315,-0.199905,-0.498646,-0.00337323,-0.530456,0.634292
26,65,-0.0872665,-0.698132,-0.174533,-0.174533,-0.0831111,-0.698047,-0.153315,-0.199905,-0.498646,-0.00337323,-0.530456,0.634292
26,65,-0.0872665,-0.698132,-0.174533,-0.174533,-0.0831111,-0.698047,-0.153315,-0.199905,-0.498646,-0.00337323,-0.530456,0.634292
26,65,-0.0872665,-0.698132,-0.174533,-0.174533,-0.0831111,-0.698047,-0.153315,-0.199905,-0.498646,-0.00337323,-0.530456,0.634292
26,65,-0.0872665,-0.698132,-0.174533,-0.174533,-0.0831111,-0.698047,-0.153315,-0.199905,-0.498646,-0.00337323,-0.530456,0.634292
26,65,-0.0872665,-0.698132,-0.174533,-0.174533,-0.0831111,-0.698047,-0.153315,-0.199905,-0.498646,-0.00337323,-0.530456,0.634292
26,65,-0.0872665,-0.698132,-0.174533,-0.174533,-0.0831111,-0.698047,-0.153315,-0.199905,-0.498646,-0.00337323,-0.530456,0.634292
26,65,-0.0872665,-0.698132,-0.174533,-0.174533,-0.0831111,-0.698047,-0.153315,-0.199905,-0.498646,-0.00337323,-0.530456,0.634292
26,65,-0.0872665,-0.698132,-0.174533,-0.174533,-0.0831111,-0.698047,-0.153315,-0.199905,-0.498646,-0.00337323,-0.530456,0.634292
26,65,-0.0872665,-0.698132,-0.174533,-0.174533,-0.0831111,-0.698047,-0.153315,-0.199905,-0.498646,-0.00337323,-0.530456,0.634292
26,65,-0.0872665,-0.698132,-0.174533,-0.174533,-0.0831111,-0.698047,-0.153315,-0.199905,-0.498646,-0.00337323,-0.530456,0.634292
26,65,-0.0872665,-0.698132,-0.174533,-0.174533,-0.0831111,-0.698047,-0.153315,-0.199905,-0.498646,-0.00337323,-0.530456,0.634292
26,65,-0.0872665,-0.698132,-0.174533,-0.174533,-0.0831111,-0.698047,-0.153315,-0.199905,-0.498646,-0.00337323,-0.530456,0.634292
26,65,-0.0872665,-0.698132,-0.174533,-0.174533,-0.0831111,-0.698047,-0.153315,-0.199905,-0.498646,-0.00337323,-0.530456,0.634292
26,65,-0.0872665,-0.698132,-0.174533,-0.174533,-0.0831111,-0.698047,-0.153315,-0.199905,-0.498646,-0.00337323,-0.530456,0.634292
26,65,-0.0872665,-0.698132,-0.174533,-0.174533,-0.0831111,-0.698047,-0.153315,-0.199905,-0.498646,-0.00337323,-0.530456,0.634292
26,65,-0.0872665,-0.698132,-0.174533,-0.174533,-0.0831111,-0.698047,-0.153315,-0.199905,-0.498646,-0.00337323,-0.530456,0.634292
26,65,-0.0872665,-0.698132,-0.174533,-0.174533,-0.0831111,-0.698047,-0.153315,-0.199905,-0.498646,-0.00337323,-0.530456,0.634292
26,65,-0.0872665,-0.698132,-0.174533,-0.174533,-0.0831111,-0.698047,-0.153315,-0.199905,-0.498646,-0.00337323,-0.530456,0.634292
26,65,-0.0872665,-0.698132,-0.174533,-0.174533,-0.0831111,-0.698047,-0.153315,-0.199905,-0.498646,-0.00337323,-0.530456,0.634292
26,65,-0.0872665,-0.698132,-0.174533,-0.174533,-0.0831111,-0.698047,-0.153315,-0.199905,-0.498646,-0.00337323,-0.530456,0.634292
26,65,-0.0872665,-0.698132,-0.174533,-0.174533,-0.0831111,-0.698047,-0.153315,-0.199905,-0.498646,-0.00337323,-0.530456,0.634292
26,65,-0.0872665,-0.698132,-0.174533,-0.174533,-0.0831111,-0.698047,-0.153315,-0.199905,-0.498646,-0.00337323,-0.530456,0.634292
26,65,-0.0872665,-0.698132,-0.174533,-0.174533,-0.0831111,-0.698047,-0.153315,-0.199905,-0.498646,-0.00337323,-0.530456,0.634292
26,65,-0.0872665,-0.698132,-0.174533,-0.174533,-0.0831111,-0.698047,-0.153315,-0.199905,-0.498646,-0.00337323,-0.530456,0.634292
26,65,-0.0872665,-0.698132,-0.174533,-0.174533,-0.0831111,-0.698047,-0.153315,-0.199905,-0.498646,-0.00337323,-0.530456,0.634292
26,65,-0.0872665,-0.698132,-0.174533,-0.174533,-0.0831111,-0.698047,-0.153315,-0.199905,-0.498646,-0.00337323,-0.530456,0.634292
26,65,-0.0872665,-0.698132,-0.174533,-0.174533,-0.0831111,-0.698047,-0.153315,-0.199905,-0.498646,-0.00337323,-0.530456,0.634292
26,65,-0.0872665,-0.698132,-0.174533,-0.174533,-0.0831111,-0.698047,-0.153315,-0.199905,-0.498646,-0.00337323,-0.530456,0.634292
26,65,-0.0872665,-0.698132,-0.174533,-0.174533,-0.0831111,-0.698047,-0.153315,-0.199905,-0.498646,-0.00337323,-0.530456,0.634292
26,65,-0.0872665,-0.698132,-0.174533,-0.174533,-0.0831111,-0.698098,-0.153315,-0.199905,-0.498646,-0.00133959,-0.530456,0.634292
26,65,-0.0872665,-0.698132,-0.174533,-0.174533,-0.0831111,-0.698098,-0.153315,-0.199905,-0.498646,-0.00133959,-0.530456,0.634292
26,65,-0.0872665,-0.698132,-0.174533,-0.174533,-0.0831111,-0.698098,-0.153315,-0.199905,-0.498646,-0.00133959,-0.530456,0.634292
26,65,-0.0872665,-0.698132,-0.174533,-0.174533,-0.0831111,-0.698098,-0.153315,-0.199905,-0.498646,-0.00133959,-0.530456,0.634292
26,65,-0.0872665,-0.698132,-0.174533,-0.174533,-0.0831111,-0.698098,-0.153315,-0.199905,-0.498646,-0.00133959,-0.530456,0.634292
26,65,-0.0872665,-0.698132,-0.174533,-0.174533,-0.0831111,-0.698098,-0.153315,-0.199905,-0.498646,-0.00133959,-0.530456,0.634292
26,65,-0.0872665,-0.698132,-0.174533,-0.174533,-0.0831111,-0.698098,-0.153315,-0.199905,-0.498646,-0.00133959,-0.530456,0.634292
26,65,-0.0872665,-0.698132,-0.174533,-0.174533,-0.0831111,-0.698098,-0.153315,-0.199905,-0.498646,-0.00133959,-0.530456,0.634292
26,65,-0.0872665,-0.698132,-0.174533,-0.174533,-0.0831111,-0.698098,-0.153315,-0.199905,-0.498646,-0.00133959,-0.530456,0.634292
26,65,-0.0872665,-0.698132,-0.174533,-0.174533,-0.0831111,-0.698098,-0.153315,-0.199905,-0.498646,-0.00133959,-0.530456,0.634292
26,65,-0.0872665,-0.698132,-0.174533,-0.174533,-0.0831111,-0.698098,-0.153315,-0.199905,-0.498646,-0.00133959,-0.530456,0.634292
26,65,-0.0872665,-0.698132,-0.174533,-0.174533,-0.0831111,-0.698098,-0.153315,-0.199905,-0.498646,-0.00133959,-0.530456,0.634292
26,65,-0.0872665,-0.698132,-0.174533,-0.174533,-0.0831111,-0.698098,-0.153315,-0.199905,-0.498646,-0.00133959,-0.530456,0.634292
26,65,-0.0872665,-0.698132,-0.174533,-0.174533,-0.0831111,-0.698098,-0.153315,-0.199905,-0.498646,-0.00133959,-0.530456,0.634292
26,65,-0.0872665,-0.698132,-0.174533,-0.174533,-0.0831111,-0.698098,-0.153315,-0.199905,-0.498646,-0.00133959,-0.530456,0.634292
26,65,-0.0872665,-0.698132,-0.174533,-0.174533,-0.0831111,-0.698098,-0.153315,-0.199905,-0.498646,-0.00133959,-0.530456,0.634292
26,65,-0.0872665,-0.698132,-0.174533,-0.174533,-0.0831111,-0.698098,-0.153315,-0.199905,-0.498646,-0.00133959,-0.530456,0.634292
26,65,-0.0872665,-0.698132,-0.174533,-0.174533,-0.0831111,-0.698098,-0.153376,-0.199885,-0.498646,-0.00133959,-0.528932,0.633808
26,65,-0.0872665,-0.698132,-0.174533,-0.174533,-0.0831111,-0.698098,-0.153376,-0.199885,-0.498646,-0.00133959,-0.528932,0.633808
26,65,-0.0872665,-0.698132,-0.174533,-0.174533,-0.0831111,-0.698098,-0.153376,-0.199885,-0.498646,-0.00133959,-0.528932,0.633808
26,65,-0.0872665,-0.698132,-0.174533,-0.174533,-0.0831111,-0.698098,-0.153376,-0.199885,-0.498646,-0.00133959,-0.528932,0.633808
26,65,-0.0872665,-0.698132,-0.174533,-0.174533,-0.0831111,-0.698098,-0.153376,-0.199885,-0.498646,-0.00133959,-0.528932,0.633808
26,65,-0.0872665,-0.698132,-0.174533,-0.174533,-0.0831111,-0.698098,-0.153376,-0.199885,-0.498646,-0.00133959,-0.528932,0.633808
26,65,-0.0872665,-0.698132,-0.174533,-0.174533,-0.0831111,-0.698098,-0.153376,-0.199885,-0.498646,-0.00133959,-0.528932,0.633808
26,65,-0.0872665,-0.698132,-0.174533,-0.174533,-0.0831111,-0.698098,-0.153376,-0.199885,-0.498646,-0.00133959,-0.528932,0.633808
26,65,-0.0872665,-0.698132,-0.174533,-0.174533,-0.0831111,-0.698098,-0.153376,-0.199885,-0.498646,-0.00133959,-0.528932,0.633808
26,65,-0.0872665,-0.698132,-0.174533,-0.174533,-0.0831111,-0.698098,-0.153376,-0.199885,-0.498646,-0.00133959,-0.528932,0.633808
26,65,-0.0872665,-0.698132,-0.174533,-0.174533,-0.0831111,-0.698098,-0.153376,-0.199885,-0.498646,-0.00133959,-0.528932,0.633808
26,65,-0.0872665,-0.698132,-0.174533,-0.174533,-0.0831111,-0.698098,-0.153376,-0.199885,-0.498646,-0.00133959,-0.528932,0.633808
26,65,-0.0872665,-0.698132,-0.174533,-0.174533,-0.0831111,-0.698098,-0.153376,-0.199885,-0.498646,-0.00133959,-0.528932,0.633808
26,65,-0.0872665,-0.698132,-0.174533,-0.174533,-0.0831111,-0.698098,-0.153376,-0.199885,-0.498646,-0.00133959,-0.528932,0.633808
26,65,-0.0872665,-0.698132,-0.174533,-0.174533,-0.0831111,-0.698098,-0.153376,-0.199885,-0.498646,-0.00133959,-0.528932,0.633808
26,65,-0.0872665,-0.698132,-0.174533,-0.174533,-0.0831111,-0.698098,-0.153376,-0.199885,-0.498646,-0.00133959,-0.528932,0.633808
26,65,-0.0872665,-0.698132,-0.174533,-0.174533,-0.0831111,-0.698098,-0.153376,-0.199885,-0.498646,-0.00133959,-0.528932,0.633808
26,65,-0.0872665,-0.698132,-0.174533,-0.174533,-0.0831111,-0.698098,-0.153376,-0.199885,-0.498646,-0.00133959,-0.528932,0.633808
26,65,-0.0872665,-0.698132,-0.174533,-0.174533,-0.0831111,-0.698098,-0.153376,-0.199885,-0.498646,-0.00133959,-0.528932,0.633808
26,65,-0.0872665,-0.698132,-0.174533,-0.174533,-0.0831111,-0.698098,-0.153376,-0.199885,-0.498646,-0.00133959,-0.528932,0.633808
26,65,-0.0872665,-0.698132,-0.174533,-0.174533,-0.0831111,-0.698098,-0.153376,-0.199885,-0.498646,-0.00133959,-0.528932,0.633808
26,65,-0.0872665,-0.698132,-0.174533,-0.174533,-0.0831111,-0.698098,-0.153376,-0.199885,-0.498646,-0.00133959,-0.528932,0.633808
26,65,-0.0872665,-0.698132,-0.174533,-0.174533,-0.0831111,-0.698098,-0.153376,-0.199885,-0.498646,-0.00133959,-0.528932,0.633808
26,65,-0.0872665,-0.698132,-0.174533,-0.174533,-0.0831111,-0.698098,-0.153376,-0.199885,-0.498646,-0.00133959,-0.528932,0.633808
26,65,-0.0872665,-0.698132,-0.174533,-0.174533,-0.0831111,-0.698098,-0.153376,-0.199885,-0.498646,-0.00133959,-0.528932,0.633808
26,65,-0.0872665,-0.698132,-0.174533,-0.174533,-0.0831111,-0.698098,-0.153376,-0.199885,-0.498646,-0.00133959,-0.528932,0.633808
26,65,-0.0872665,-0.698132,-0.174533,-0.174533,-0.0831111,-0.698098,-0.153376,-0.199885,-0.498646,-0.00133959,-0.528932,0.633808
26,65,-0.0872665,-0.698132,-0.174533,-0.174533,-0.0831111,-0.698098,-0.153376,-0.199885,-0.498646,-0.00133959,-0.528932,0.633808
26,65,-0.0872665,-0.698132,-0.174533,-0.174533,-0.0831111,-0.698098,-0.153376,-0.199885,-0.498646,-0.00133959,-0.528932,0.633808
26,65,-0.0872665,-0.698132,-0.174533,-0.174533,-0.0831111,-0.698098,-0.153373,-0.199826,-0.498646,-0.00133959,-0.528995,0.632327
26,65,-0.0872665,-0.698132,-0.174533,-0.174533,-0.0831111,-0.698098,-0.153373,-0.199826,-0.498646,-0.00133959,-0.528995,0.632327
26,65,-0.0872665,-0.698132,-0.174533,-0.174533,-0.0831111,-0.698098,-0.153373,-0.199826,-0.498646,-0.00133959,-0.528995,0.632327
26,65,-0.0872665,-0.698132,-0.174533,-0.174533,-0.0831111,-0.698098,-0.153373,-0.199826,-0.498646,-0.00133959,-0.528995,0.632327
26,65,-0.0872665,-0.698132,-0.174533,-0.174533,-0.0831111,-0.698098,-0.153373,-0.199826,-0.498646,-0.00133959,-0.528995,0.632327
26,65,-0.0872665,-0.698132,-0.174533,-0.174533,-0.0831111,-0.698098,-0.153373,-0.199826,-0.498646,-0.00133959,-0.528995,0.632327
26,65,-0.0872665,-0.698132,-0.174533,-0.174533,-0.0831111,-0.698098,-0.153373,-0.199826,-0.498646,-0.00133959,-0.528995,0.632327
26,65,-0.0872665,-0.698132,-0.174533,-0.174533,-0.0831111,-0.698098,-0.153434,-0.199807,-0.498646,-0.00133959,-0.527471,0.631843
26,65,-0.0872665,-0.698132,-0.174533,-0.174533,-0.0831111,-0.698098,-0.153434,-0.199807,-0.498646,-0.00133959,-0.527471,0.631843
26,65,-0.0872665,-0.698132,-0.174533,-0.174533,-0.0831111,-0.698098,-0.153434,-0.199807,-0.498646,-0.00133959,-0.527471,0.631843
26,65,-0.0872665,-0.698132,-0.174533,-0.174533,-0.0831111,-0.698098,-0.153368,-0.199765,-0.498646,-0.00133959,-0.529124,0.630797
26,65,-0.0872665,-0.698132,-0.174533,-0.174533,-0.0831111,-0.698098,-0.153368,-0.199765,-0.498646,-0.00133959,-0.529124,0.630797
26,65,-0.0872665,-0.698132,-0.174533,-0.174533,-0.0831111,-0.698098,-0.153368,-0.199765,-0.498646,-0.00133959,-0.529124,0.630797
26,65,-0.0872665,-0.698132,-0.174533,-0.174533,-0.0831111,-0.698098,-0.153368,-0.199765,-0.498646,-0.00133959,-0.529124,0.630797
26,65,-0.0872665,-0.698132,-0.174533,-0.174533,-0.0831111,-0.698098,-0.153368,-0.199765,-0.498646,-0.00133959,-0.529124,0.630797
26,65,-0.0872665,-0.698132,-0.174533,-0.174533,-0.0831111,-0.698098,-0.153429,-0.199745,-0.498646,-0.00133959,-0.527601,0.630313
26,65,-0.0872665,-0.698132,-0.174533,-0.174533,-0.0831111,-0.698098,-0.153429,-0.199745,-0.498646,-0.00133959,-0.527601,0.630313
26,65,-0.0872665,-0.698132,-0.174533,-0.174533,-0.0831111,-0.698098,-0.153429,-0.199745,-0.498646,-0.00133959,-0.527601,0.630313
26,65,-0.0872665,-0.698132,-0.174533,-0.174533,-0.0831111,-0.698098,-0.153429,-0.199745,-0.498646,-0.00133959,-0.527601,0.630313
26,65,-0.0872665,-0.698132,-0.174533,-0.174533,-0.0831111,-0.698098,-0.153429,-0.199745,-0.498646,-0.00133959,-0.527601,0.630313
26,65,-0.0872665,-0.698132,-0.174533,-0.174533,-0.0831111,-0.698098,-0.153429,-0.199745,-0.498646,-0.00133959,-0.527601,0.630313
26,65,-0.0872665,-0.698132,-0.174533,-0.174533,-0.0831111,-0.698098,-0.153429,-0.199745,-0.498646,-0.00133959,-0.527601,0.630313
26,65,-0.0872665,-0.698132,-0.174533,-0.174533,-0.0831111,-0.698098,-0.15349,-0.199726,-0.498646,-0.00133959,-0.526077,0.62983
26,65,-0.0872665,-0.698132,-0.174533,-0.174533,-0.0831111,-0.698098,-0.15349,-0.199726,-0.498646,-0.00133959,-0.526077,0.62983
26,65,-0.0872665,-0.698132,-0.174533,-0.174533,-0.0831111,-0.698098,-0.15349,-0.199726,-0.498646,-0.00133959,-0.526077,0.62983
26,65,-0.0872665,-0.698132,-0.174533,-0.174533,-0.0831111,-0.698098,-0.15349,-0.199726,-0.498646,-0.00133959,-0.526077,0.62983
26,65,-0.0872665,-0.698132,-0.174533,-0.174533,-0.0831111,-0.698098,-0.15349,-0.199726,-0.498646,-0.00133959,-0.526077,0.62983
26,65,-0.0872665,-0.698132,-0.174533,-0.174533,-0.0831111,-0.698098,-0.15349,-0.199726,-0.498646,-0.00133959,-0.526077,0.62983
26,65,-0.0872665,-0.698132,-0.174533,-0.174533,-0.0831111,-0.698098,-0.15349,-0.199726,-0.498646,-0.00133959,-0.526077,0.62983
26,65,-0.0872665,-0.698132,-0.174533,-0.174533,-0.0831111,-0.698098,-0.15349,-0.199726,-0.498646,-0.00133959,-0.526077,0.62983
26,65,-0.0872665,-0.698132,-0.174533,-0.174533,-0.0831111,-0.698098,-0.15349,-0.199726,-0.498646,-0.00133959,-0.526077,0.62983
26,65,-0.0872665,-0.698132,-0.174533,-0.174533,-0.0831111,-0.698098,-0.15349,-0.199726,-0.498646,-0.00133959,-0.526077,0.62983
26,65,-0.0872665,-0.698132,-0.174533,-0.174533,-0.0831111,-0.698098,-0.153551,-0.199707,-0.498646,-0.00133959,-0.524473,0.62932
26,65,-0.0872665,-0.698132,-0.174533,-0.174533,-0.0831111,-0.698098,-0.153551,-0.199707,-0.498646,-0.00133959,-0.524473,0.62932
26,65,-0.0872665,-0.698132,-0.174533,-0.174533,-0.0831111,-0.698098,-0.153551,-0.199707,-0.498646,-0.00133959,-0.524473,0.62932
26,65,-0.0872665,-0.698132,-0.174533,-0.174533,-0.0831111,-0.698098,-0.153551,-0.199707,-0.498646,-0.00133959,-0.524473,0.62932
26,65,-0.0872665,-0.698132,-0.174533,-0.174533,-0.0831111,-0.698098,-0.153551,-0.199707,-0.498646,-0.00133959,-0.524473,0.62932
26,65,-0.0872665,-0.698132,-0.174533,-0.174533,-0.0831111,-0.698098,-0.153551,-0.199707,-0.498646,-0.00133959,-0.524473,0.62932
26,65,-0.0872665,-0.698132,-0.174533,-0.174533,-0.0831111,-0.698098,-0.153612,-0.199687,-0.498646,-0.00133959,-0.522874,0.628813
26,65,-0.0872665,-0.698132,-0.174533,-0.174533,-0.0831111,-0.698098,-0.153612,-0.199687,-0.498646,-0.00133959,-0.522874,0.628813
26,65,-0.0872665,-0.698132,-0.174533,-0.174533,-0.0831111,-0.698098,-0.153612,-0.199687,-0.498646,-0.00133959,-0.522874,0.628813
26,65,-0.0872665,-0.698132,-0.174533,-0.174533,-0.0831111,-0.698098,-0.153612,-0.199687,-0.498646,-0.00133959,-0.522874,0.628813
26,65,-0.0872665,-0.698132,-0.174533,-0.174533,-0.0831111,-0.698098,-0.153612,-0.199687,-0.498646,-0.00133959,-0.522874,0.628813
26,65,-0.0872665,-0.698132,-0.174533,-0.174533,-0.0831111,-0.698098,-0.153612,-0.199687,-0.498646,-0.00133959,-0.522874,0.628813
26,65,-0.0872665,-0.698132,-0.174533,-0.174533,-0.0831111,-0.698098,-0.153612,-0.199687,-0.498646,-0.00133959,-0.522874,0.628813
26,65,-0.0872665,-0.698132,-0.174533,-0.174533,-0.0831111,-0.698098,-0.153673,-0.199668,-0.498646,-0.00133959,-0.521345,0.628327
