stim_pw [us],stim_amp [mA],com_elbow_fe [rad],com_forearm_ps [rad],com_wrist_fe [rad],com_wrist_ru [rad],act_elbow_fe [rad],act_forearm_ps [rad],act_wrist_fe [rad],act_wrist_ru [rad],elbow_fe_trq [Nm],forearm_ps_trq [Nm],wrist_fe_trq [Nm],wrist_ru_trq [Nm]
26,65,-0.0872665,-0.698132,-0.174533,-0.174533,-0.0869767,-0.698556,-0.160277,-0.194861,-0.0347702,0.0169632,-0.356387,0.508272
26,65,-0.0872665,-0.698132,-0.174533,-0.174533,-0.0869767,-0.698556,-0.160277,-0.194861,-0.0347702,0.0169632,-0.356387,0.508272
26,65,-0.0872665,-0.698132,-0.174533,-0.174533,-0.0869767,-0.698556,-0.160277,-0.194861,-0.0347702,0.0169632,-0.356387,0.508272
26,65,-0.0872665,-0.698132,-0.174533,-0.174533,-0.0869767,-0.698556,-0.160277,-0.194861,-0.0347702,0.0169632,-0.356387,0.508272
26,65,-0.0872665,-0.698132,-0.174533,-0.174533,-0.0869767,-0.698556,-0.160277,-0.194861,-0.0347702,0.0169632,-0.356387,0.508272
26,65,-0.0872665,-0.698132,-0.174533,-0.174533,-0.0869767,-0.698556,-0.160277,-0.194861,-0.0347702,0.0169632,-0.356387,0.508272
26,65,-0.0872665,-0.698132,-0.174533,-0.174533,-0.0869767,-0.698556,-0.160277,-0.194861,-0.0347702,0.0169632,-0.356387,0.508272
26,65,-0.0872665,-0.698132,-0.174533,-0.174533,-0.0869767,-0.698556,-0.160277,-0.194861,-0.0347702,0.0169632,-0.356387,0.508272
26,65,-0.0872665,-0.698132,-0.174533,-0.174533,-0.0869767,-0.698556,-0.160277,-0.194861,-0.0347702,0.0169632,-0.356387,0.508272
26,65,-0.0872665,-0.698132,-0.174533,-0.174533,-0.0869767,-0.698556,-0.160277,-0.194861,-0.0347702,0.0169632,-0.356387,0.508272
26,65,-0.0872665,-0.698132,-0.174533,-0.174533,-0.0869767,-0.698556,-0.160277,-0.194861,-0.0347702,0.0169632,-0.356387,0.508272
26,65,-0.0872665,-0.698132,-0.174533,-0.174533,-0.0869767,-0.698556,-0.160277,-0.194861,-0.0347702,0.0169632,-0.356387,0.508272
26,65,-0.0872665,-0.698132,-0.174533,-0.174533,-0.0869767,-0.698556,-0.160211,-0.194819,-0.0347702,0.0169632,-0.358044,0.507217
26,65,-0.0872665,-0.698132,-0.174533,-0.174533,-0.0869767,-0.698556,-0.160214,-0.194878,-0.0347702,0.0169632,-0.357975,0.508704
26,65,-0.0872665,-0.698132,-0.174533,-0.174533,-0.0869767,-0.698556,-0.160214,-0.194878,-0.0347702,0.0169632,-0.357975,0.508704
26,65,-0.0872665,-0.698132,-0.174533,-0.174533,-0.0869767,-0.698556,-0.160214,-0.194878,-0.0347702,0.0169632,-0.357975,0.508704
26,65,-0.0872665,-0.698132,-0.174533,-0.174533,-0.0869767,-0.698556,-0.160214,-0.194878,-0.0347702,0.0169632,-0.357975,0.508704
26,65,-0.0872665,-0.698132,-0.174533,-0.174533,-0.0869767,-0.698556,-0.160214,-0.194878,-0.0347702,0.0169632,-0.357975,0.508704
26,65,-0.0872665,-0.698132,-0.174533,-0.174533,-0.0869767,-0.698556,-0.160214,-0.194878,-0.0347702,0.0169632,-0.357975,0.508704
26,65,-0.0872665,-0.698132,-0.174533,-0.174533,-0.0869767,-0.698556,-0.160214,-0.194878,-0.0347702,0.0169632,-0.357975,0.508704
26,65,-0.0872665,-0.698132,-0.174533,-0.174533,-0.0869767,-0.698556,-0.160214,-0.194878,-0.0347702,0.0169632,-0.357975,0.508704
26,65,-0.0872665,-0.698132,-0.174533,-0.174533,-0.0869767,-0.698556,-0.160214,-0.194878,-0.0347702,0.0169632,-0.357975,0.508704
26,65,-0.0872665,-0.698132,-0.174533,-0.174533,-0.0869767,-0.698556,-0.160214,-0.194878,-0.0347702,0.0169632,-0.357975,0.508704
26,65,-0.0872665,-0.698132,-0.174533,-0.174533,-0.0869767,-0.698556,-0.160214,-0.194878,-0.0347702,0.0169632,-0.357975,0.508704
26,65,-0.0872665,-0.698132,-0.174533,-0.174533,-0.0869767,-0.698556,-0.160275,-0.194859,-0.0347702,0.0169632,-0.356456,0.508223
26,65,-0.0872665,-0.698132,-0.174533,-0.174533,-0.0869767,-0.698556,-0.160275,-0.194859,-0.0347702,0.0169632,-0.356456,0.508223
26,65,-0.0872665,-0.698132,-0.174533,-0.174533,-0.0869767,-0.698556,-0.160275,-0.194859,-0.0347702,0.0169632,-0.356456,0.508223
26,65,-0.0872665,-0.698132,-0.174533,-0.174533,-0.0869767,-0.698556,-0.160275,-0.194859,-0.0347702,0.0169632,-0.356456,0.508223
26,65,-0.0872665,-0.698132,-0.174533,-0.174533,-0.0869767,-0.698556,-0.160275,-0.194859,-0.0347702,0.0169632,-0.356456,0.508223
26,65,-0.0872665,-0.698132,-0.174533,-0.174533,-0.0869767,-0.698556,-0.160275,-0.194859,-0.0347702,0.0169632,-0.356456,0.508223
26,65,-0.0872665,-0.698132,-0.174533,-0.174533,-0.0869767,-0.698556,-0.160275,-0.194859,-0.0347702,0.0169632,-0.356456,0.508223
26,65,-0.0872665,-0.698132,-0.174533,-0.174533,-0.0869767,-0.698556,-0.160275,-0.194859,-0.0347702,0.0169632,-0.356456,0.508223
26,65,-0.0872665,-0.698132,-0.174533,-0.174533,-0.0869767,-0.698556,-0.160275,-0.194859,-0.0347702,0.0169632,-0.356456,0.508223
26,65,-0.0872665,-0.698132,-0.174533,-0.174533,-0.0869767,-0.698556,-0.160275,-0.194859,-0.0347702,0.0169632,-0.356456,0.508223
26,65,-0.0872665,-0.698132,-0.174533,-0.174533,-0.0869767,-0.698556,-0.160338,-0.194899,-0.0347702,0.0169632,-0.354868,0.509221
26,65,-0.0872665,-0.698132,-0.174533,-0.174533,-0.0869767,-0.698556,-0.160338,-0.194899,-0.0347702,0.0169632,-0.354868,0.509221
26,65,-0.0872665,-0.698132,-0.174533,-0.174533,-0.0869767,-0.698556,-0.160338,-0.194899,-0.0347702,0.0169632,-0.354868,0.509221
26,65,-0.0872665,-0.698132,-0.174533,-0.174533,-0.0869767,-0.698556,-0.160338,-0.194899,-0.0347702,0.0169632,-0.354868,0.509221
26,65,-0.0872665,-0.698132,-0.174533,-0.174533,-0.0869767,-0.698556,-0.160338,-0.194899,-0.0347702,0.0169632,-0.354868,0.509221
26,65,-0.0872665,-0.698132,-0.174533,-0.174533,-0.0869767,-0.698556,-0.160338,-0.194899,-0.0347702,0.0169632,-0.354868,0.509221
26,65,-0.0872665,-0.698132,-0.174533,-0.174533,-0.0869767,-0.698556,-0.160338,-0.194899,-0.0347702,0.0169632,-0.354868,0.509221
26,65,-0.0872665,-0.698132,-0.174533,-0.174533,-0.0869767,-0.698556,-0.160333,-0.194838,-0.0347702,0.0169632,-0.354929,0.50766
26,65,-0.0872665,-0.698132,-0.174533,-0.174533,-0.0869767,-0.698556,-0.160333,-0.194838,-0.0347702,0.0169632,-0.354929,0.50766
26,65,-0.0872665,-0.698132,-0.174533,-0.174533,-0.0869767,-0.698556,-0.160333,-0.194838,-0.0347702,0.0169632,-0.354929,0.50766
26,65,-0.0872665,-0.698132,-0.174533,-0.174533,-0.0869767,-0.698556,-0.160333,-0.194838,-0.0347702,0.0169632,-0.354929,0.50766
26,65,-0.0872665,-0.698132,-0.174533,-0.174533,-0.0869767,-0.698556,-0.160333,-0.194838,-0.0347702,0.0169632,-0.354929,0.50766
26,65,-0.0872665,-0.698132,-0.174533,-0.174533,-0.0869767,-0.698556,-0.160333,-0.194838,-0.0347702,0.0169632,-0.354929,0.50766
26,65,-0.0872665,-0.698132,-0.174533,-0.174533,-0.0869767,-0.698556,-0.160333,-0.194838,-0.0347702,0.0169632,-0.354929,0.50766
26,65,-0.0872665,-0.698132,-0.174533,-0.174533,-0.0869767,-0.698556,-0.160393,-0.194819,-0.0347702,0.0169632,-0.353394,0.507174
26,65,-0.0872665,-0.698132,-0.174533,-0.174533,-0.0869767,-0.698556,-0.160393,-0.194819,-0.0347702,0.0169632,-0.353394,0.507174
26,65,-0.0872665,-0.698132,-0.174533,-0.174533,-0.0869767,-0.698556,-0.160393,-0.194819,-0.0347702,0.0169632,-0.353394,0.507174
26,65,-0.0872665,-0.698132,-0.174533,-0.174533,-0.0869767,-0.698556,-0.160393,-0.194819,-0.0347702,0.0169632,-0.353394,0.507174
26,65,-0.0872665,-0.698132,-0.174533,-0.174533,-0.0869767,-0.698556,-0.160454,-0.194799,-0.0347702,0.0169632,-0.351798,0.506669
26,65,-0.0872665,-0.698132,-0.174533,-0.174533,-0.0869767,-0.698556,-0.160457,-0.194859,-0.0347702,0.0169632,-0.351728,0.508151
26,65,-0.0872665,-0.698132,-0.174533,-0.174533,-0.0869767,-0.698556,-0.160457,-0.194859,-0.0347702,0.0169632,-0.351728,0.508151
26,65,-0.0872665,-0.698132,-0.174533,-0.174533,-0.0869767,-0.698556,-0.160391,-0.194817,-0.0347702,0.0169632,-0.353385,0.507096
26,65,-0.0872665,-0.698132,-0.174533,-0.174533,-0.0869767,-0.698556,-0.160451,-0.194797,-0.0347702,0.0169632,-0.351815,0.506599
26,65,-0.0872665,-0.698132,-0.174533,-0.174533,-0.0869767,-0.698556,-0.160451,-0.194797,-0.0347702,0.0169632,-0.351815,0.506599
26,65,-0.0872665,-0.698132,-0.174533,-0.174533,-0.0869767,-0.698556,-0.160451,-0.194797,-0.0347702,0.0169632,-0.351815,0.506599
26,65,-0.0872665,-0.698132,-0.174533,-0.174533,-0.0869767,-0.698556,-0.160451,-0.194797,-0.0347702,0.0169632,-0.351815,0.506599
26,65,-0.0872665,-0.698132,-0.174533,-0.174533,-0.0869767,-0.698556,-0.160451,-0.194797,-0.0347702,0.0169632,-0.351815,0.506599
26,65,-0.0872665,-0.698132,-0.174533,-0.174533,-0.0869767,-0.698556,-0.160451,-0.194797,-0.0347702,0.0169632,-0.351815,0.506599
26,65,-0.0872665,-0.698132,-0.174533,-0.174533,-0.0869767,-0.698556,-0.160512,-0.194778,-0.0347702,0.0169632,-0.35029,0.506116
26,65,-0.0872665,-0.698132,-0.174533,-0.174533,-0.0869767,-0.698556,-0.160512,-0.194778,-0.0347702,0.0169632,-0.35029,0.506116
26,65,-0.0872665,-0.698132,-0.174533,-0.174533,-0.0869767,-0.698556,-0.160512,-0.194778,-0.0347702,0.0169632,-0.35029,0.506116
26,65,-0.0872665,-0.698132,-0.174533,-0.174533,-0.0869767,-0.698556,-0.160512,-0.194778,-0.0347702,0.0169632,-0.35029,0.506116
26,65,-0.0872665,-0.698132,-0.174533,-0.174533,-0.0869767,-0.698556,-0.160512,-0.194778,-0.0347702,0.0169632,-0.35029,0.506116
26,65,-0.0872665,-0.698132,-0.174533,-0.174533,-0.0869767,-0.698556,-0.160512,-0.194778,-0.0347702,0.0169632,-0.35029,0.506116
26,65,-0.0872665,-0.698132,-0.174533,-0.174533,-0.0869767,-0.698556,-0.160512,-0.194778,-0.0347702,0.0169632,-0.35029,0.506116
26,65,-0.0872665,-0.698132,-0.174533,-0.174533,-0.0869767,-0.698556,-0.160512,-0.194778,-0.0347702,0.0169632,-0.35029,0.506116
26,65,-0.0872665,-0.698132,-0.174533,-0.174533,-0.0869767,-0.698556,-0.160446,-0.194736,-0.0347702,0.0169632,-0.352016,0.505017
26,65,-0.0872665,-0.698132,-0.174533,-0.174533,-0.0869767,-0.698556,-0.160446,-0.194736,-0.0347702,0.0169632,-0.352016,0.505017
26,65,-0.0872665,-0.698132,-0.174533,-0.174533,-0.0869767,-0.698556,-0.160446,-0.194736,-0.0347702,0.0169632,-0.352016,0.505017
26,65,-0.0872665,-0.698132,-0.174533,-0.174533,-0.0869767,-0.698556,-0.160446,-0.194736,-0.0347702,0.0169632,-0.352016,0.505017
26,65,-0.0872665,-0.698132,-0.174533,-0.174533,-0.0869767,-0.698556,-0.160446,-0.194736,-0.0347702,0.0169632,-0.352016,0.505017
26,65,-0.0872665,-0.698132,-0.174533,-0.174533,-0.0869767,-0.698556,-0.160446,-0.194736,-0.0347702,0.0169632,-0.352016,0.505017
26,65,-0.0872665,-0.698132,-0.174533,-0.174533,-0.0869767,-0.698556,-0.160448,-0.194795,-0.0347702,0.0169632,-0.351946,0.506503
26,65,-0.0872665,-0.698132,-0.174533,-0.174533,-0.0869767,-0.698556,-0.160448,-0.194795,-0.0347702,0.0169632,-0.351946,0.506503
26,65,-0.0872665,-0.698132,-0.174533,-0.174533,-0.0869767,-0.698556,-0.160448,-0.194795,-0.0347702,0.0169632,-0.351946,0.506503
26,65,-0.0872665,-0.698132,-0.174533,-0.174533,-0.0869767,-0.698556,-0.160448,-0.194795,-0.0347702,0.0169632,-0.351946,0.506503
26,65,-0.0872665,-0.698132,-0.174533,-0.174533,-0.0869767,-0.698556,-0.160448,-0.194795,-0.0347702,0.0169632,-0.351946,0.506503
26,65,-0.0872665,-0.698132,-0.174533,-0.174533,-0.0869767,-0.698556,-0.160382,-0.194753,-0.0347702,0.0169632,-0.35361,0.505444
26,65,-0.0872665,-0.698132,-0.174533,-0.174533,-0.0869767,-0.698556,-0.160382,-0.194753,-0.0347702,0.0169632,-0.35361,0.505444
26,65,-0.0872665,-0.698132,-0.174533,-0.174533,-0.0869767,-0.698556,-0.160382,-0.194753,-0.0347702,0.0169632,-0.353614,0.505445
26,65,-0.0872665,-0.698132,-0.174533,-0.174533,-0.0869767,-0.698556,-0.160382,-0.194753,-0.0347702,0.0169632,-0.353624,0.505448
26,65,-0.0872665,-0.698132,-0.174533,-0.174533,-0.0869767,-0.698556,-0.160382,-0.194753,-0.0347702,0.0169632,-0.353633,0.505451
26,65,-0.0872665,-0.698132,-0.174533,-0.174533,-0.0869767,-0.698556,-0.160382,-0.194753,-0.0347702,0.0169632,-0.353642,0.505454
26,65,-0.0872665,-0.698132,-0.174533,-0.174533,-0.0869767,-0.698556,-0.160382,-0.194753,-0.0347702,0.0169632,-0.353649,0.505456
26,65,-0.0872665,-0.698132,-0.174533,-0.174533,-0.0869767,-0.698556,-0.160382,-0.194753,-0.0347702,0.0169632,-0.353657,0.505459
26,65,-0.0872665,-0.698132,-0.174533,-0.174533,-0.0869767,-0.698556,-0.160382,-0.194753,-0.0347702,0.0169632,-0.353664,0.505461
26,65,-0.0872665,-0.698132,-0.174533,-0.174533,-0.0869767,-0.698556,-0.160316,-0.194711,-0.0347702,0.0169632,-0.355358,0.504388
26,65,-0.0872665,-0.698132,-0.174533,-0.174533,-0.0869767,-0.698556,-0.160316,-0.194711,-0.0347702,0.0169632,-0.355364,0.504389
26,65,-0.0872665,-0.698132,-0.174533,-0.174533,-0.0869767,-0.698556,-0.160316,-0.194711,-0.0347702,0.0169632,-0.35537,0.504391
26,65,-0.0872665,-0.698132,-0.174533,-0.174533,-0.0869767,-0.698556,-0.160316,-0.194711,-0.0347702,0.0169632,-0.355374,0.504393
26,65,-0.0872665,-0.698132,-0.174533,-0.174533,-0.0869767,-0.698556,-0.160316,-0.194711,-0.0347702,0.0169632,-0.35538,0.504394
26,65,-0.0872665,-0.698132,-0.174533,-0.174533,-0.0869767,-0.698556,-0.160316,-0.194711,-0.0347702,0.0169632,-0.355384,0.504396
26,65,-0.0872665,-0.698132,-0.174533,-0.174533,-0.0869767,-0.698556,-0.16025,-0.194669,-0.0347702,0.0169632,-0.357067,0.503328
26,65,-0.0872665,-0.698132,-0.174533,-0.174533,-0.0869767,-0.698556,-0.16025,-0.194669,-0.0347702,0.0169632,-0.357072,0.503329
26,65,-0.0872665,-0.698132,-0.174533,-0.174533,-0.0869767,-0.698556,-0.16025,-0.194669,-0.0347702,0.0169632,-0.357075,0.503331
26,65,-0.0872665,-0.698132,-0.174533,-0.174533,-0.0869767,-0.698556,-0.16025,-0.194669,-0.0347702,0.0169632,-0.357079,0.503332
26,65,-0.0872665,-0.698132,-0.174533,-0.174533,-0.0869767,-0.698556,-0.16025,-0.194669,-0.0347702,0.0169632,-0.357082,0.503333
26,65,-0.0872665,-0.698132,-0.174533,-0.174533,-0.0869767,-0.698556,-0.16025,-0.194669,-0.0347702,0.0169632,-0.357086,0.503334
26,65,-0.0872665,-0.698132,-0.174533,-0.174533,-0.0869767,-0.698556,-0.16025,-0.194669,-0.0347702,0.0169632,-0.357089,0.503335
26,65,-0.0872665,-0.698132,-0.174533,-0.174533,-0.0869767,-0.698556,-0.16025,-0.194669,-0.0347702,0.0169632,-0.357091,0.503336
26,65,-0.0872665,-0.698132,-0.174533,-0.174533,-0.0869767,-0.698556,-0.16025,-0.194669,-0.0347702,0.0169632,-0.357094,0.503337
26,65,-0.0872665,-0.698132,-0.174533,-0.174533,-0.0869767,-0.698556,-0.16025,-0.194669,-0.0347702,0.0169632,-0.357097,0.503338
26,65,-0.0872665,-0.698132,-0.174533,-0.174533,-0.0869767,-0.698556,-0.16025,-0.194669,-0.0347702,0.0169632,-0.357099,0.503338
26,65,-0.0872665,-0.698132,-0.174533,-0.174533,-0.0869767,-0.698556,-0.160244,-0.194607,-0.0347702,0.0169632,-0.357275,0.501805
26,65,-0.0872665,-0.698132,-0.174533,-0.174533,-0.0869767,-0.698556,-0.160244,-0.194607,-0.0347702,0.0169632,-0.357275,0.501805
26,65,-0.0872665,-0.698132,-0.174533,-0.174533,-0.0869767,-0.698556,-0.160244,-0.194607,-0.0347702,0.0169632,-0.357275,0.501805
26,65,-0.0872665,-0.698132,-0.174533,-0.174533,-0.0869767,-0.698556,-0.160247,-0.194667,-0.0347702,0.0169632,-0.357209,0.503231
26,65,-0.0872665,-0.698132,-0.174533,-0.174533,-0.0869767,-0.698556,-0.160247,-0.194667,-0.0347702,0.0169632,-0.357209,0.503231
26,65,-0.0872665,-0.698132,-0.174533,-0.174533,-0.0869767,-0.698556,-0.160247,-0.194667,-0.0347702,0.0169632,-0.357209,0.503231
26,65,-0.0872665,-0.698132,-0.174533,-0.174533,-0.0869767,-0.698556,-0.160247,-0.194667,-0.0347702,0.0169632,-0.357209,0.503231
26,65,-0.0872665,-0.698132,-0.174533,-0.174533,-0.0869767,-0.698556,-0.160247,-0.194667,-0.0347702,0.0169632,-0.357209,0.503231
26,65,-0.0872665,-0.698132,-0.174533,-0.174533,-0.0869767,-0.698556,-0.160247,-0.194667,-0.0347702,0.0169632,-0.357209,0.503231
26,65,-0.0872665,-0.698132,-0.174533,-0.174533,-0.0869767,-0.698556,-0.160247,-0.194667,-0.0347702,0.0169632,-0.357209,0.503231
26,65,-0.0872665,-0.698132,-0.174533,-0.174533,-0.0869767,-0.698556,-0.160247,-0.194667,-0.0347702,0.0169632,-0.357209,0.503231
26,65,-0.0872665,-0.698132,-0.174533,-0.174533,-0.0869767,-0.698556,-0.160247,-0.194667,-0.0347702,0.0169632,-0.357209,0.503231
26,65,-0.0872665,-0.698132,-0.174533,-0.174533,-0.0869767,-0.698556,-0.160247,-0.194667,-0.0347702,0.0169632,-0.357209,0.503231
26,65,-0.0872665,-0.698132,-0.174533,-0.174533,-0.0869767,-0.698556,-0.160181,-0.194625,-0.0347702,0.0169632,-0.358861,0.502178
26,65,-0.0872665,-0.698132,-0.174533,-0.174533,-0.0869767,-0.698556,-0.160181,-0.194625,-0.0347702,0.0169632,-0.358861,0.502178
26,65,-0.0872665,-0.698132,-0.174533,-0.174533,-0.0869767,-0.698556,-0.160181,-0.194625,-0.0347702,0.0169632,-0.358861,0.502178
26,65,-0.0872665,-0.698132,-0.174533,-0.174533,-0.0869767,-0.698556,-0.160181,-0.194625,-0.0347702,0.0169632,-0.358861,0.502178
26,65,-0.0872665,-0.698132,-0.174533,-0.174533,-0.0869767,-0.698556,-0.160181,-0.194625,-0.0347702,0.0169632,-0.358861,0.502178
26,65,-0.0872665,-0.698132,-0.174533,-0.174533,-0.0869767,-0.698556,-0.160181,-0.194625,-0.0347702,0.0169632,-0.358861,0.502178
26,65,-0.0872665,-0.698132,-0.174533,-0.174533,-0.0869767,-0.698556,-0.160181,-0.194625,-0.0347702,0.0169632,-0.358861,0.502178
26,65,-0.0872665,-0.698132,-0.174533,-0.174533,-0.0869767,-0.698556,-0.160181,-0.194625,-0.0347702,0.0169632,-0.358861,0.502178
26,65,-0.0872665,-0.698132,-0.174533,-0.174533,-0.0869767,-0.698556,-0.160181,-0.194625,-0.0347702,0.0169632,-0.358861,0.502178
26,65,-0.0872665,-0.698132,-0.174533,-0.174533,-0.0869767,-0.698556,-0.160181,-0.194625,-0.0347702,0.0169632,-0.358861,0.502178
26,65,-0.0872665,-0.698132,-0.174533,-0.174533,-0.0869767,-0.698556,-0.160181,-0.194625,-0.0347702,0.0169632,-0.358861,0.502178
26,65,-0.0872665,-0.698132,-0.174533,-0.174533,-0.0869767,-0.698556,-0.160181,-0.194625,-0.0347702,0.0169632,-0.358861,0.502178
26,65,-0.0872665,-0.698132,-0.174533,-0.174533,-0.0869767,-0.698556,-0.160181,-0.194625,-0.0347702,0.0169632,-0.358861,0.502178
26,65,-0.0872665,-0.698132,-0.174533,-0.174533,-0.0869767,-0.698556,-0.160181,-0.194625,-0.0347702,0.0169632,-0.358861,0.502178
26,65,-0.0872665,-0.698132,-0.174533,-0.174533,-0.0869767,-0.698556,-0.160181,-0.194625,-0.0347702,0.0169632,-0.358861,0.502178
26,65,-0.0872665,-0.698132,-0.174533,-0.174533,-0.0869767,-0.698556,-0.160181,-0.194625,-0.0347702,0.0169632,-0.358861,0.502178
26,65,-0.0872665,-0.698132,-0.174533,-0.174533,-0.0869767,-0.698556,-0.160181,-0.194625,-0.0347702,0.0169632,-0.358861,0.502178
26,65,-0.0872665,-0.698132,-0.174533,-0.174533,-0.0869767,-0.698556,-0.160181,-0.194625,-0.0347702,0.0169632,-0.358861,0.502178
26,65,-0.0872665,-0.698132,-0.174533,-0.174533,-0.0869767,-0.698556,-0.160181,-0.194625,-0.0347702,0.0169632,-0.358861,0.502178
26,65,-0.0872665,-0.698132,-0.174533,-0.174533,-0.0869767,-0.698556,-0.160114,-0.194582,-0.0347702,0.0169632,-0.360488,0.501143
26,65,-0.0872665,-0.698132,-0.174533,-0.174533,-0.0869767,-0.698556,-0.160114,-0.194582,-0.0347702,0.0169632,-0.360488,0.501143
26,65,-0.0872665,-0.698132,-0.174533,-0.174533,-0.0869767,-0.698556,-0.160114,-0.194582,-0.0347702,0.0169632,-0.360488,0.501143
26,65,-0.0872665,-0.698132,-0.174533,-0.174533,-0.0869767,-0.698556,-0.160114,-0.194582,-0.0347702,0.0169632,-0.360488,0.501143
26,65,-0.0872665,-0.698132,-0.174533,-0.174533,-0.0869767,-0.698556,-0.160114,-0.194582,-0.0347702,0.0169632,-0.360488,0.501143
26,65,-0.0872665,-0.698132,-0.174533,-0.174533,-0.0869767,-0.698556,-0.160114,-0.194582,-0.0347702,0.0169632,-0.360488,0.501143
26,65,-0.0872665,-0.698132,-0.174533,-0.174533,-0.0869767,-0.698556,-0.160114,-0.194582,-0.0347702,0.0169632,-0.360488,0.501143
26,65,-0.0872665,-0.698132,-0.174533,-0.174533,-0.0869767,-0.698556,-0.160114,-0.194582,-0.0347702,0.0169632,-0.360488,0.501143
26,65,-0.0872665,-0.698132,-0.174533,-0.174533,-0.0869767,-0.698556,-0.160114,-0.194582,-0.0347702,0.0169632,-0.360488,0.501143
26,65,-0.0872665,-0.698132,-0.174533,-0.174533,-0.0869767,-0.698556,-0.160114,-0.194582,-0.0347702,0.0169632,-0.360488,0.501143
26,65,-0.0872665,-0.698132,-0.174533,-0.174533,-0.0869767,-0.698556,-0.160114,-0.194582,-0.0347702,0.0169632,-0.360488,0.501143
26,65,-0.0872665,-0.698132,-0.174533,-0.174533,-0.0869767,-0.698556,-0.160114,-0.194582,-0.0347702,0.0169632,-0.360488,0.501143
26,65,-0.0872665,-0.698132,-0.174533,-0.174533,-0.0869767,-0.698556,-0.160114,-0.194582,-0.0347702,0.0169632,-0.360488,0.501143
26,65,-0.0872665,-0.698132,-0.174533,-0.174533,-0.0869767,-0.698556,-0.160114,-0.194582,-0.0347702,0.0169632,-0.360488,0.501143
26,65,-0.0872665,-0.698132,-0.174533,-0.174533,-0.0869767,-0.698556,-0.160048,-0.19454,-0.0347702,0.0169632,-0.36213,0.500098
26,65,-0.0872665,-0.698132,-0.174533,-0.174533,-0.0869767,-0.698556,-0.160048,-0.19454,-0.0347702,0.0169632,-0.36213,0.500098
26,65,-0.0872665,-0.698132,-0.174533,-0.174533,-0.0869767,-0.698556,-0.160051,-0.1946,-0.0347702,0.0169632,-0.36206,0.501583
26,65,-0.0872665,-0.698132,-0.174533,-0.174533,-0.0869767,-0.698556,-0.160051,-0.1946,-0.0347702,0.0169632,-0.36206,0.501583
26,65,-0.0872665,-0.698132,-0.174533,-0.174533,-0.0869767,-0.698556,-0.160051,-0.1946,-0.0347702,0.0169632,-0.36206,0.501583
26,65,-0.0872665,-0.698132,-0.174533,-0.174533,-0.0869767,-0.698556,-0.160051,-0.1946,-0.0347702,0.0169632,-0.36206,0.501583
26,65,-0.0872665,-0.698132,-0.174533,-0.174533,-0.0869767,-0.698556,-0.160051,-0.1946,-0.0347702,0.0169632,-0.36206,0.501583
26,65,-0.0872665,-0.698132,-0.174533,-0.174533,-0.0869767,-0.698556,-0.160051,-0.1946,-0.0347702,0.0169632,-0.36206,0.501583
26,65,-0.0872665,-0.698132,-0.174533,-0.174533,-0.0869767,-0.698556,-0.160051,-0.1946,-0.0347702,0.0169632,-0.36206,0.501583
26,65,-0.0872665,-0.698132,-0.174533,-0.174533,-0.0869767,-0.698556,-0.160051,-0.1946,-0.0347702,0.0169632,-0.36206,0.501583
26,65,-0.0872665,-0.698132,-0.174533,-0.174533,-0.0869767,-0.698556,-0.160051,-0.1946,-0.0347702,0.0169632,-0.36206,0.501583
26,65,-0.0872665,-0.698132,-0.174533,-0.174533,-0.0869767,-0.698556,-0.160051,-0.1946,-0.0347702,0.0169632,-0.36206,0.501583
26,65,-0.0872665,-0.698132,-0.174533,-0.174533,-0.0869767,-0.698556,-0.160051,-0.1946,-0.0347702,0.0169632,-0.36206,0.501583
26,65,-0.0872665,-0.698132,-0.174533,-0.174533,-0.0869767,-0.698556,-0.160051,-0.1946,-0.0347702,0.0169632,-0.36206,0.501583
26,65,-0.0872665,-0.698132,-0.174533,-0.174533,-0.0869767,-0.698556,-0.160051,-0.1946,-0.0347702,0.0169632,-0.362062,0.501583
26,65,-0.0872665,-0.698132,-0.174533,-0.174533,-0.0869767,-0.698556,-0.160051,-0.1946,-0.0347702,0.0169632,-0.362063,0.501584
26,65,-0.0872665,-0.698132,-0.174533,-0.174533,-0.0869767,-0.698556,-0.160051,-0.1946,-0.0347702,0.0169632,-0.362064,0.501584
26,65,-0.0872665,-0.698132,-0.174533,-0.174533,-0.0869767,-0.698556,-0.160051,-0.1946,-0.0347702,0.0169632,-0.362065,0.501585
26,65,-0.0872665,-0.698132,-0.174533,-0.174533,-0.0869767,-0.698556,-0.160051,-0.1946,-0.0347702,0.0169632,-0.362066,0.501585
26,65,-0.0872665,-0.698132,-0.174533,-0.174533,-0.0869767,-0.698556,-0.160051,-0.1946,-0.0347702,0.0169632,-0.362068,0.501585
26,65,-0.0872665,-0.698132,-0.174533,-0.174533,-0.0869767,-0.698556,-0.160051,-0.1946,-0.0347702,0.0169632,-0.362069,0.501586
26,65,-0.0872665,-0.698132,-0.174533,-0.174533,-0.0869767,-0.698556,-0.160051,-0.1946,-0.0347702,0.0169632,-0.36207,0.501586
26,65,-0.0872665,-0.698132,-0.174533,-0.174533,-0.0869767,-0.698556,-0.160051,-0.1946,-0.0347702,0.0169632,-0.362071,0.501586
26,65,-0.0872665,-0.698132,-0.174533,-0.174533,-0.0869767,-0.698556,-0.160051,-0.1946,-0.0347702,0.0169632,-0.362072,0.501587
26,65,-0.0872665,-0.698132,-0.174533,-0.174533,-0.0869767,-0.698556,-0.160051,-0.1946,-0.0347702,0.0169632,-0.362073,0.501587
26,65,-0.0872665,-0.698132,-0.174533,-0.174533,-0.0869767,-0.698556,-0.160051,-0.1946,-0.0347702,0.0169632,-0.362074,0.501587
26,65,-0.0872665,-0.698132,-0.174533,-0.174533,-0.0869767,-0.698556,-0.160051,-0.1946,-0.0347702,0.0169632,-0.362075,0.501588
26,65,-0.0872665,-0.698132,-0.174533,-0.174533,-0.0869767,-0.698556,-0.160051,-0.1946,-0.0347702,0.0169632,-0.362076,0.501588
26,65,-0.0872665,-0.698132,-0.174533,-0.174533,-0.0869767,-0.698556,-0.160051,-0.1946,-0.0347702,0.0169632,-0.362077,0.501588
26,65,-0.0872665,-0.698132,-0.174533,-0.174533,-0.0869767,-0.698556,-0.159985,-0.194557,-0.0347702,0.0169632,-0.363711,0.500548
26,65,-0.0872665,-0.698132,-0.174533,-0.174533,-0.0869767,-0.698556,-0.159985,-0.194557,-0.0347702,0.0169632,-0.363712,0.500549
26,65,-0.0872665,-0.698132,-0.174533,-0.174533,-0.0869767,-0.698556,-0.159985,-0.194557,-0.0347702,0.0169632,-0.363713,0.500549
26,65,-0.0872665,-0.698132,-0.174533,-0.174533,-0.0869767,-0.698556,-0.159985,-0.194557,-0.0347702,0.0169632,-0.363714,0.500549
26,65,-0.0872665,-0.698132,-0.174533,-0.174533,-0.0869767,-0.698556,-0.159985,-0.194557,-0.0347702,0.0169632,-0.363715,0.500549
26,65,-0.0872665,-0.698132,-0.174533,-0.174533,-0.0869767,-0.698556,-0.159985,-0.194557,-0.0347702,0.0169632,-0.363715,0.50055
26,65,-0.0872665,-0.698132,-0.174533,-0.174533,-0.0869767,-0.698556,-0.159985,-0.194557,-0.0347702,0.0169632,-0.363716,0.50055
26,65,-0.0872665,-0.698132,-0.174533,-0.174533,-0.0869767,-0.698556,-0.159985,-0.194557,-0.0347702,0.0169632,-0.363717,0.50055
26,65,-0.0872665,-0.698132,-0.174533,-0.174533,-0.0869767,-0.698556,-0.159985,-0.194557,-0.0347702,0.0169632,-0.363718,0.50055
26,65,-0.0872665,-0.698132,-0.174533,-0.174533,-0.0869767,-0.698556,-0.159985,-0.194557,-0.0347702,0.0169632,-0.363718,0.500551
26,65,-0.0872665,-0.698132,-0.174533,-0.174533,-0.0869767,-0.698556,-0.159985,-0.194557,-0.0347702,0.0169632,-0.363776,0.500569
26,65,-0.0872665,-0.698132,-0.174533,-0.174533,-0.0869767,-0.698556,-0.159985,-0.194557,-0.0347702,0.0169632,-0.363776,0.500569
26,65,-0.0872665,-0.698132,-0.174533,-0.174533,-0.0869767,-0.698556,-0.159985,-0.194557,-0.0347702,0.0169632,-0.363776,0.500569
26,65,-0.0872665,-0.698132,-0.174533,-0.174533,-0.0869767,-0.698556,-0.159985,-0.194557,-0.0347702,0.0169632,-0.363776,0.500569
26,65,-0.0872665,-0.698132,-0.174533,-0.174533,-0.0869767,-0.698556,-0.159985,-0.194557,-0.0347702,0.0169632,-0.363776,0.500569
26,65,-0.0872665,-0.698132,-0.174533,-0.174533,-0.0869767,-0.698556,-0.159985,-0.194557,-0.0347702,0.0169632,-0.363776,0.500569
26,65,-0.0872665,-0.698132,-0.174533,-0.174533,-0.0869767,-0.698556,-0.159985,-0.194557,-0.0347702,0.0169632,-0.363776,0.500569
26,65,-0.0872665,-0.698132,-0.174533,-0.174533,-0.0869767,-0.698556,-0.159985,-0.194557,-0.0347702,0.0169632,-0.363776,0.500569
26,65,-0.0872665,-0.698132,-0.174533,-0.174533,-0.0869767,-0.698556,-0.159985,-0.194557,-0.0347702,0.0169632,-0.363776,0.500569
26,65,-0.0872665,-0.698132,-0.174533,-0.174533,-0.0869767,-0.698556,-0.159985,-0.194557,-0.0347702,0.0169632,-0.363776,0.500569
26,65,-0.0872665,-0.698132,-0.174533,-0.174533,-0.0869767,-0.698556,-0.159985,-0.194557,-0.0347702,0.0169632,-0.363776,0.500569
26,65,-0.0872665,-0.698132,-0.174533,-0.174533,-0.0869767,-0.698556,-0.159985,-0.194557,-0.0347702,0.0169632,-0.363776,0.500569
26,65,-0.0872665,-0.698132,-0.174533,-0.174533,-0.0869767,-0.698556,-0.159985,-0.194557,-0.0347702,0.0169632,-0.363776,0.500569
26,65,-0.0872665,-0.698132,-0.174533,-0.174533,-0.0869767,-0.698556,-0.159985,-0.194557,-0.0347702,0.0169632,-0.363776,0.500569
26,65,-0.0872665,-0.698132,-0.174533,-0.174533,-0.0869767,-0.698556,-0.159985,-0.194557,-0.0347702,0.0169632,-0.363776,0.500569
26,65,-0.0872665,-0.698132,-0.174533,-0.174533,-0.0869767,-0.698556,-0.159985,-0.194557,-0.0347702,0.0169632,-0.363776,0.500569
26,65,-0.0872665,-0.698132,-0.174533,-0.174533,-0.0869767,-0.698556,-0.159985,-0.194557,-0.0347702,0.0169632,-0.363776,0.500569
26,65,-0.0872665,-0.698132,-0.174533,-0.174533,-0.0869767,-0.698556,-0.159985,-0.194557,-0.0347702,0.0169632,-0.363776,0.500569
26,65,-0.0872665,-0.698132,-0.174533,-0.174533,-0.0869767,-0.698556,-0.159985,-0.194557,-0.0347702,0.0169632,-0.363776,0.500569
26,65,-0.0872665,-0.698132,-0.174533,-0.174533,-0.0869767,-0.698556,-0.159985,-0.194557,-0.0347702,0.0169632,-0.363776,0.500569
26,65,-0.0872665,-0.698132,-0.174533,-0.174533,-0.0869767,-0.698556,-0.159985,-0.194557,-0.0347702,0.0169632,-0.363776,0.500569
26,65,-0.0872665,-0.698132,-0.174533,-0.174533,-0.0869767,-0.698556,-0.159985,-0.194557,-0.0347702,0.0169632,-0.363776,0.500569
26,65,-0.0872665,-0.698132,-0.174533,-0.174533,-0.0869767,-0.698556,-0.159985,-0.194557,-0.0347702,0.0169632,-0.363776,0.500569
26,65,-0.0872665,-0.698132,-0.174533,-0.174533,-0.0869767,-0.698556,-0.159985,-0.194557,-0.0347702,0.0169632,-0.363776,0.500569
26,65,-0.0872665,-0.698132,-0.174533,-0.174533,-0.0869767,-0.698556,-0.159985,-0.194557,-0.0347702,0.0169632,-0.363776,0.500569
26,65,-0.0872665,-0.698132,-0.174533,-0.174533,-0.0869767,-0.698556,-0.159985,-0.194557,-0.0347702,0.0169632,-0.363776,0.500569
26,65,-0.0872665,-0.698132,-0.174533,-0.174533,-0.0869767,-0.698556,-0.159985,-0.194557,-0.0347702,0.0169632,-0.363776,0.500569
26,65,-0.0872665,-0.698132,-0.174533,-0.174533,-0.0869767,-0.698556,-0.159985,-0.194557,-0.0347702,0.0169632,-0.363776,0.500569
26,65,-0.0872665,-0.698132,-0.174533,-0.174533,-0.0869767,-0.698556,-0.159985,-0.194557,-0.0347702,0.0169632,-0.363776,0.500569
26,65,-0.0872665,-0.698132,-0.174533,-0.174533,-0.0869767,-0.698556,-0.159985,-0.194557,-0.0347702,0.0169632,-0.363776,0.500569
26,65,-0.0872665,-0.698132,-0.174533,-0.174533,-0.0869767,-0.698556,-0.159919,-0.194515,-0.0347702,0.0169632,-0.36536,0.49956
26,65,-0.0872665,-0.698132,-0.174533,-0.174533,-0.0869767,-0.698556,-0.159919,-0.194515,-0.0347702,0.0169632,-0.36536,0.49956
26,65,-0.0872665,-0.698132,-0.174533,-0.174533,-0.0869767,-0.698556,-0.159919,-0.194515,-0.0347702,0.0169632,-0.36536,0.49956
26,65,-0.0872665,-0.698132,-0.174533,-0.174533,-0.0869767,-0.698556,-0.159919,-0.194515,-0.0347702,0.0169632,-0.36536,0.49956
26,65,-0.0872665,-0.698132,-0.174533,-0.174533,-0.0869767,-0.698556,-0.159919,-0.194515,-0.0347702,0.0169632,-0.36536,0.49956
26,65,-0.0872665,-0.698132,-0.174533,-0.174533,-0.0869767,-0.698556,-0.159919,-0.194515,-0.0347702,0.0169632,-0.36536,0.49956
26,65,-0.0872665,-0.698132,-0.174533,-0.174533,-0.0869767,-0.698556,-0.159919,-0.194515,-0.0347702,0.0169632,-0.36536,0.49956
26,65,-0.0872665,-0.698132,-0.174533,-0.174533,-0.0869767,-0.698556,-0.159919,-0.194515,-0.0347702,0.0169632,-0.36536,0.49956
26,65,-0.0872665,-0.698132,-0.174533,-0.174533,-0.0869767,-0.698556,-0.159919,-0.194515,-0.0347702,0.0169632,-0.36536,0.49956
26,65,-0.0872665,-0.698132,-0.174533,-0.174533,-0.0869767,-0.698556,-0.159919,-0.194515,-0.0347702,0.0169632,-0.36536,0.49956
26,65,-0.0872665,-0.698132,-0.174533,-0.174533,-0.0869767,-0.698556,-0.159919,-0.194515,-0.0347702,0.0169632,-0.36536,0.49956
26,65,-0.0872665,-0.698132,-0.174533,-0.174533,-0.0869767,-0.698556,-0.159919,-0.194515,-0.0347702,0.0169632,-0.36536,0.49956
26,65,-0.0872665,-0.698132,-0.174533,-0.174533,-0.0869767,-0.698556,-0.159919,-0.194515,-0.0347702,0.0169632,-0.36536,0.49956
26,65,-0.0872665,-0.698132,-0.174533,-0.174533,-0.0869767,-0.698556,-0.159919,-0.194515,-0.0347702,0.0169632,-0.36536,0.49956
26,65,-0.0872665,-0.698132,-0.174533,-0.174533,-0.0869767,-0.698556,-0.159919,-0.194515,-0.0347702,0.0169632,-0.36536,0.49956
26,65,-0.0872665,-0.698132,-0.174533,-0.174533,-0.0869767,-0.698556,-0.159919,-0.194515,-0.0347702,0.0169632,-0.36536,0.49956
26,65,-0.0872665,-0.698132,-0.174533,-0.174533,-0.0869767,-0.698556,-0.159919,-0.194515,-0.0347702,0.0169632,-0.36536,0.49956
26,65,-0.0872665,-0.698132,-0.174533,-0.174533,-0.0869767,-0.698556,-0.159919,-0.194515,-0.0347702,0.0169632,-0.36536,0.49956
26,65,-0.0872665,-0.698132,-0.174533,-0.174533,-0.0869767,-0.698556,-0.159919,-0.194515,-0.0347702,0.0169632,-0.36536,0.49956
26,65,-0.0872665,-0.698132,-0.174533,-0.174533,-0.0869767,-0.698556,-0.159919,-0.194515,-0.0347702,0.0169632,-0.36536,0.49956
26,65,-0.0872665,-0.698132,-0.174533,-0.174533,-0.0869767,-0.698556,-0.159852,-0.194473,-0.0347702,0.0169632,-0.367016,0.498506
26,65,-0.0872665,-0.698132,-0.174533,-0.174533,-0.0869767,-0.698556,-0.159852,-0.194473,-0.0347702,0.0169632,-0.367016,0.498506
26,65,-0.0872665,-0.698132,-0.174533,-0.174533,-0.0869767,-0.698556,-0.159852,-0.194473,-0.0347702,0.0169632,-0.367016,0.498506
26,65,-0.0872665,-0.698132,-0.174533,-0.174533,-0.0869767,-0.698556,-0.159852,-0.194473,-0.0347702,0.0169632,-0.367016,0.498506
26,65,-0.0872665,-0.698132,-0.174533,-0.174533,-0.0869767,-0.698556,-0.159852,-0.194473,-0.0347702,0.0169632,-0.367016,0.498506
26,65,-0.0872665,-0.698132,-0.174533,-0.174533,-0.0869767,-0.698556,-0.159852,-0.194473,-0.0347702,0.0169632,-0.367016,0.498506
26,65,-0.0872665,-0.698132,-0.174533,-0.174533,-0.0869767,-0.698556,-0.159852,-0.194473,-0.0347702,0.0169632,-0.367016,0.498506
26,65,-0.0872665,-0.698132,-0.174533,-0.174533,-0.0869767,-0.698556,-0.159852,-0.194473,-0.0347702,0.0169632,-0.367016,0.498506
26,65,-0.0872665,-0.698132,-0.174533,-0.174533,-0.0869767,-0.698556,-0.159852,-0.194473,-0.0347702,0.0169632,-0.367016,0.498506
26,65,-0.0872665,-0.698132,-0.174533,-0.174533,-0.0869767,-0.698556,-0.159852,-0.194473,-0.0347702,0.0169632,-0.367016,0.498506
26,65,-0.0872665,-0.698132,-0.174533,-0.174533,-0.0869767,-0.698556,-0.159852,-0.194473,-0.0347702,0.0169632,-0.367016,0.498506
26,65,-0.0872665,-0.698132,-0.174533,-0.174533,-0.0869767,-0.698556,-0.159852,-0.194473,-0.0347702,0.0169632,-0.367016,0.498506
26,65,-0.0872665,-0.698132,-0.174533,-0.174533,-0.0869767,-0.698556,-0.159852,-0.194473,-0.0347702,0.0169632,-0.367016,0.498506
26,65,-0.0872665,-0.698132,-0.174533,-0.174533,-0.0869767,-0.698556,-0.159852,-0.194473,-0.0347702,0.0169632,-0.367016,0.498506
26,65,-0.0872665,-0.698132,-0.174533,-0.174533,-0.0869767,-0.698556,-0.159852,-0.194473,-0.0347702,0.0169632,-0.367016,0.498506
26,65,-0.0872665,-0.698132,-0.174533,-0.174533,-0.0869767,-0.698556,-0.159852,-0.194473,-0.0347702,0.0169632,-0.367016,0.498506
26,65,-0.0872665,-0.698132,-0.174533,-0.174533,-0.0869767,-0.698556,-0.159852,-0.194473,-0.0347702,0.0169632,-0.367016,0.498506
26,65,-0.0872665,-0.698132,-0.174533,-0.174533,-0.0869767,-0.698556,-0.159852,-0.194473,-0.0347702,0.0169632,-0.367016,0.498506
26,65,-0.0872665,-0.698132,-0.174533,-0.174533,-0.0869767,-0.698556,-0.159852,-0.194473,-0.0347702,0.0169632,-0.367016,0.498506
26,65,-0.0872665,-0.698132,-0.174533,-0.174533,-0.0869767,-0.698556,-0.159852,-0.194473,-0.0347702,0.0169632,-0.367016,0.498506
26,65,-0.0872665,-0.698132,-0.174533,-0.174533,-0.0869767,-0.698556,-0.159852,-0.194473,-0.0347702,0.0169632,-0.367016,0.498506
26,65,-0.0872665,-0.698132,-0.174533,-0.174533,-0.0869767,-0.698556,-0.159786,-0.194431,-0.0347702,0.0169632,-0.368671,0.497452
26,65,-0.0872665,-0.698132,-0.174533,-0.174533,-0.0869767,-0.698556,-0.159786,-0.194431,-0.0347702,0.0169632,-0.368671,0.497452
26,65,-0.0872665,-0.698132,-0.174533,-0.174533,-0.0869767,-0.698556,-0.159786,-0.194431,-0.0347702,0.0169632,-0.368671,0.497452
26,65,-0.0872665,-0.698132,-0.174533,-0.174533,-0.0869767,-0.698556,-0.159786,-0.194431,-0.0347702,0.0169632,-0.368671,0.497452
26,65,-0.0872665,-0.698132,-0.174533,-0.174533,-0.0869767,-0.698556,-0.159789,-0.19449,-0.0347702,0.0169632,-0.368602,0.498938
26,65,-0.0872665,-0.698132,-0.174533,-0.174533,-0.0869767,-0.698556,-0.159789,-0.19449,-0.0347702,0.0169632,-0.368602,0.498938
26,65,-0.0872665,-0.698132,-0.174533,-0.174533,-0.0869767,-0.698556,-0.159789,-0.19449,-0.0347702,0.0169632,-0.368602,0.498938
26,65,-0.0872665,-0.698132,-0.174533,-0.174533,-0.0869767,-0.698556,-0.159789,-0.19449,-0.0347702,0.0169632,-0.368602,0.498938
26,65,-0.0872665,-0.698132,-0.174533,-0.174533,-0.0869767,-0.698556,-0.159789,-0.19449,-0.0347702,0.0169632,-0.368602,0.498938
26,65,-0.0872665,-0.698132,-0.174533,-0.174533,-0.0869767,-0.698556,-0.159789,-0.19449,-0.0347702,0.0169632,-0.368602,0.498938
26,65,-0.0872665,-0.698132,-0.174533,-0.174533,-0.0869767,-0.698556,-0.159789,-0.19449,-0.0347702,0.0169632,-0.368602,0.498938
26,65,-0.0872665,-0.698132,-0.174533,-0.174533,-0.0869767,-0.698556,-0.159789,-0.19449,-0.0347702,0.0169632,-0.368602,0.498938
26,65,-0.0872665,-0.698132,-0.174533,-0.174533,-0.0869767,-0.698556,-0.159789,-0.19449,-0.0347702,0.0169632,-0.368602,0.498938
26,65,-0.0872665,-0.698132,-0.174533,-0.174533,-0.0869767,-0.698556,-0.159789,-0.19449,-0.0347702,0.0169632,-0.368602,0.498938
26,65,-0.0872665,-0.698132,-0.174533,-0.174533,-0.0869767,-0.698556,-0.159789,-0.19449,-0.0347702,0.0169632,-0.368602,0.498938
26,65,-0.0872665,-0.698132,-0.174533,-0.174533,-0.0869767,-0.698556,-0.159789,-0.19449,-0.0347702,0.0169632,-0.368602,0.498938
26,65,-0.0872665,-0.698132,-0.174533,-0.174533,-0.0869767,-0.698556,-0.159723,-0.194448,-0.0347702,0.0169632,-0.370257,0.497884
26,65,-0.0872665,-0.698132,-0.174533,-0.174533,-0.0869767,-0.698556,-0.159723,-0.194448,-0.0347702,0.0169632,-0.370257,0.497884
26,65,-0.0872665,-0.698132,-0.174533,-0.174533,-0.0869767,-0.698556,-0.159723,-0.194448,-0.0347702,0.0169632,-0.370257,0.497884
26,65,-0.0872665,-0.698132,-0.174533,-0.174533,-0.0869767,-0.698556,-0.159723,-0.194448,-0.0347702,0.0169632,-0.370257,0.497884
26,65,-0.0872665,-0.698132,-0.174533,-0.174533,-0.0869767,-0.698556,-0.159723,-0.194448,-0.0347702,0.0169632,-0.370257,0.497884
26,65,-0.0872665,-0.698132,-0.174533,-0.174533,-0.0869767,-0.698556,-0.159723,-0.194448,-0.0347702,0.0169632,-0.370257,0.497884
26,65,-0.0872665,-0.698132,-0.174533,-0.174533,-0.0869767,-0.698556,-0.159723,-0.194448,-0.0347702,0.0169632,-0.370257,0.497884
26,65,-0.0872665,-0.698132,-0.174533,-0.174533,-0.0869767,-0.698556,-0.159723,-0.194448,-0.0347702,0.0169632,-0.370257,0.497884
26,65,-0.0872665,-0.698132,-0.174533,-0.174533,-0.0869767,-0.698556,-0.159723,-0.194448,-0.0347702,0.0169632,-0.370257,0.497884
26,65,-0.0872665,-0.698132,-0.174533,-0.174533,-0.0869767,-0.698556,-0.159723,-0.194448,-0.0347702,0.0169632,-0.370257,0.497884
26,65,-0.0872665,-0.698132,-0.174533,-0.174533,-0.0869767,-0.698556,-0.159723,-0.194448,-0.0347702,0.0169632,-0.370257,0.497884
26,65,-0.0872665,-0.698132,-0.174533,-0.174533,-0.0869767,-0.698556,-0.159723,-0.194448,-0.0347702,0.0169632,-0.370257,0.497884
26,65,-0.0872665,-0.698132,-0.174533,-0.174533,-0.0869767,-0.698556,-0.159723,-0.194448,-0.0347702,0.0169632,-0.370257,0.497884
26,65,-0.0872665,-0.698132,-0.174533,-0.174533,-0.0869767,-0.698556,-0.159723,-0.194448,-0.0347702,0.0169632,-0.370257,0.497884
26,65,-0.0872665,-0.698132,-0.174533,-0.174533,-0.0869767,-0.698556,-0.159723,-0.194448,-0.0347702,0.0169632,-0.370257,0.497884
26,65,-0.0872665,-0.698132,-0.174533,-0.174533,-0.0869767,-0.698556,-0.159723,-0.194448,-0.0347702,0.0169632,-0.370257,0.497884
26,65,-0.0872665,-0.698132,-0.174533,-0.174533,-0.0869767,-0.698556,-0.159725,-0.194508,-0.0347702,0.0169632,-0.370189,0.499369
26,65,-0.0872665,-0.698132,-0.174533,-0.174533,-0.0869767,-0.698556,-0.159725,-0.194508,-0.0347702,0.0169632,-0.370189,0.499369
26,65,-0.0872665,-0.698132,-0.174533,-0.174533,-0.0869767,-0.698556,-0.159725,-0.194508,-0.0347702,0.0169632,-0.370189,0.499369
26,65,-0.0872665,-0.698132,-0.174533,-0.174533,-0.0869767,-0.698556,-0.159725,-0.194508,-0.0347702,0.0169632,-0.370189,0.499369
26,65,-0.0872665,-0.698132,-0.174533,-0.174533,-0.0869767,-0.698556,-0.159725,-0.194508,-0.0347702,0.0169632,-0.370189,0.499369
26,65,-0.0872665,-0.698132,-0.174533,-0.174533,-0.0869767,-0.698556,-0.159725,-0.194508,-0.0347702,0.0169632,-0.370189,0.499369
26,65,-0.0872665,-0.698132,-0.174533,-0.174533,-0.0869767,-0.698556,-0.159725,-0.194508,-0.0347702,0.0169632,-0.370189,0.499369
26,65,-0.0872665,-0.698132,-0.174533,-0.174533,-0.0869767,-0.698556,-0.159725,-0.194508,-0.0347702,0.0169632,-0.370189,0.499369
26,65,-0.0872665,-0.698132,-0.174533,-0.174533,-0.0869767,-0.698556,-0.159725,-0.194508,-0.0347702,0.0169632,-0.370189,0.499369
26,65,-0.0872665,-0.698132,-0.174533,-0.174533,-0.0869767,-0.698556,-0.159725,-0.194508,-0.0347702,0.0169632,-0.370189,0.499369
26,65,-0.0872665,-0.698132,-0.174533,-0.174533,-0.0869767,-0.698556,-0.159725,-0.194508,-0.0347702,0.0169632,-0.370189,0.499369
26,65,-0.0872665,-0.698132,-0.174533,-0.174533,-0.0869767,-0.698556,-0.159725,-0.194508,-0.0347702,0.0169632,-0.370189,0.499369
26,65,-0.0872665,-0.698132,-0.174533,-0.174533,-0.0869767,-0.698556,-0.159725,-0.194508,-0.0347702,0.0169632,-0.370189,0.499369
26,65,-0.0872665,-0.698132,-0.174533,-0.174533,-0.0869767,-0.698556,-0.159725,-0.194508,-0.0347702,0.0169632,-0.370189,0.499369
26,65,-0.0872665,-0.698132,-0.174533,-0.174533,-0.0869767,-0.698556,-0.159725,-0.194508,-0.0347702,0.0169632,-0.370189,0.499369
26,65,-0.0872665,-0.698132,-0.174533,-0.174533,-0.0869767,-0.698556,-0.159725,-0.194508,-0.0347702,0.0169632,-0.370189,0.499369
26,65,-0.0872665,-0.698132,-0.174533,-0.174533,-0.0869767,-0.698556,-0.159725,-0.194508,-0.0347702,0.0169632,-0.370189,0.499369
26,65,-0.0872665,-0.698132,-0.174533,-0.174533,-0.0869767,-0.698556,-0.159725,-0.194508,-0.0347702,0.0169632,-0.370189,0.499369
26,65,-0.0872665,-0.698132,-0.174533,-0.174533,-0.0869767,-0.698556,-0.159725,-0.194508,-0.0347702,0.0169632,-0.370189,0.499369
26,65,-0.0872665,-0.698132,-0.174533,-0.174533,-0.0869767,-0.698556,-0.159725,-0.194508,-0.0347702,0.0169632,-0.370189,0.499369
26,65,-0.0872665,-0.698132,-0.174533,-0.174533,-0.0869767,-0.698556,-0.159725,-0.194508,-0.0347702,0.0169632,-0.370189,0.499369
26,65,-0.0872665,-0.698132,-0.174533,-0.174533,-0.0869767,-0.698556,-0.159725,-0.194508,-0.0347702,0.0169632,-0.370189,0.499369
26,65,-0.0872665,-0.698132,-0.174533,-0.174533,-0.0869767,-0.698556,-0.159725,-0.194508,-0.0347702,0.0169632,-0.370189,0.499369
26,65,-0.0872665,-0.698132,-0.174533,-0.174533,-0.0869767,-0.698556,-0.159725,-0.194508,-0.0347702,0.0169632,-0.370189,0.499369
26,65,-0.0872665,-0.698132,-0.174533,-0.174533,-0.0869767,-0.698556,-0.159725,-0.194508,-0.0347702,0.0169632,-0.370189,0.499369
26,65,-0.0872665,-0.698132,-0.174533,-0.174533,-0.0869767,-0.698556,-0.159725,-0.194508,-0.0347702,0.0169632,-0.370189,0.499369
26,65,-0.0872665,-0.698132,-0.174533,-0.174533,-0.0869767,-0.698556,-0.159725,-0.194508,-0.0347702,0.0169632,-0.370189,0.499369
26,65,-0.0872665,-0.698132,-0.174533,-0.174533,-0.0869767,-0.698556,-0.159725,-0.194508,-0.0347702,0.0169632,-0.370189,0.499369
26,65,-0.0872665,-0.698132,-0.174533,-0.174533,-0.0869767,-0.698556,-0.159725,-0.194508,-0.0347702,0.0169632,-0.370189,0.499369
26,65,-0.0872665,-0.698132,-0.174533,-0.174533,-0.0869767,-0.698556,-0.159725,-0.194508,-0.0347702,0.0169632,-0.370189,0.499369
26,65,-0.0872665,-0.698132,-0.174533,-0.174533,-0.0869767,-0.698556,-0.159725,-0.194508,-0.0347702,0.0169632,-0.370189,0.499369
26,65,-0.0872665,-0.698132,-0.174533,-0.174533,-0.0869767,-0.698556,-0.159725,-0.194508,-0.0347702,0.0169632,-0.370189,0.499369
26,65,-0.0872665,-0.698132,-0.174533,-0.174533,-0.0869767,-0.698556,-0.159725,-0.194508,-0.0347702,0.0169632,-0.370189,0.499369
26,65,-0.0872665,-0.698132,-0.174533,-0.174533,-0.0869767,-0.698556,-0.159725,-0.194508,-0.0347702,0.0169632,-0.370189,0.499369
26,65,-0.0872665,-0.698132,-0.174533,-0.174533,-0.0869767,-0.698556,-0.159725,-0.194508,-0.0347702,0.0169632,-0.370189,0.499369
26,65,-0.0872665,-0.698132,-0.174533,-0.174533,-0.0869767,-0.698556,-0.159725,-0.194508,-0.0347702,0.0169632,-0.370189,0.499369
26,65,-0.0872665,-0.698132,-0.174533,-0.174533,-0.0869767,-0.698556,-0.159725,-0.194508,-0.0347702,0.0169632,-0.370189,0.499369
26,65,-0.0872665,-0.698132,-0.174533,-0.174533,-0.0869767,-0.698556,-0.159725,-0.194508,-0.0347702,0.0169632,-0.370189,0.499369
26,65,-0.0872665,-0.698132,-0.174533,-0.174533,-0.0869767,-0.698556,-0.159725,-0.194508,-0.0347702,0.0169632,-0.370189,0.499369
26,65,-0.0872665,-0.698132,-0.174533,-0.174533,-0.0869767,-0.698556,-0.159725,-0.194508,-0.0347702,0.0169632,-0.370189,0.499369
26,65,-0.0872665,-0.698132,-0.174533,-0.174533,-0.0869767,-0.698556,-0.159725,-0.194508,-0.0347702,0.0169632,-0.370189,0.499369
26,65,-0.0872665,-0.698132,-0.174533,-0.174533,-0.0869767,-0.698556,-0.159728,-0.194567,-0.0347702,0.0169632,-0.37012,0.500855
26,65,-0.0872665,-0.698132,-0.174533,-0.174533,-0.0869767,-0.698556,-0.159728,-0.194567,-0.0347702,0.0169632,-0.37012,0.500855
26,65,-0.0872665,-0.698132,-0.174533,-0.174533,-0.0869767,-0.698556,-0.159728,-0.194567,-0.0347702,0.0169632,-0.37012,0.500855
26,65,-0.0872665,-0.698132,-0.174533,-0.174533,-0.0869767,-0.698556,-0.159728,-0.194567,-0.0347702,0.0169632,-0.37012,0.500855
26,65,-0.0872665,-0.698132,-0.174533,-0.174533,-0.0869767,-0.698556,-0.159728,-0.194567,-0.0347702,0.0169632,-0.37012,0.500855
26,65,-0.0872665,-0.698132,-0.174533,-0.174533,-0.0869767,-0.698556,-0.159728,-0.194567,-0.0347702,0.0169632,-0.37012,0.500855
26,65,-0.0872665,-0.698132,-0.174533,-0.174533,-0.0869767,-0.698556,-0.159728,-0.194567,-0.0347702,0.0169632,-0.37012,0.500855
26,65,-0.0872665,-0.698132,-0.174533,-0.174533,-0.0869767,-0.698556,-0.159728,-0.194567,-0.0347702,0.0169632,-0.37012,0.500855
26,65,-0.0872665,-0.698132,-0.174533,-0.174533,-0.0869767,-0.698556,-0.159728,-0.194567,-0.0347702,0.0169632,-0.37012,0.500855
26,65,-0.0872665,-0.698132,-0.174533,-0.174533,-0.0869767,-0.698556,-0.159728,-0.194567,-0.0347702,0.0169632,-0.37012,0.500855
26,65,-0.0872665,-0.698132,-0.174533,-0.174533,-0.0869767,-0.698556,-0.159728,-0.194567,-0.0347702,0.0169632,-0.37012,0.500855
26,65,-0.0872665,-0.698132,-0.174533,-0.174533,-0.0869767,-0.698556,-0.159789,-0.194548,-0.0347702,0.0169632,-0.368602,0.500373
26,65,-0.0872665,-0.698132,-0.174533,-0.174533,-0.0869767,-0.698556,-0.159789,-0.194548,-0.0347702,0.0169632,-0.368602,0.500373
26,65,-0.0872665,-0.698132,-0.174533,-0.174533,-0.0869767,-0.698556,-0.159789,-0.194548,-0.0347702,0.0169632,-0.368602,0.500373
26,65,-0.0872665,-0.698132,-0.174533,-0.174533,-0.0869767,-0.698556,-0.159789,-0.194548,-0.0347702,0.0169632,-0.368602,0.500373
26,65,-0.0872665,-0.698132,-0.174533,-0.174533,-0.0869767,-0.698556,-0.159789,-0.194548,-0.0347702,0.0169632,-0.368602,0.500373
26,65,-0.0872665,-0.698132,-0.174533,-0.174533,-0.0869767,-0.698556,-0.159789,-0.194548,-0.0347702,0.0169632,-0.368602,0.500373
26,65,-0.0872665,-0.698132,-0.174533,-0.174533,-0.0869767,-0.698556,-0.159789,-0.194548,-0.0347702,0.0169632,-0.368602,0.500373
26,65,-0.0872665,-0.698132,-0.174533,-0.174533,-0.0869767,-0.698556,-0.159789,-0.194548,-0.0347702,0.0169632,-0.368602,0.500373
26,65,-0.0872665,-0.698132,-0.174533,-0.174533,-0.0869767,-0.698556,-0.159789,-0.194548,-0.0347702,0.0169632,-0.368602,0.500373
26,65,-0.0872665,-0.698132,-0.174533,-0.174533,-0.0869767,-0.698556,-0.159789,-0.194548,-0.0347702,0.0169632,-0.368602,0.500373
26,65,-0.0872665,-0.698132,-0.174533,-0.174533,-0.0869767,-0.698556,-0.159789,-0.194548,-0.0347702,0.0169632,-0.368602,0.500373
26,65,-0.0872665,-0.698132,-0.174533,-0.174533,-0.0869767,-0.698556,-0.159789,-0.194548,-0.0347702,0.0169632,-0.368602,0.500373
26,65,-0.0872665,-0.698132,-0.174533,-0.174533,-0.0869767,-0.698556,-0.159723,-0.194506,-0.0347702,0.0169632,-0.370257,0.499319
26,65,-0.0872665,-0.698132,-0.174533,-0.174533,-0.0869767,-0.698556,-0.159723,-0.194506,-0.0347702,0.0169632,-0.370257,0.499319
26,65,-0.0872665,-0.698132,-0.174533,-0.174533,-0.0869767,-0.698556,-0.159723,-0.194506,-0.0347702,0.0169632,-0.370257,0.499319
26,65,-0.0872665,-0.698132,-0.174533,-0.174533,-0.0869767,-0.698556,-0.159723,-0.194506,-0.0347702,0.0169632,-0.370257,0.499319
26,65,-0.0872665,-0.698132,-0.174533,-0.174533,-0.0869767,-0.698556,-0.159723,-0.194506,-0.0347702,0.0169632,-0.370257,0.499319
26,65,-0.0872665,-0.698132,-0.174533,-0.174533,-0.0869767,-0.698556,-0.159723,-0.194506,-0.0347702,0.0169632,-0.370257,0.499319
26,65,-0.0872665,-0.698132,-0.174533,-0.174533,-0.0869767,-0.698556,-0.159723,-0.194506,-0.0347702,0.0169632,-0.370257,0.499319
26,65,-0.0872665,-0.698132,-0.174533,-0.174533,-0.0869767,-0.698556,-0.159723,-0.194506,-0.0347702,0.0169632,-0.370257,0.499319
26,65,-0.0872665,-0.698132,-0.174533,-0.174533,-0.0869767,-0.698556,-0.159723,-0.194506,-0.0347702,0.0169632,-0.370257,0.499319
26,65,-0.0872665,-0.698132,-0.174533,-0.174533,-0.0869767,-0.698556,-0.159723,-0.194506,-0.0347702,0.0169632,-0.370257,0.499319
26,65,-0.0872665,-0.698132,-0.174533,-0.174533,-0.0869767,-0.698556,-0.159723,-0.194506,-0.0347702,0.0169632,-0.370257,0.499319
26,65,-0.0872665,-0.698132,-0.174533,-0.174533,-0.0869767,-0.698556,-0.159723,-0.194506,-0.0347702,0.0169632,-0.370257,0.499319
26,65,-0.0872665,-0.698132,-0.174533,-0.174533,-0.0869767,-0.698556,-0.159723,-0.194506,-0.0347702,0.0169632,-0.370257,0.499319
26,65,-0.0872665,-0.698132,-0.174533,-0.174533,-0.0869767,-0.698556,-0.159723,-0.194506,-0.0347702,0.0169632,-0.370257,0.499319
26,65,-0.0872665,-0.698132,-0.174533,-0.174533,-0.0869767,-0.698556,-0.159723,-0.194506,-0.0347702,0.0169632,-0.370257,0.499319
26,65,-0.0872665,-0.698132,-0.174533,-0.174533,-0.0869767,-0.698556,-0.159723,-0.194506,-0.0347702,0.0169632,-0.370257,0.499319
26,65,-0.0872665,-0.698132,-0.174533,-0.174533,-0.0869767,-0.698556,-0.159723,-0.194506,-0.0347702,0.0169632,-0.370257,0.499319
26,65,-0.0872665,-0.698132,-0.174533,-0.174533,-0.0869767,-0.698556,-0.159723,-0.194506,-0.0347702,0.0169632,-0.370257,0.499319
26,65,-0.0872665,-0.698132,-0.174533,-0.174533,-0.0869767,-0.698556,-0.159723,-0.194506,-0.0347702,0.0169632,-0.370257,0.499319
26,65,-0.0872665,-0.698132,-0.174533,-0.174533,-0.0869767,-0.698556,-0.159723,-0.194506,-0.0347702,0.0169632,-0.370257,0.499319
26,65,-0.0872665,-0.698132,-0.174533,-0.174533,-0.0869767,-0.698556,-0.159723,-0.194506,-0.0347702,0.0169632,-0.370257,0.499319
26,65,-0.0872665,-0.698132,-0.174533,-0.174533,-0.0869767,-0.698556,-0.159723,-0.194506,-0.0347702,0.0169632,-0.370257,0.499319
26,65,-0.0872665,-0.698132,-0.174533,-0.174533,-0.0869767,-0.698556,-0.159723,-0.194506,-0.0347702,0.0169632,-0.370257,0.499319
26,65,-0.0872665,-0.698132,-0.174533,-0.174533,-0.0869767,-0.698556,-0.159723,-0.194506,-0.0347702,0.0169632,-0.370257,0.499319
26,65,-0.0872665,-0.698132,-0.174533,-0.174533,-0.0869767,-0.698556,-0.159723,-0.194506,-0.0347702,0.0169632,-0.370257,0.499319
26,65,-0.0872665,-0.698132,-0.174533,-0.174533,-0.0869767,-0.698556,-0.159723,-0.194506,-0.0347702,0.0169632,-0.370257,0.499319
26,65,-0.0872665,-0.698132,-0.174533,-0.174533,-0.0869767,-0.698556,-0.159723,-0.194506,-0.0347702,0.0169632,-0.370257,0.499319
26,65,-0.0872665,-0.698132,-0.174533,-0.174533,-0.0869767,-0.698556,-0.159723,-0.194506,-0.0347702,0.0169632,-0.370257,0.499319
26,65,-0.0872665,-0.698132,-0.174533,-0.174533,-0.0869767,-0.698556,-0.159723,-0.194506,-0.0347702,0.0169632,-0.370257,0.499319
26,65,-0.0872665,-0.698132,-0.174533,-0.174533,-0.0869767,-0.698556,-0.159656,-0.194464,-0.0347702,0.0169632,-0.371912,0.498266
26,65,-0.0872665,-0.698132,-0.174533,-0.174533,-0.0869767,-0.698556,-0.159656,-0.194464,-0.0347702,0.0169632,-0.371912,0.498266
26,65,-0.0872665,-0.698132,-0.174533,-0.174533,-0.0869767,-0.698556,-0.159656,-0.194464,-0.0347702,0.0169632,-0.371912,0.498266
26,65,-0.0872665,-0.698132,-0.174533,-0.174533,-0.0869767,-0.698556,-0.159656,-0.194464,-0.0347702,0.0169632,-0.371912,0.498266
26,65,-0.0872665,-0.698132,-0.174533,-0.174533,-0.0869767,-0.698556,-0.159656,-0.194464,-0.0347702,0.0169632,-0.371912,0.498266
26,65,-0.0872665,-0.698132,-0.174533,-0.174533,-0.0869767,-0.698556,-0.159656,-0.194464,-0.0347702,0.0169632,-0.371912,0.498266
26,65,-0.0872665,-0.698132,-0.174533,-0.174533,-0.0869767,-0.698556,-0.159656,-0.194464,-0.0347702,0.0169632,-0.371912,0.498266
26,65,-0.0872665,-0.698132,-0.174533,-0.174533,-0.0869767,-0.698556,-0.159656,-0.194464,-0.0347702,0.0169632,-0.371912,0.498266
26,65,-0.0872665,-0.698132,-0.174533,-0.174533,-0.0869767,-0.698556,-0.159656,-0.194464,-0.0347702,0.0169632,-0.371912,0.498266
26,65,-0.0872665,-0.698132,-0.174533,-0.174533,-0.0869767,-0.698556,-0.15959,-0.194421,-0.0347702,0.0169632,-0.373567,0.497212
26,65,-0.0872665,-0.698132,-0.174533,-0.174533,-0.0869767,-0.698556,-0.15959,-0.194421,-0.0347702,0.0169632,-0.373567,0.497212
26,65,-0.0872665,-0.698132,-0.174533,-0.174533,-0.0869767,-0.698556,-0.15959,-0.194421,-0.0347702,0.0169632,-0.373567,0.497212
26,65,-0.0872665,-0.698132,-0.174533,-0.174533,-0.0869767,-0.698556,-0.15959,-0.194421,-0.0347702,0.0169632,-0.373567,0.497212
26,65,-0.0872665,-0.698132,-0.174533,-0.174533,-0.0869767,-0.698556,-0.15959,-0.194421,-0.0347702,0.0169632,-0.373567,0.497212
26,65,-0.0872665,-0.698132,-0.174533,-0.174533,-0.0869767,-0.698556,-0.15959,-0.194421,-0.0347702,0.0169632,-0.373567,0.497212
26,65,-0.0872665,-0.698132,-0.174533,-0.174533,-0.0869767,-0.698556,-0.15959,-0.194421,-0.0347702,0.0169632,-0.373567,0.497212
26,65,-0.0872665,-0.698132,-0.174533,-0.174533,-0.0869767,-0.698556,-0.15959,-0.194421,-0.0347702,0.0169632,-0.373567,0.497212
26,65,-0.0872665,-0.698132,-0.174533,-0.174533,-0.0869767,-0.698556,-0.15959,-0.194421,-0.0347702,0.0169632,-0.373567,0.497212
26,65,-0.0872665,-0.698132,-0.174533,-0.174533,-0.0869767,-0.698556,-0.15959,-0.194421,-0.0347702,0.0169632,-0.373567,0.497212
26,65,-0.0872665,-0.698132,-0.174533,-0.174533,-0.0869767,-0.698556,-0.15959,-0.194421,-0.0347702,0.0169632,-0.373567,0.497212
26,65,-0.0872665,-0.698132,-0.174533,-0.174533,-0.0869767,-0.698556,-0.15959,-0.194421,-0.0347702,0.0169632,-0.373567,0.497212
26,65,-0.0872665,-0.698132,-0.174533,-0.174533,-0.0869767,-0.698556,-0.15959,-0.194421,-0.0347702,0.0169632,-0.373567,0.497212
26,65,-0.0872665,-0.698132,-0.174533,-0.174533,-0.0869767,-0.698556,-0.15959,-0.194421,-0.0347702,0.0169632,-0.373567,0.497212
26,65,-0.0872665,-0.698132,-0.174533,-0.174533,-0.0869767,-0.698556,-0.15959,-0.194421,-0.0347702,0.0169632,-0.373567,0.497212
26,65,-0.0872665,-0.698132,-0.174533,-0.174533,-0.0869767,-0.698556,-0.15959,-0.194421,-0.0347702,0.0169632,-0.373567,0.497212
26,65,-0.0872665,-0.698132,-0.174533,-0.174533,-0.0869767,-0.698556,-0.15959,-0.194421,-0.0347702,0.0169632,-0.373567,0.497212
26,65,-0.0872665,-0.698132,-0.174533,-0.174533,-0.0869767,-0.698556,-0.15959,-0.194421,-0.0347702,0.0169632,-0.373567,0.497212
26,65,-0.0872665,-0.698132,-0.174533,-0.174533,-0.0869767,-0.698556,-0.15959,-0.194421,-0.0347702,0.0169632,-0.373567,0.497212
26,65,-0.0872665,-0.698132,-0.174533,-0.174533,-0.0869767,-0.698556,-0.15959,-0.194421,-0.0347702,0.0169632,-0.373567,0.497212
26,65,-0.0872665,-0.698132,-0.174533,-0.174533,-0.0869767,-0.698556,-0.15959,-0.194421,-0.0347702,0.0169632,-0.373567,0.497212
26,65,-0.0872665,-0.698132,-0.174533,-0.174533,-0.0869767,-0.698556,-0.159524,-0.194379,-0.0347702,0.0169632,-0.375222,0.496159
26,65,-0.0872665,-0.698132,-0.174533,-0.174533,-0.0869767,-0.698556,-0.159524,-0.194379,-0.0347702,0.0169632,-0.375222,0.496159
26,65,-0.0872665,-0.698132,-0.174533,-0.174533,-0.0869767,-0.698556,-0.159524,-0.194379,-0.0347702,0.0169632,-0.375222,0.496159
26,65,-0.0872665,-0.698132,-0.174533,-0.174533,-0.0869767,-0.698556,-0.159524,-0.194379,-0.0347702,0.0169632,-0.375222,0.496159
26,65,-0.0872665,-0.698132,-0.174533,-0.174533,-0.0869767,-0.698556,-0.159524,-0.194379,-0.0347702,0.0169632,-0.375222,0.496159
26,65,-0.0872665,-0.698132,-0.174533,-0.174533,-0.0869767,-0.698556,-0.159524,-0.194379,-0.0347702,0.0169632,-0.375222,0.496159
26,65,-0.0872665,-0.698132,-0.174533,-0.174533,-0.0869767,-0.698556,-0.159524,-0.194379,-0.0347702,0.0169632,-0.375222,0.496159
26,65,-0.0872665,-0.698132,-0.174533,-0.174533,-0.0869767,-0.698556,-0.159524,-0.194379,-0.0347702,0.0169632,-0.375222,0.496159
26,65,-0.0872665,-0.698132,-0.174533,-0.174533,-0.0869767,-0.698556,-0.159524,-0.194379,-0.0347702,0.0169632,-0.375222,0.496159
26,65,-0.0872665,-0.698132,-0.174533,-0.174533,-0.0869767,-0.698556,-0.159524,-0.194379,-0.0347702,0.0169632,-0.375222,0.496159
26,65,-0.0872665,-0.698132,-0.174533,-0.174533,-0.0869767,-0.698556,-0.159524,-0.194379,-0.0347702,0.0169632,-0.375222,0.496159
26,65,-0.0872665,-0.698132,-0.174533,-0.174533,-0.0869767,-0.698556,-0.159524,-0.194379,-0.0347702,0.0169632,-0.375222,0.496159
26,65,-0.0872665,-0.698132,-0.174533,-0.174533,-0.0869767,-0.698556,-0.159524,-0.194379,-0.0347702,0.0169632,-0.375222,0.496159
26,65,-0.0872665,-0.698132,-0.174533,-0.174533,-0.0869767,-0.698556,-0.159524,-0.194379,-0.0347702,0.0169632,-0.375222,0.496159
26,65,-0.0872665,-0.698132,-0.174533,-0.174533,-0.0869767,-0.698556,-0.159524,-0.194379,-0.0347702,0.0169632,-0.375222,0.496159
26,65,-0.0872665,-0.698132,-0.174533,-0.174533,-0.0869767,-0.698556,-0.159524,-0.194379,-0.0347702,0.0169632,-0.375222,0.496159
26,65,-0.0872665,-0.698132,-0.174533,-0.174533,-0.0869767,-0.698556,-0.159524,-0.194379,-0.0347702,0.0169632,-0.375222,0.496159
26,65,-0.0872665,-0.698132,-0.174533,-0.174533,-0.0869767,-0.698556,-0.159524,-0.194379,-0.0347702,0.0169632,-0.375222,0.496159
26,65,-0.0872665,-0.698132,-0.174533,-0.174533,-0.0869767,-0.698556,-0.159524,-0.194379,-0.0347702,0.0169632,-0.375222,0.496159
26,65,-0.0872665,-0.698132,-0.174533,-0.174533,-0.0869767,-0.698556,-0.159524,-0.194379,-0.0347702,0.0169632,-0.375222,0.496159
26,65,-0.0872665,-0.698132,-0.174533,-0.174533,-0.0869767,-0.698556,-0.159524,-0.194379,-0.0347702,0.0169632,-0.375222,0.496159
26,65,-0.0872665,-0.698132,-0.174533,-0.174533,-0.0869767,-0.698556,-0.159524,-0.194379,-0.0347702,0.0169632,-0.375222,0.496159
26,65,-0.0872665,-0.698132,-0.174533,-0.174533,-0.0869767,-0.698556,-0.159524,-0.194379,-0.0347702,0.0169632,-0.375222,0.496159
26,65,-0.0872665,-0.698132,-0.174533,-0.174533,-0.0869767,-0.698556,-0.159524,-0.194379,-0.0347702,0.0169632,-0.375222,0.496159
26,65,-0.0872665,-0.698132,-0.174533,-0.174533,-0.0869767,-0.698556,-0.159524,-0.194379,-0.0347702,0.0169632,-0.375222,0.496159
26,65,-0.0872665,-0.698132,-0.174533,-0.174533,-0.0869767,-0.698556,-0.159524,-0.194379,-0.0347702,0.0169632,-0.375222,0.496159
26,65,-0.0872665,-0.698132,-0.174533,-0.174533,-0.0869767,-0.698556,-0.159524,-0.194379,-0.0347702,0.0169632,-0.375222,0.496159
26,65,-0.0872665,-0.698132,-0.174533,-0.174533,-0.0869767,-0.698556,-0.159524,-0.194379,-0.0347702,0.0169632,-0.375222,0.496159
26,65,-0.0872665,-0.698132,-0.174533,-0.174533,-0.0869767,-0.698556,-0.159524,-0.194379,-0.0347702,0.0169632,-0.375222,0.496159
26,65,-0.0872665,-0.698132,-0.174533,-0.174533,-0.0869767,-0.698556,-0.159524,-0.194379,-0.0347702,0.0169632,-0.375222,0.496159
26,65,-0.0872665,-0.698132,-0.174533,-0.174533,-0.0869767,-0.698556,-0.159524,-0.194379,-0.0347702,0.0169632,-0.375222,0.496159
26,65,-0.0872665,-0.698132,-0.174533,-0.174533,-0.0869767,-0.698556,-0.159524,-0.194379,-0.0347702,0.0169632,-0.375222,0.496159
26,65,-0.0872665,-0.698132,-0.174533,-0.174533,-0.0869767,-0.698556,-0.159524,-0.194379,-0.0347702,0.0169632,-0.375222,0.496159
26,65,-0.0872665,-0.698132,-0.174533,-0.174533,-0.0869767,-0.698556,-0.159524,-0.194379,-0.0347702,0.0169632,-0.375222,0.496159
26,65,-0.0872665,-0.698132,-0.174533,-0.174533,-0.0869767,-0.698556,-0.159524,-0.194379,-0.0347702,0.0169632,-0.375222,0.496159
26,65,-0.0872665,-0.698132,-0.174533,-0.174533,-0.0869767,-0.698556,-0.159524,-0.194379,-0.0347702,0.0169632,-0.375222,0.496159
26,65,-0.0872665,-0.698132,-0.174533,-0.174533,-0.0869767,-0.698556,-0.159524,-0.194379,-0.0347702,0.0169632,-0.375222,0.496159
26,65,-0.0872665,-0.698132,-0.174533,-0.174533,-0.0869767,-0.698556,-0.159524,-0.194379,-0.0347702,0.0169632,-0.375222,0.496159
26,65,-0.0872665,-0.698132,-0.174533,-0.174533,-0.0869767,-0.698556,-0.159524,-0.194379,-0.0347702,0.0169632,-0.375222,0.496159
26,65,-0.0872665,-0.698132,-0.174533,-0.174533,-0.0869767,-0.698556,-0.159524,-0.194379,-0.0347702,0.0169632,-0.375222,0.496159
26,65,-0.0872665,-0.698132,-0.174533,-0.174533,-0.0869767,-0.698556,-0.159524,-0.194379,-0.0347702,0.0169632,-0.375222,0.496159
26,65,-0.0872665,-0.698132,-0.174533,-0.174533,-0.0869767,-0.698556,-0.159524,-0.194379,-0.0347702,0.0169632,-0.375222,0.496159
26,65,-0.0872665,-0.698132,-0.174533,-0.174533,-0.0869767,-0.698556,-0.159524,-0.194379,-0.0347702,0.0169632,-0.375222,0.496159
26,65,-0.0872665,-0.698132,-0.174533,-0.174533,-0.0869767,-0.698556,-0.159458,-0.194337,-0.0347702,0.0169632,-0.376876,0.495105
26,65,-0.0872665,-0.698132,-0.174533,-0.174533,-0.0869767,-0.698556,-0.159458,-0.194337,-0.0347702,0.0169632,-0.376876,0.495105
26,65,-0.0872665,-0.698132,-0.174533,-0.174533,-0.0869767,-0.698556,-0.159458,-0.194337,-0.0347702,0.0169632,-0.376876,0.495105
26,65,-0.0872665,-0.698132,-0.174533,-0.174533,-0.0869767,-0.698556,-0.159458,-0.194337,-0.0347702,0.0169632,-0.376876,0.495105
26,65,-0.0872665,-0.698132,-0.174533,-0.174533,-0.0869767,-0.698556,-0.159458,-0.194337,-0.0347702,0.0169632,-0.376876,0.495105
26,65,-0.0872665,-0.698132,-0.174533,-0.174533,-0.0869767,-0.698556,-0.159458,-0.194337,-0.0347702,0.0169632,-0.376876,0.495105
26,65,-0.0872665,-0.698132,-0.174533,-0.174533,-0.0869767,-0.698556,-0.159458,-0.194337,-0.0347702,0.0169632,-0.376876,0.495105
26,65,-0.0872665,-0.698132,-0.174533,-0.174533,-0.0869767,-0.698556,-0.159461,-0.194397,-0.0347702,0.0169632,-0.376808,0.496591
26,65,-0.0872665,-0.698132,-0.174533,-0.174533,-0.0869767,-0.698556,-0.159461,-0.194397,-0.0347702,0.0169632,-0.376808,0.496591
26,65,-0.0872665,-0.698132,-0.174533,-0.174533,-0.0869767,-0.698556,-0.159461,-0.194397,-0.0347702,0.0169632,-0.376808,0.496591
26,65,-0.0872665,-0.698132,-0.174533,-0.174533,-0.0869767,-0.698556,-0.159461,-0.194397,-0.0347702,0.0169632,-0.376808,0.496591
26,65,-0.0872665,-0.698132,-0.174533,-0.174533,-0.0869767,-0.698556,-0.159461,-0.194397,-0.0347702,0.0169632,-0.376808,0.496591
26,65,-0.0872665,-0.698132,-0.174533,-0.174533,-0.0869767,-0.698556,-0.159461,-0.194397,-0.0347702,0.0169632,-0.376808,0.496591
26,65,-0.0872665,-0.698132,-0.174533,-0.174533,-0.0869767,-0.698556,-0.159461,-0.194397,-0.0347702,0.0169632,-0.376808,0.496591
26,65,-0.0872665,-0.698132,-0.174533,-0.174533,-0.0869767,-0.698556,-0.159461,-0.194397,-0.0347702,0.0169632,-0.376808,0.496591
26,65,-0.0872665,-0.698132,-0.174533,-0.174533,-0.0869767,-0.698556,-0.159461,-0.194397,-0.0347702,0.0169632,-0.376808,0.496591
26,65,-0.0872665,-0.698132,-0.174533,-0.174533,-0.0869767,-0.698556,-0.159461,-0.194397,-0.0347702,0.0169632,-0.376808,0.496591
26,65,-0.0872665,-0.698132,-0.174533,-0.174533,-0.0869767,-0.698556,-0.159461,-0.194397,-0.0347702,0.0169632,-0.376808,0.496591
26,65,-0.0872665,-0.698132,-0.174533,-0.174533,-0.0869767,-0.698556,-0.159461,-0.194397,-0.0347702,0.0169632,-0.376808,0.496591
26,65,-0.0872665,-0.698132,-0.174533,-0.174533,-0.0869767,-0.698556,-0.159461,-0.194397,-0.0347702,0.0169632,-0.376808,0.496591
26,65,-0.0872665,-0.698132,-0.174533,-0.174533,-0.0869767,-0.698556,-0.159461,-0.194397,-0.0347702,0.0169632,-0.376808,0.496591
26,65,-0.0872665,-0.698132,-0.174533,-0.174533,-0.0869767,-0.698556,-0.159461,-0.194397,-0.0347702,0.0169632,-0.376808,0.496591
26,65,-0.0872665,-0.698132,-0.174533,-0.174533,-0.0869767,-0.698556,-0.159461,-0.194397,-0.0347702,0.0169632,-0.376808,0.496591
26,65,-0.0872665,-0.698132,-0.174533,-0.174533,-0.0869767,-0.698556,-0.159461,-0.194397,-0.0347702,0.0169632,-0.376808,0.496591
26,65,-0.0872665,-0.698132,-0.174533,-0.174533,-0.0869767,-0.698556,-0.159461,-0.194397,-0.0347702,0.0169632,-0.376808,0.496591
26,65,-0.0872665,-0.698132,-0.174533,-0.174533,-0.0869767,-0.698556,-0.159461,-0.194397,-0.0347702,0.0169632,-0.376808,0.496591
26,65,-0.0872665,-0.698132,-0.174533,-0.174533,-0.0869767,-0.698556,-0.159461,-0.194397,-0.0347702,0.0169632,-0.376808,0.496591
26,65,-0.0872665,-0.698132,-0.174533,-0.174533,-0.0869767,-0.698556,-0.159461,-0.194397,-0.0347702,0.0169632,-0.376808,0.496591
26,65,-0.0872665,-0.698132,-0.174533,-0.174533,-0.0869767,-0.698556,-0.159461,-0.194397,-0.0347702,0.0169632,-0.376808,0.496591
26,65,-0.0872665,-0.698132,-0.174533,-0.174533,-0.0869767,-0.698556,-0.159461,-0.194397,-0.0347702,0.0169632,-0.376808,0.496591
26,65,-0.0872665,-0.698132,-0.174533,-0.174533,-0.0869767,-0.698556,-0.159461,-0.194397,-0.0347702,0.0169632,-0.376808,0.496591
26,65,-0.0872665,-0.698132,-0.174533,-0.174533,-0.0869767,-0.698556,-0.159461,-0.194397,-0.0347702,0.0169632,-0.376808,0.496591
26,65,-0.0872665,-0.698132,-0.174533,-0.174533,-0.0869767,-0.698556,-0.159461,-0.194397,-0.0347702,0.0169632,-0.376808,0.496591
26,65,-0.0872665,-0.698132,-0.174533,-0.174533,-0.0869767,-0.698556,-0.159461,-0.194397,-0.0347702,0.0169632,-0.376808,0.496591
26,65,-0.0872665,-0.698132,-0.174533,-0.174533,-0.0869767,-0.698556,-0.159461,-0.194397,-0.0347702,0.0169632,-0.376808,0.496591
26,65,-0.0872665,-0.698132,-0.174533,-0.174533,-0.0869767,-0.698556,-0.159461,-0.194397,-0.0347702,0.0169632,-0.376808,0.496591
26,65,-0.0872665,-0.698132,-0.174533,-0.174533,-0.0869767,-0.698556,-0.159461,-0.194397,-0.0347702,0.0169632,-0.376808,0.496591
26,65,-0.0872665,-0.698132,-0.174533,-0.174533,-0.0869767,-0.698556,-0.159461,-0.194397,-0.0347702,0.0169632,-0.376808,0.496591
26,65,-0.0872665,-0.698132,-0.174533,-0.174533,-0.0869767,-0.698556,-0.159461,-0.194397,-0.0347702,0.0169632,-0.376808,0.496591
26,65,-0.0872665,-0.698132,-0.174533,-0.174533,-0.0869767,-0.698556,-0.159461,-0.194397,-0.0347702,0.0169632,-0.376808,0.496591
26,65,-0.0872665,-0.698132,-0.174533,-0.174533,-0.0869767,-0.698556,-0.159461,-0.194397,-0.0347702,0.0169632,-0.376808,0.496591
26,65,-0.0872665,-0.698132,-0.174533,-0.174533,-0.0869767,-0.698556,-0.159461,-0.194397,-0.0347702,0.0169632,-0.376808,0.496591
26,65,-0.0872665,-0.698132,-0.174533,-0.174533,-0.0869767,-0.698556,-0.159461,-0.194397,-0.0347702,0.0169632,-0.376808,0.496591
26,65,-0.0872665,-0.698132,-0.174533,-0.174533,-0.0869767,-0.698556,-0.159461,-0.194397,-0.0347702,0.0169632,-0.376808,0.496591
26,65,-0.0872665,-0.698132,-0.174533,-0.174533,-0.0869767,-0.698556,-0.159461,-0.194397,-0.0347702,0.0169632,-0.376808,0.496591
26,65,-0.0872665,-0.698132,-0.174533,-0.174533,-0.0869767,-0.698556,-0.159394,-0.194354,-0.0347702,0.0169632,-0.378462,0.495537
26,65,-0.0872665,-0.698132,-0.174533,-0.174533,-0.0869767,-0.698556,-0.159394,-0.194354,-0.0347702,0.0169632,-0.378462,0.495537
26,65,-0.0872665,-0.698132,-0.174533,-0.174533,-0.0869767,-0.698556,-0.159394,-0.194354,-0.0347702,0.0169632,-0.378462,0.495537
26,65,-0.0872665,-0.698132,-0.174533,-0.174533,-0.0869767,-0.698556,-0.159394,-0.194354,-0.0347702,0.0169632,-0.378462,0.495537
26,65,-0.0872665,-0.698132,-0.174533,-0.174533,-0.0869767,-0.698556,-0.159394,-0.194354,-0.0347702,0.0169632,-0.378462,0.495537
26,65,-0.0872665,-0.698132,-0.174533,-0.174533,-0.0869767,-0.698556,-0.159328,-0.194312,-0.0347702,0.0169632,-0.380116,0.494484
26,65,-0.0872665,-0.698132,-0.174533,-0.174533,-0.0869767,-0.698556,-0.159328,-0.194312,-0.0347702,0.0169632,-0.380116,0.494484
26,65,-0.0872665,-0.698132,-0.174533,-0.174533,-0.0869767,-0.698556,-0.159328,-0.194312,-0.0347702,0.0169632,-0.380116,0.494484
26,65,-0.0872665,-0.698132,-0.174533,-0.174533,-0.0869767,-0.698556,-0.159328,-0.194312,-0.0347702,0.0169632,-0.380116,0.494484
26,65,-0.0872665,-0.698132,-0.174533,-0.174533,-0.0869767,-0.698556,-0.159328,-0.194312,-0.0347702,0.0169632,-0.380116,0.494484
26,65,-0.0872665,-0.698132,-0.174533,-0.174533,-0.0869767,-0.698556,-0.159328,-0.194312,-0.0347702,0.0169632,-0.380116,0.494484
26,65,-0.0872665,-0.698132,-0.174533,-0.174533,-0.0869767,-0.698556,-0.159328,-0.194312,-0.0347702,0.0169632,-0.380116,0.494484
26,65,-0.0872665,-0.698132,-0.174533,-0.174533,-0.0869767,-0.698556,-0.159328,-0.194312,-0.0347702,0.0169632,-0.380116,0.494484
26,65,-0.0872665,-0.698132,-0.174533,-0.174533,-0.0869767,-0.698556,-0.159328,-0.194312,-0.0347702,0.0169632,-0.380116,0.494484
26,65,-0.0872665,-0.698132,-0.174533,-0.174533,-0.0869767,-0.698556,-0.159262,-0.19427,-0.0347702,0.0169632,-0.38177,0.493431
26,65,-0.0872665,-0.698132,-0.174533,-0.174533,-0.0869767,-0.698556,-0.159262,-0.19427,-0.0347702,0.0169632,-0.38177,0.493431
26,65,-0.0872665,-0.698132,-0.174533,-0.174533,-0.0869767,-0.698556,-0.159262,-0.19427,-0.0347702,0.0169632,-0.38177,0.493431
26,65,-0.0872665,-0.698132,-0.174533,-0.174533,-0.0869767,-0.698556,-0.159262,-0.19427,-0.0347702,0.0169632,-0.38177,0.493431
26,65,-0.0872665,-0.698132,-0.174533,-0.174533,-0.0869767,-0.698556,-0.159262,-0.19427,-0.0347702,0.0169632,-0.38177,0.493431
26,65,-0.0872665,-0.698132,-0.174533,-0.174533,-0.0869767,-0.698556,-0.159262,-0.19427,-0.0347702,0.0169632,-0.38177,0.493431
26,65,-0.0872665,-0.698132,-0.174533,-0.174533,-0.0869767,-0.698556,-0.159262,-0.19427,-0.0347702,0.0169632,-0.38177,0.493431
26,65,-0.0872665,-0.698132,-0.174533,-0.174533,-0.0869767,-0.698556,-0.159262,-0.19427,-0.0347702,0.0169632,-0.38177,0.493431
26,65,-0.0872665,-0.698132,-0.174533,-0.174533,-0.0869767,-0.698556,-0.159262,-0.19427,-0.0347702,0.0169632,-0.38177,0.493431
26,65,-0.0872665,-0.698132,-0.174533,-0.174533,-0.0869767,-0.698556,-0.159262,-0.19427,-0.0347702,0.0169632,-0.38177,0.493431
26,65,-0.0872665,-0.698132,-0.174533,-0.174533,-0.0869767,-0.698556,-0.159262,-0.19427,-0.0347702,0.0169632,-0.38177,0.493431
26,65,-0.0872665,-0.698132,-0.174533,-0.174533,-0.0869767,-0.698556,-0.159262,-0.19427,-0.0347702,0.0169632,-0.38177,0.493431
26,65,-0.0872665,-0.698132,-0.174533,-0.174533,-0.0869767,-0.698556,-0.159262,-0.19427,-0.0347702,0.0169632,-0.38177,0.493431
26,65,-0.0872665,-0.698132,-0.174533,-0.174533,-0.0869767,-0.698556,-0.159262,-0.19427,-0.0347702,0.0169632,-0.38177,0.493431
26,65,-0.0872665,-0.698132,-0.174533,-0.174533,-0.0869767,-0.698556,-0.159196,-0.194228,-0.0347702,0.0169632,-0.383496,0.492332
26,65,-0.0872665,-0.698132,-0.174533,-0.174533,-0.0869767,-0.698556,-0.159196,-0.194228,-0.0347702,0.0169632,-0.383496,0.492332
26,65,-0.0872665,-0.698132,-0.174533,-0.174533,-0.0869767,-0.698556,-0.159196,-0.194228,-0.0347702,0.0169632,-0.383496,0.492332
26,65,-0.0872665,-0.698132,-0.174533,-0.174533,-0.0869767,-0.698556,-0.159196,-0.194228,-0.0347702,0.0169632,-0.383496,0.492332
26,65,-0.0872665,-0.698132,-0.174533,-0.174533,-0.0869767,-0.698556,-0.159196,-0.194228,-0.0347702,0.0169632,-0.383496,0.492332
26,65,-0.0872665,-0.698132,-0.174533,-0.174533,-0.0869767,-0.698556,-0.159196,-0.194228,-0.0347702,0.0169632,-0.383496,0.492332
26,65,-0.0872665,-0.698132,-0.174533,-0.174533,-0.0869767,-0.698556,-0.159196,-0.194228,-0.0347702,0.0169632,-0.383496,0.492332
26,65,-0.0872665,-0.698132,-0.174533,-0.174533,-0.0869767,-0.698556,-0.159196,-0.194228,-0.0347702,0.0169632,-0.383496,0.492332
26,65,-0.0872665,-0.698132,-0.174533,-0.174533,-0.0869767,-0.698556,-0.159196,-0.194228,-0.0347702,0.0169632,-0.383496,0.492332
26,65,-0.0872665,-0.698132,-0.174533,-0.174533,-0.0869767,-0.698556,-0.159196,-0.194228,-0.0347702,0.0169632,-0.383496,0.492332
26,65,-0.0872665,-0.698132,-0.174533,-0.174533,-0.0869767,-0.698556,-0.159196,-0.194228,-0.0347702,0.0169632,-0.383496,0.492332
26,65,-0.0872665,-0.698132,-0.174533,-0.174533,-0.0869767,-0.698556,-0.159196,-0.194228,-0.0347702,0.0169632,-0.383496,0.492332
26,65,-0.0872665,-0.698132,-0.174533,-0.174533,-0.0869767,-0.698556,-0.159199,-0.194287,-0.0347702,0.0169632,-0.383428,0.493817
26,65,-0.0872665,-0.698132,-0.174533,-0.174533,-0.0869767,-0.698556,-0.159199,-0.194287,-0.0347702,0.0169632,-0.383428,0.493817
26,65,-0.0872665,-0.698132,-0.174533,-0.174533,-0.0869767,-0.698556,-0.159199,-0.194287,-0.0347702,0.0169632,-0.383428,0.493817
26,65,-0.0872665,-0.698132,-0.174533,-0.174533,-0.0869767,-0.698556,-0.159199,-0.194287,-0.0347702,0.0169632,-0.383428,0.493817
26,65,-0.0872665,-0.698132,-0.174533,-0.174533,-0.0869767,-0.698556,-0.159199,-0.194287,-0.0347702,0.0169632,-0.383428,0.493817
26,65,-0.0872665,-0.698132,-0.174533,-0.174533,-0.0869767,-0.698556,-0.159199,-0.194287,-0.0347702,0.0169632,-0.383428,0.493817
26,65,-0.0872665,-0.698132,-0.174533,-0.174533,-0.0869767,-0.698556,-0.159199,-0.194287,-0.0347702,0.0169632,-0.383428,0.493817
26,65,-0.0872665,-0.698132,-0.174533,-0.174533,-0.0869767,-0.698556,-0.159199,-0.194287,-0.0347702,0.0169632,-0.383428,0.493817
26,65,-0.0872665,-0.698132,-0.174533,-0.174533,-0.0869767,-0.698556,-0.159199,-0.194287,-0.0347702,0.0169632,-0.383428,0.493817
26,65,-0.0872665,-0.698132,-0.174533,-0.174533,-0.0869767,-0.698556,-0.159199,-0.194287,-0.0347702,0.0169632,-0.383428,0.493817
26,65,-0.0872665,-0.698132,-0.174533,-0.174533,-0.0869767,-0.698556,-0.159199,-0.194287,-0.0347702,0.0169632,-0.383428,0.493817
26,65,-0.0872665,-0.698132,-0.174533,-0.174533,-0.0869767,-0.698556,-0.159199,-0.194287,-0.0347702,0.0169632,-0.383428,0.493817
26,65,-0.0872665,-0.698132,-0.174533,-0.174533,-0.0869767,-0.698556,-0.159199,-0.194287,-0.0347702,0.0169632,-0.383428,0.493817
26,65,-0.0872665,-0.698132,-0.174533,-0.174533,-0.0869767,-0.698556,-0.159199,-0.194287,-0.0347702,0.0169632,-0.383428,0.493817
26,65,-0.0872665,-0.698132,-0.174533,-0.174533,-0.0869767,-0.698556,-0.159199,-0.194287,-0.0347702,0.0169632,-0.383428,0.493817
26,65,-0.0872665,-0.698132,-0.174533,-0.174533,-0.0869767,-0.698556,-0.159199,-0.194287,-0.0347702,0.0169632,-0.383428,0.493817
26,65,-0.0872665,-0.698132,-0.174533,-0.174533,-0.0869767,-0.698556,-0.159199,-0.194287,-0.0347702,0.0169632,-0.383428,0.493817
26,65,-0.0872665,-0.698132,-0.174533,-0.174533,-0.0869767,-0.698556,-0.159199,-0.194287,-0.0347702,0.0169632,-0.383428,0.493817
26,65,-0.0872665,-0.698132,-0.174533,-0.174533,-0.0869767,-0.698556,-0.159133,-0.194245,-0.0347702,0.0169632,-0.3851,0.492753
26,65,-0.0872665,-0.698132,-0.174533,-0.174533,-0.0869767,-0.698556,-0.159133,-0.194245,-0.0347702,0.0169632,-0.3851,0.492753
26,65,-0.0872665,-0.698132,-0.174533,-0.174533,-0.0869767,-0.698556,-0.159133,-0.194245,-0.0347702,0.0169632,-0.3851,0.492753
26,65,-0.0872665,-0.698132,-0.174533,-0.174533,-0.0869767,-0.698556,-0.159133,-0.194245,-0.0347702,0.0169632,-0.3851,0.492753
26,65,-0.0872665,-0.698132,-0.174533,-0.174533,-0.0869767,-0.698556,-0.159133,-0.194245,-0.0347702,0.0169632,-0.3851,0.492753
26,65,-0.0872665,-0.698132,-0.174533,-0.174533,-0.0869767,-0.698556,-0.159133,-0.194245,-0.0347702,0.0169632,-0.3851,0.492753
26,65,-0.0872665,-0.698132,-0.174533,-0.174533,-0.0869767,-0.698556,-0.159133,-0.194245,-0.0347702,0.0169632,-0.3851,0.492753
26,65,-0.0872665,-0.698132,-0.174533,-0.174533,-0.0869767,-0.698556,-0.159133,-0.194245,-0.0347702,0.0169632,-0.3851,0.492753
26,65,-0.0872665,-0.698132,-0.174533,-0.174533,-0.0869767,-0.698556,-0.159133,-0.194245,-0.0347702,0.0169632,-0.3851,0.492753
26,65,-0.0872665,-0.698132,-0.174533,-0.174533,-0.0869767,-0.698556,-0.159133,-0.194245,-0.0347702,0.0169632,-0.3851,0.492753
26,65,-0.0872665,-0.698132,-0.174533,-0.174533,-0.0869767,-0.698556,-0.159133,-0.194245,-0.0347702,0.0169632,-0.3851,0.492753
26,65,-0.0872665,-0.698132,-0.174533,-0.174533,-0.0869767,-0.698556,-0.159133,-0.194245,-0.0347702,0.0169632,-0.3851,0.492753
26,65,-0.0872665,-0.698132,-0.174533,-0.174533,-0.0869767,-0.698556,-0.159133,-0.194245,-0.0347702,0.0169632,-0.3851,0.492753
26,65,-0.0872665,-0.698132,-0.174533,-0.174533,-0.0869767,-0.698556,-0.159133,-0.194245,-0.0347702,0.0169632,-0.3851,0.492753
26,65,-0.0872665,-0.698132,-0.174533,-0.174533,-0.0869767,-0.698556,-0.159133,-0.194245,-0.0347702,0.0169632,-0.3851,0.492753
26,65,-0.0872665,-0.698132,-0.174533,-0.174533,-0.0869767,-0.698556,-0.159133,-0.194245,-0.0347702,0.0169632,-0.3851,0.492753
26,65,-0.0872665,-0.698132,-0.174533,-0.174533,-0.0869767,-0.698556,-0.159133,-0.194245,-0.0347702,0.0169632,-0.3851,0.492753
26,65,-0.0872665,-0.698132,-0.174533,-0.174533,-0.0869767,-0.698556,-0.159133,-0.194245,-0.0347702,0.0169632,-0.3851,0.492753
26,65,-0.0872665,-0.698132,-0.174533,-0.174533,-0.0869767,-0.698556,-0.159133,-0.194245,-0.0347702,0.0169632,-0.3851,0.492753
26,65,-0.0872665,-0.698132,-0.174533,-0.174533,-0.0869767,-0.698556,-0.159133,-0.194245,-0.0347702,0.0169632,-0.3851,0.492753
26,65,-0.0872665,-0.698132,-0.174533,-0.174533,-0.0869767,-0.698556,-0.159133,-0.194245,-0.0347702,0.0169632,-0.3851,0.492753
26,65,-0.0872665,-0.698132,-0.174533,-0.174533,-0.0869767,-0.698556,-0.159133,-0.194245,-0.0347702,0.0169632,-0.3851,0.492753
26,65,-0.0872665,-0.698132,-0.174533,-0.174533,-0.0869767,-0.698556,-0.159133,-0.194245,-0.0347702,0.0169632,-0.3851,0.492753
26,65,-0.0872665,-0.698132,-0.174533,-0.174533,-0.0869767,-0.698556,-0.159133,-0.194245,-0.0347702,0.0169632,-0.3851,0.492753
26,65,-0.0872665,-0.698132,-0.174533,-0.174533,-0.0869767,-0.698556,-0.159133,-0.194245,-0.0347702,0.0169632,-0.3851,0.492753
26,65,-0.0872665,-0.698132,-0.174533,-0.174533,-0.0869767,-0.698556,-0.159133,-0.194245,-0.0347702,0.0169632,-0.3851,0.492753
26,65,-0.0872665,-0.698132,-0.174533,-0.174533,-0.0869767,-0.698556,-0.159133,-0.194245,-0.0347702,0.0169632,-0.3851,0.492753
26,65,-0.0872665,-0.698132,-0.174533,-0.174533,-0.0869767,-0.698556,-0.159133,-0.194245,-0.0347702,0.0169632,-0.3851,0.492753
26,65,-0.0872665,-0.698132,-0.174533,-0.174533,-0.0869767,-0.698556,-0.159133,-0.194245,-0.0347702,0.0169632,-0.3851,0.492753
26,65,-0.0872665,-0.698132,-0.174533,-0.174533,-0.0869767,-0.698556,-0.159133,-0.194245,-0.0347702,0.0169632,-0.3851,0.492753
26,65,-0.0872665,-0.698132,-0.174533,-0.174533,-0.0869767,-0.698556,-0.159133,-0.194245,-0.0347702,0.0169632,-0.3851,0.492753
26,65,-0.0872665,-0.698132,-0.174533,-0.174533,-0.0869767,-0.698556,-0.159133,-0.194245,-0.0347702,0.0169632,-0.3851,0.492753
26,65,-0.0872665,-0.698132,-0.174533,-0.174533,-0.0869767,-0.698556,-0.159133,-0.194245,-0.0347702,0.0169632,-0.3851,0.492753
26,65,-0.0872665,-0.698132,-0.174533,-0.174533,-0.0869767,-0.698556,-0.159133,-0.194245,-0.0347702,0.0169632,-0.3851,0.492753
26,65,-0.0872665,-0.698132,-0.174533,-0.174533,-0.0869767,-0.698556,-0.159133,-0.194245,-0.0347702,0.0169632,-0.3851,0.492753
26,65,-0.0872665,-0.698132,-0.174533,-0.174533,-0.0869767,-0.698556,-0.159133,-0.194245,-0.0347702,0.0169632,-0.3851,0.492753
26,65,-0.0872665,-0.698132,-0.174533,-0.174533,-0.0869767,-0.698556,-0.159133,-0.194245,-0.0347702,0.0169632,-0.3851,0.492753
26,65,-0.0872665,-0.698132,-0.174533,-0.174533,-0.0869767,-0.698556,-0.159133,-0.194245,-0.0347702,0.0169632,-0.3851,0.492753
26,65,-0.0872665,-0.698132,-0.174533,-0.174533,-0.0869767,-0.698556,-0.159133,-0.194245,-0.0347702,0.0169632,-0.3851,0.492753
26,65,-0.0872665,-0.698132,-0.174533,-0.174533,-0.0869767,-0.698556,-0.159133,-0.194245,-0.0347702,0.0169632,-0.3851,0.492753
26,65,-0.0872665,-0.698132,-0.174533,-0.174533,-0.0869767,-0.698556,-0.159133,-0.194245,-0.0347702,0.0169632,-0.3851,0.492753
26,65,-0.0872665,-0.698132,-0.174533,-0.174533,-0.0869767,-0.698556,-0.159133,-0.194245,-0.0347702,0.0169632,-0.3851,0.492753
26,65,-0.0872665,-0.698132,-0.174533,-0.174533,-0.0869767,-0.698556,-0.159133,-0.194245,-0.0347702,0.0169632,-0.3851,0.492753
26,65,-0.0872665,-0.698132,-0.174533,-0.174533,-0.0869767,-0.698556,-0.159133,-0.194245,-0.0347702,0.0169632,-0.3851,0.492753
26,65,-0.0872665,-0.698132,-0.174533,-0.174533,-0.0869767,-0.698556,-0.159133,-0.194245,-0.0347702,0.0169632,-0.3851,0.492753
26,65,-0.0872665,-0.698132,-0.174533,-0.174533,-0.0869767,-0.698556,-0.159133,-0.194245,-0.0347702,0.0169632,-0.3851,0.492753
26,65,-0.0872665,-0.698132,-0.174533,-0.174533,-0.0869767,-0.698556,-0.159133,-0.194245,-0.0347702,0.0169632,-0.3851,0.492753
26,65,-0.0872665,-0.698132,-0.174533,-0.174533,-0.0869767,-0.698556,-0.159133,-0.194245,-0.0347702,0.0169632,-0.3851,0.492753
26,65,-0.0872665,-0.698132,-0.174533,-0.174533,-0.0869767,-0.698556,-0.159133,-0.194245,-0.0347702,0.0169632,-0.3851,0.492753
26,65,-0.0872665,-0.698132,-0.174533,-0.174533,-0.0869767,-0.698556,-0.159133,-0.194245,-0.0347702,0.0169632,-0.3851,0.492753
26,65,-0.0872665,-0.698132,-0.174533,-0.174533,-0.0869767,-0.698556,-0.159133,-0.194245,-0.0347702,0.0169632,-0.3851,0.492753
26,65,-0.0872665,-0.698132,-0.174533,-0.174533,-0.0869767,-0.698556,-0.159133,-0.194245,-0.0347702,0.0169632,-0.3851,0.492753
26,65,-0.0872665,-0.698132,-0.174533,-0.174533,-0.0869767,-0.698556,-0.159133,-0.194245,-0.0347702,0.0169632,-0.3851,0.492753
26,65,-0.0872665,-0.698132,-0.174533,-0.174533,-0.0869767,-0.698556,-0.159133,-0.194245,-0.0347702,0.0169632,-0.3851,0.492753
26,65,-0.0872665,-0.698132,-0.174533,-0.174533,-0.0869767,-0.698556,-0.159133,-0.194245,-0.0347702,0.0169632,-0.3851,0.492753
26,65,-0.0872665,-0.698132,-0.174533,-0.174533,-0.0869767,-0.698556,-0.159133,-0.194245,-0.0347702,0.0169632,-0.3851,0.492753
26,65,-0.0872665,-0.698132,-0.174533,-0.174533,-0.0869767,-0.698556,-0.159133,-0.194245,-0.0347702,0.0169632,-0.3851,0.492753
26,65,-0.0872665,-0.698132,-0.174533,-0.174533,-0.0869767,-0.698556,-0.159133,-0.194245,-0.0347702,0.0169632,-0.3851,0.492753
26,65,-0.0872665,-0.698132,-0.174533,-0.174533,-0.0869767,-0.698556,-0.159133,-0.194245,-0.0347702,0.0169632,-0.3851,0.492753
26,65,-0.0872665,-0.698132,-0.174533,-0.174533,-0.0869767,-0.698556,-0.159133,-0.194245,-0.0347702,0.0169632,-0.385098,0.492754
26,65,-0.0872665,-0.698132,-0.174533,-0.174533,-0.0869767,-0.698556,-0.159133,-0.194245,-0.0347702,0.0169632,-0.385097,0.492755
26,65,-0.0872665,-0.698132,-0.174533,-0.174533,-0.0869767,-0.698556,-0.159133,-0.194245,-0.0347702,0.0169632,-0.385095,0.492756
26,65,-0.0872665,-0.698132,-0.174533,-0.174533,-0.0869767,-0.698556,-0.159133,-0.194245,-0.0347702,0.0169632,-0.385094,0.492757
26,65,-0.0872665,-0.698132,-0.174533,-0.174533,-0.0869767,-0.698556,-0.159133,-0.194245,-0.0347702,0.0169632,-0.385092,0.492758
26,65,-0.0872665,-0.698132,-0.174533,-0.174533,-0.0869767,-0.698556,-0.159133,-0.194245,-0.0347702,0.0169632,-0.385091,0.492759
26,65,-0.0872665,-0.698132,-0.174533,-0.174533,-0.0869767,-0.698556,-0.159133,-0.194245,-0.0347702,0.0169632,-0.38509,0.492759
26,65,-0.0872665,-0.698132,-0.174533,-0.174533,-0.0869767,-0.698556,-0.159133,-0.194245,-0.0347702,0.0169632,-0.385089,0.49276
26,65,-0.0872665,-0.698132,-0.174533,-0.174533,-0.0869767,-0.698556,-0.159133,-0.194245,-0.0347702,0.0169632,-0.385087,0.492761
26,65,-0.0872665,-0.698132,-0.174533,-0.174533,-0.0869767,-0.698556,-0.159133,-0.194245,-0.0347702,0.0169632,-0.385086,0.492762
26,65,-0.0872665,-0.698132,-0.174533,-0.174533,-0.0869767,-0.698556,-0.159133,-0.194245,-0.0347702,0.0169632,-0.385085,0.492762
26,65,-0.0872665,-0.698132,-0.174533,-0.174533,-0.0869767,-0.698556,-0.159133,-0.194245,-0.0347702,0.0169632,-0.385084,0.492763
26,65,-0.0872665,-0.698132,-0.174533,-0.174533,-0.0869767,-0.698556,-0.159066,-0.194203,-0.0347702,0.0169632,-0.386663,0.491758
26,65,-0.0872665,-0.698132,-0.174533,-0.174533,-0.0869767,-0.698556,-0.159066,-0.194203,-0.0347702,0.0169632,-0.386663,0.491758
26,65,-0.0872665,-0.698132,-0.174533,-0.174533,-0.0869767,-0.698556,-0.159066,-0.194203,-0.0347702,0.0169632,-0.386663,0.491758
26,65,-0.0872665,-0.698132,-0.174533,-0.174533,-0.0869767,-0.698556,-0.159066,-0.194203,-0.0347702,0.0169632,-0.386663,0.491758
26,65,-0.0872665,-0.698132,-0.174533,-0.174533,-0.0869767,-0.698556,-0.159066,-0.194203,-0.0347702,0.0169632,-0.386663,0.491758
26,65,-0.0872665,-0.698132,-0.174533,-0.174533,-0.0869051,-0.698556,-0.159066,-0.194203,-0.0433605,0.0169632,-0.386663,0.491758
26,65,-0.0872665,-0.698132,-0.174533,-0.174533,-0.0869051,-0.698556,-0.159066,-0.194203,-0.0433605,0.0169632,-0.386663,0.491758
26,65,-0.0872665,-0.698132,-0.174533,-0.174533,-0.0869051,-0.698556,-0.159066,-0.194203,-0.0433605,0.0169632,-0.386663,0.491758
26,65,-0.0872665,-0.698132,-0.174533,-0.174533,-0.0869051,-0.698556,-0.159127,-0.194184,-0.0433605,0.0169632,-0.385145,0.491276
26,65,-0.0872665,-0.698132,-0.174533,-0.174533,-0.0869051,-0.698556,-0.159127,-0.194184,-0.0433605,0.0169632,-0.385145,0.491276
26,65,-0.0872665,-0.698132,-0.174533,-0.174533,-0.0869051,-0.698556,-0.159127,-0.194184,-0.0433605,0.0169632,-0.385145,0.491276
26,65,-0.0872665,-0.698132,-0.174533,-0.174533,-0.0869051,-0.698556,-0.159127,-0.194184,-0.0433605,0.0169632,-0.385145,0.491276
26,65,-0.0872665,-0.698132,-0.174533,-0.174533,-0.0868335,-0.698556,-0.159127,-0.194184,-0.0519508,0.0169632,-0.385145,0.491276
26,65,-0.0872665,-0.698132,-0.174533,-0.174533,-0.0868335,-0.698556,-0.159127,-0.194184,-0.0519508,0.0169632,-0.385145,0.491276
26,65,-0.0872665,-0.698132,-0.174533,-0.174533,-0.0868335,-0.698556,-0.159127,-0.194184,-0.0519508,0.0169632,-0.385145,0.491276
26,65,-0.0872665,-0.698132,-0.174533,-0.174533,-0.0868335,-0.698556,-0.159127,-0.194184,-0.0519508,0.0169632,-0.385145,0.491276
26,65,-0.0872665,-0.698132,-0.174533,-0.174533,-0.0868335,-0.698556,-0.159127,-0.194184,-0.0519508,0.0169632,-0.385145,0.491276
26,65,-0.0872665,-0.698132,-0.174533,-0.174533,-0.0868335,-0.698556,-0.159127,-0.194184,-0.0519508,0.0169632,-0.385145,0.491276
26,65,-0.0872665,-0.698132,-0.174533,-0.174533,-0.0868335,-0.698556,-0.159127,-0.194184,-0.0519508,0.0169632,-0.385145,0.491276
26,65,-0.0872665,-0.698132,-0.174533,-0.174533,-0.0868335,-0.698556,-0.159127,-0.194184,-0.0519508,0.0169632,-0.385145,0.491276
26,65,-0.0872665,-0.698132,-0.174533,-0.174533,-0.0868335,-0.698556,-0.159127,-0.194184,-0.0519508,0.0169632,-0.385145,0.491276
26,65,-0.0872665,-0.698132,-0.174533,-0.174533,-0.0868335,-0.698556,-0.159127,-0.194184,-0.0519508,0.0169632,-0.385145,0.491276
26,65,-0.0872665,-0.698132,-0.174533,-0.174533,-0.0868335,-0.698556,-0.159127,-0.194184,-0.0519508,0.0169632,-0.385145,0.491276
26,65,-0.0872665,-0.698132,-0.174533,-0.174533,-0.0868335,-0.698556,-0.159061,-0.194142,-0.0519508,0.0169632,-0.386798,0.490223
26,65,-0.0872665,-0.698132,-0.174533,-0.174533,-0.0868335,-0.698556,-0.159061,-0.194142,-0.0519508,0.0169632,-0.386798,0.490223
26,65,-0.0872665,-0.698132,-0.174533,-0.174533,-0.0868335,-0.698556,-0.159061,-0.194142,-0.0519508,0.0169632,-0.386798,0.490223
26,65,-0.0872665,-0.698132,-0.174533,-0.174533,-0.0868335,-0.698556,-0.159061,-0.194142,-0.0519508,0.0169632,-0.386798,0.490223
26,65,-0.0872665,-0.698132,-0.174533,-0.174533,-0.0868335,-0.698556,-0.159061,-0.194142,-0.0519508,0.0169632,-0.386798,0.490223
26,65,-0.0872665,-0.698132,-0.174533,-0.174533,-0.0868335,-0.698556,-0.159061,-0.194142,-0.0519508,0.0169632,-0.386798,0.490223
26,65,-0.0872665,-0.698132,-0.174533,-0.174533,-0.086762,-0.698556,-0.159061,-0.194142,-0.0605411,0.0169632,-0.386798,0.490223
26,65,-0.0872665,-0.698132,-0.174533,-0.174533,-0.086762,-0.698556,-0.158995,-0.1941,-0.0605411,0.0169632,-0.388451,0.489171
26,65,-0.0872665,-0.698132,-0.174533,-0.174533,-0.086762,-0.698556,-0.158995,-0.1941,-0.0605411,0.0169632,-0.388451,0.489171
26,65,-0.0872665,-0.698132,-0.174533,-0.174533,-0.086762,-0.698556,-0.158995,-0.1941,-0.0605411,0.0169632,-0.388451,0.489171
26,65,-0.0872665,-0.698132,-0.174533,-0.174533,-0.086762,-0.698556,-0.158995,-0.1941,-0.0605411,0.0169632,-0.388451,0.489171
26,65,-0.0872665,-0.698132,-0.174533,-0.174533,-0.086762,-0.698556,-0.158995,-0.1941,-0.0605411,0.0169632,-0.388451,0.489171
26,65,-0.0872665,-0.698132,-0.174533,-0.174533,-0.086762,-0.698556,-0.158995,-0.1941,-0.0605411,0.0169632,-0.388451,0.489171
26,65,-0.0872665,-0.698132,-0.174533,-0.174533,-0.086762,-0.698556,-0.158995,-0.1941,-0.0605411,0.0169632,-0.388451,0.489171
26,65,-0.0872665,-0.698132,-0.174533,-0.174533,-0.086762,-0.698556,-0.158929,-0.194058,-0.0605411,0.0169632,-0.390104,0.488118
26,65,-0.0872665,-0.698132,-0.174533,-0.174533,-0.0866904,-0.698556,-0.158929,-0.194058,-0.0691314,0.0169632,-0.390104,0.488118
26,65,-0.0872665,-0.698132,-0.174533,-0.174533,-0.0866904,-0.698556,-0.158929,-0.194058,-0.0691314,0.0169632,-0.390104,0.488118
26,65,-0.0872665,-0.698132,-0.174533,-0.174533,-0.0866904,-0.698556,-0.158929,-0.194058,-0.0691314,0.0169632,-0.390104,0.488118
26,65,-0.0872665,-0.698132,-0.174533,-0.174533,-0.0866904,-0.698556,-0.158929,-0.194058,-0.0691314,0.0169632,-0.390104,0.488118
26,65,-0.0872665,-0.698132,-0.174533,-0.174533,-0.0866904,-0.698556,-0.158929,-0.194058,-0.0691314,0.0169632,-0.390104,0.488118
26,65,-0.0872665,-0.698132,-0.174533,-0.174533,-0.0866904,-0.698556,-0.158989,-0.194038,-0.0691314,0.0169632,-0.388587,0.487636
26,65,-0.0872665,-0.698132,-0.174533,-0.174533,-0.0866904,-0.698556,-0.158989,-0.194038,-0.0691314,0.0169632,-0.388587,0.487636
26,65,-0.0872665,-0.698132,-0.174533,-0.174533,-0.0866904,-0.698556,-0.158989,-0.194038,-0.0691314,0.0169632,-0.388587,0.487636
26,65,-0.0872665,-0.698132,-0.174533,-0.174533,-0.0866904,-0.698556,-0.158989,-0.194038,-0.0691314,0.0169632,-0.388587,0.487636
26,65,-0.0872665,-0.698132,-0.174533,-0.174533,-0.0866188,-0.698556,-0.158989,-0.194038,-0.0897825,0.0169632,-0.388587,0.487636
26,65,-0.0872665,-0.698132,-0.174533,-0.174533,-0.0866188,-0.698556,-0.158989,-0.194038,-0.0897825,0.0169632,-0.388587,0.487636
26,65,-0.0872665,-0.698132,-0.174533,-0.174533,-0.0866188,-0.698556,-0.158989,-0.194038,-0.0897825,0.0169632,-0.388587,0.487636
26,65,-0.0872665,-0.698132,-0.174533,-0.174533,-0.0866188,-0.698556,-0.158989,-0.194038,-0.0897825,0.0169632,-0.388587,0.487636
26,65,-0.0872665,-0.698132,-0.174533,-0.174533,-0.0866188,-0.698556,-0.158989,-0.194038,-0.0897825,0.0169632,-0.388587,0.487636
26,65,-0.0872665,-0.698132,-0.174533,-0.174533,-0.0866188,-0.698556,-0.158989,-0.194038,-0.0897825,0.0169632,-0.388587,0.487636
26,65,-0.0872665,-0.698132,-0.174533,-0.174533,-0.0866188,-0.698556,-0.158989,-0.194038,-0.0897825,0.0169632,-0.388587,0.487636
26,65,-0.0872665,-0.698132,-0.174533,-0.174533,-0.0866188,-0.698556,-0.158989,-0.194038,-0.0897825,0.0169632,-0.388587,0.487636
26,65,-0.0872665,-0.698132,-0.174533,-0.174533,-0.0866188,-0.698556,-0.158989,-0.194038,-0.0897825,0.0169632,-0.388587,0.487636
26,65,-0.0872665,-0.698132,-0.174533,-0.174533,-0.0866188,-0.698556,-0.158989,-0.194038,-0.0897825,0.0169632,-0.388587,0.487636
26,65,-0.0872665,-0.698132,-0.174533,-0.174533,-0.0866188,-0.698556,-0.158989,-0.194038,-0.0897825,0.0169632,-0.388587,0.487636
26,65,-0.0872665,-0.698132,-0.174533,-0.174533,-0.0866188,-0.698556,-0.158923,-0.193996,-0.0897825,0.0169632,-0.390332,0.486525
26,65,-0.0872665,-0.698132,-0.174533,-0.174533,-0.0866188,-0.698556,-0.158923,-0.193996,-0.0897825,0.0169632,-0.390332,0.486525
26,65,-0.0872665,-0.698132,-0.174533,-0.174533,-0.0865472,-0.698556,-0.158923,-0.193996,-0.0967415,0.0169632,-0.390332,0.486525
26,65,-0.0872665,-0.698132,-0.174533,-0.174533,-0.0865472,-0.698556,-0.158923,-0.193996,-0.0967415,0.0169632,-0.390332,0.486525
26,65,-0.0872665,-0.698132,-0.174533,-0.174533,-0.0865472,-0.698556,-0.158923,-0.193996,-0.0967415,0.0169632,-0.390332,0.486525
26,65,-0.0872665,-0.698132,-0.174533,-0.174533,-0.0865472,-0.698556,-0.158923,-0.193996,-0.0967415,0.0169632,-0.390332,0.486525
26,65,-0.0872665,-0.698132,-0.174533,-0.174533,-0.0865472,-0.698556,-0.158923,-0.193996,-0.0967415,0.0169632,-0.390332,0.486525
26,65,-0.0872665,-0.698132,-0.174533,-0.174533,-0.0865472,-0.698556,-0.158923,-0.193996,-0.0967415,0.0169632,-0.390332,0.486525
26,65,-0.0872665,-0.698132,-0.174533,-0.174533,-0.0865472,-0.698556,-0.158923,-0.193996,-0.0967415,0.0169632,-0.390332,0.486525
26,65,-0.0872665,-0.698132,-0.174533,-0.174533,-0.0865472,-0.698556,-0.158923,-0.193996,-0.0967415,0.0169632,-0.390332,0.486525
26,65,-0.0872665,-0.698132,-0.174533,-0.174533,-0.0865472,-0.698556,-0.158857,-0.193954,-0.0967415,0.0169632,-0.392008,0.485457
26,65,-0.0872665,-0.698132,-0.174533,-0.174533,-0.0864756,-0.698556,-0.158857,-0.193954,-0.107445,0.0169632,-0.392008,0.485457
26,65,-0.0872665,-0.698132,-0.174533,-0.174533,-0.0864756,-0.698556,-0.158857,-0.193954,-0.107445,0.0169632,-0.392008,0.485457
26,65,-0.0872665,-0.698132,-0.174533,-0.174533,-0.0864756,-0.698556,-0.158857,-0.193954,-0.107445,0.0169632,-0.392008,0.485457
26,65,-0.0872665,-0.698132,-0.174533,-0.174533,-0.0864756,-0.698556,-0.158857,-0.193954,-0.107445,0.0169632,-0.392008,0.485457
26,65,-0.0872665,-0.698132,-0.174533,-0.174533,-0.0864756,-0.698556,-0.158857,-0.193954,-0.107445,0.0169632,-0.392008,0.485457
26,65,-0.0872665,-0.698132,-0.174533,-0.174533,-0.0864756,-0.698556,-0.158857,-0.193954,-0.107445,0.0169632,-0.392008,0.485457
26,65,-0.0872665,-0.698132,-0.174533,-0.174533,-0.0864756,-0.698556,-0.15886,-0.194014,-0.107445,0.0169632,-0.391941,0.486942
26,65,-0.0872665,-0.698132,-0.174533,-0.174533,-0.0864756,-0.698556,-0.15886,-0.194014,-0.107445,0.0169632,-0.391941,0.486942
26,65,-0.0872665,-0.698132,-0.174533,-0.174533,-0.0864756,-0.698556,-0.15886,-0.194014,-0.107445,0.0169632,-0.391941,0.486942
26,65,-0.0872665,-0.698132,-0.174533,-0.174533,-0.086404,-0.698556,-0.15886,-0.194014,-0.116137,0.0169632,-0.391941,0.486942
26,65,-0.0872665,-0.698132,-0.174533,-0.174533,-0.086404,-0.698556,-0.158794,-0.193971,-0.116137,0.0169632,-0.393584,0.485896
26,65,-0.0872665,-0.698132,-0.174533,-0.174533,-0.086404,-0.698556,-0.158794,-0.193971,-0.116137,0.0169632,-0.393584,0.485896
26,65,-0.0872665,-0.698132,-0.174533,-0.174533,-0.086404,-0.698556,-0.158794,-0.193971,-0.116137,0.0169632,-0.393584,0.485896
26,65,-0.0872665,-0.698132,-0.174533,-0.174533,-0.086404,-0.698556,-0.158794,-0.193971,-0.116137,0.0169632,-0.393584,0.485896
26,65,-0.0872665,-0.698132,-0.174533,-0.174533,-0.086404,-0.698556,-0.158794,-0.193971,-0.116137,0.0169632,-0.393584,0.485896
26,65,-0.0872665,-0.698132,-0.174533,-0.174533,-0.086404,-0.698556,-0.158794,-0.193971,-0.116137,0.0169632,-0.393584,0.485896
26,65,-0.0872665,-0.698132,-0.174533,-0.174533,-0.086404,-0.698556,-0.158794,-0.193971,-0.116137,0.0169632,-0.393584,0.485896
26,65,-0.0872665,-0.698132,-0.174533,-0.174533,-0.086404,-0.698556,-0.158794,-0.193971,-0.116137,0.0169632,-0.393584,0.485896
26,65,-0.0872665,-0.698132,-0.174533,-0.174533,-0.086404,-0.698556,-0.158794,-0.193971,-0.116137,0.0169632,-0.393584,0.485896
26,65,-0.0872665,-0.698132,-0.174533,-0.174533,-0.086404,-0.698556,-0.158794,-0.193971,-0.116137,0.0169632,-0.393584,0.485896
26,65,-0.0872665,-0.698132,-0.174533,-0.174533,-0.086404,-0.698556,-0.158794,-0.193971,-0.116137,0.0169632,-0.393584,0.485896
26,65,-0.0872665,-0.698132,-0.174533,-0.174533,-0.086404,-0.698556,-0.158794,-0.193971,-0.116137,0.0169632,-0.393584,0.485896
26,65,-0.0872665,-0.698132,-0.174533,-0.174533,-0.086404,-0.698556,-0.158794,-0.193971,-0.116137,0.0169632,-0.393584,0.485896
26,65,-0.0872665,-0.698132,-0.174533,-0.174533,-0.0863324,-0.698556,-0.158794,-0.193971,-0.123125,0.0169632,-0.393584,0.485896
26,65,-0.0872665,-0.698132,-0.174533,-0.174533,-0.0863324,-0.698556,-0.158794,-0.193971,-0.123125,0.0169632,-0.393584,0.485896
26,65,-0.0872665,-0.698132,-0.174533,-0.174533,-0.0863324,-0.698556,-0.158794,-0.193971,-0.123125,0.0169632,-0.393584,0.485896
26,65,-0.0872665,-0.698132,-0.174533,-0.174533,-0.0863324,-0.698556,-0.158794,-0.193971,-0.123125,0.0169632,-0.393584,0.485896
26,65,-0.0872665,-0.698132,-0.174533,-0.174533,-0.0863324,-0.698556,-0.158794,-0.193971,-0.123125,0.0169632,-0.393584,0.485896
26,65,-0.0872665,-0.698132,-0.174533,-0.174533,-0.0863324,-0.698556,-0.158794,-0.193971,-0.123125,0.0169632,-0.393584,0.485896
26,65,-0.0872665,-0.698132,-0.174533,-0.174533,-0.0863324,-0.698556,-0.158728,-0.193929,-0.123125,0.0169632,-0.395216,0.484857
26,65,-0.0872665,-0.698132,-0.174533,-0.174533,-0.0863324,-0.698556,-0.158728,-0.193929,-0.123125,0.0169632,-0.395216,0.484857
26,65,-0.0872665,-0.698132,-0.174533,-0.174533,-0.0863324,-0.698556,-0.158728,-0.193929,-0.123125,0.0169632,-0.395216,0.484857
26,65,-0.0872665,-0.698132,-0.174533,-0.174533,-0.0862609,-0.698556,-0.158728,-0.193929,-0.132955,0.0169632,-0.395216,0.484857
26,65,-0.0872665,-0.698132,-0.174533,-0.174533,-0.0862609,-0.698556,-0.158728,-0.193929,-0.132955,0.0169632,-0.395216,0.484857
26,65,-0.0872665,-0.698132,-0.174533,-0.174533,-0.0862609,-0.698556,-0.158728,-0.193929,-0.132955,0.0169632,-0.395216,0.484857
26,65,-0.0872665,-0.698132,-0.174533,-0.174533,-0.0862609,-0.698556,-0.158728,-0.193929,-0.132955,0.0169632,-0.395216,0.484857
26,65,-0.0872665,-0.698132,-0.174533,-0.174533,-0.0862609,-0.698556,-0.158728,-0.193929,-0.132955,0.0169632,-0.395216,0.484857
26,65,-0.0872665,-0.698132,-0.174533,-0.174533,-0.0862609,-0.698556,-0.158728,-0.193929,-0.132955,0.0169632,-0.395216,0.484857
26,65,-0.0872665,-0.698132,-0.174533,-0.174533,-0.0862609,-0.698556,-0.158728,-0.193929,-0.132955,0.0169632,-0.395216,0.484857
26,65,-0.0872665,-0.698132,-0.174533,-0.174533,-0.0862609,-0.698556,-0.158728,-0.193929,-0.132955,0.0169632,-0.395216,0.484857
26,65,-0.0872665,-0.698132,-0.174533,-0.174533,-0.0862609,-0.698556,-0.158728,-0.193929,-0.132955,0.0169632,-0.395216,0.484857
26,65,-0.0872665,-0.698132,-0.174533,-0.174533,-0.0862609,-0.698556,-0.158728,-0.193929,-0.132955,0.0169632,-0.395216,0.484857
26,65,-0.0872665,-0.698132,-0.174533,-0.174533,-0.0862609,-0.698556,-0.158728,-0.193929,-0.132955,0.0169632,-0.395216,0.484857
26,65,-0.0872665,-0.698132,-0.174533,-0.174533,-0.0862609,-0.698556,-0.158728,-0.193929,-0.132955,0.0169632,-0.395216,0.484857
26,65,-0.0872665,-0.698132,-0.174533,-0.174533,-0.0862609,-0.698556,-0.158728,-0.193929,-0.132955,0.0169632,-0.395216,0.484857
26,65,-0.0872665,-0.698132,-0.174533,-0.174533,-0.0862609,-0.698556,-0.158728,-0.193929,-0.132955,0.0169632,-0.395216,0.484857
26,65,-0.0872665,-0.698132,-0.174533,-0.174533,-0.0862609,-0.698556,-0.158728,-0.193929,-0.132955,0.0169632,-0.395216,0.484857
26,65,-0.0872665,-0.698132,-0.174533,-0.174533,-0.0862609,-0.698556,-0.158728,-0.193929,-0.132955,0.0169632,-0.395216,0.484857
26,65,-0.0872665,-0.698132,-0.174533,-0.174533,-0.0862609,-0.698556,-0.158728,-0.193929,-0.132955,0.0169632,-0.395216,0.484857
26,65,-0.0872665,-0.698132,-0.174533,-0.174533,-0.0862609,-0.698556,-0.158728,-0.193929,-0.132955,0.0169632,-0.395216,0.484857
26,65,-0.0872665,-0.698132,-0.174533,-0.174533,-0.0861893,-0.698556,-0.158728,-0.193929,-0.139187,0.0169632,-0.395216,0.484857
26,65,-0.0872665,-0.698132,-0.174533,-0.174533,-0.0861893,-0.698556,-0.158728,-0.193929,-0.139187,0.0169632,-0.395216,0.484857
26,65,-0.0872665,-0.698132,-0.174533,-0.174533,-0.0861893,-0.698556,-0.15873,-0.193989,-0.139187,0.0169632,-0.395149,0.486342
26,65,-0.0872665,-0.698132,-0.174533,-0.174533,-0.0861893,-0.698556,-0.15873,-0.193989,-0.139187,0.0169632,-0.395149,0.486342
26,65,-0.0872665,-0.698132,-0.174533,-0.174533,-0.0861893,-0.698556,-0.15873,-0.193989,-0.139187,0.0169632,-0.395149,0.486342
26,65,-0.0872665,-0.698132,-0.174533,-0.174533,-0.0861893,-0.698556,-0.15873,-0.193989,-0.139187,0.0169632,-0.395149,0.486342
26,65,-0.0872665,-0.698132,-0.174533,-0.174533,-0.0861893,-0.698556,-0.15873,-0.193989,-0.139187,0.0169632,-0.395149,0.486342
26,65,-0.0872665,-0.698132,-0.174533,-0.174533,-0.0861893,-0.698556,-0.15873,-0.193989,-0.139187,0.0169632,-0.395149,0.486342
26,65,-0.0872665,-0.698132,-0.174533,-0.174533,-0.0861893,-0.698556,-0.158664,-0.193947,-0.139187,0.0169632,-0.396791,0.485296
26,65,-0.0872665,-0.698132,-0.174533,-0.174533,-0.0861893,-0.698556,-0.158664,-0.193947,-0.139187,0.0169632,-0.396791,0.485296
26,65,-0.0872665,-0.698132,-0.174533,-0.174533,-0.0861893,-0.698556,-0.158664,-0.193947,-0.139187,0.0169632,-0.396791,0.485296
26,65,-0.0872665,-0.698132,-0.174533,-0.174533,-0.0861893,-0.698556,-0.158664,-0.193947,-0.139187,0.0169632,-0.396791,0.485296
26,65,-0.0872665,-0.698132,-0.174533,-0.174533,-0.0861893,-0.698556,-0.158664,-0.193947,-0.139187,0.0169632,-0.396791,0.485296
26,65,-0.0872665,-0.698132,-0.174533,-0.174533,-0.0861893,-0.698556,-0.158664,-0.193947,-0.139187,0.0169632,-0.396791,0.485296
26,65,-0.0872665,-0.698132,-0.174533,-0.174533,-0.0861893,-0.698556,-0.158664,-0.193947,-0.139187,0.0169632,-0.396791,0.485296
26,65,-0.0872665,-0.698132,-0.174533,-0.174533,-0.0861893,-0.698556,-0.158664,-0.193947,-0.139187,0.0169632,-0.396791,0.485296
26,65,-0.0872665,-0.698132,-0.174533,-0.174533,-0.0861893,-0.698556,-0.158664,-0.193947,-0.139187,0.0169632,-0.396791,0.485296
26,65,-0.0872665,-0.698132,-0.174533,-0.174533,-0.0861893,-0.698556,-0.158664,-0.193947,-0.139187,0.0169632,-0.396791,0.485296
26,65,-0.0872665,-0.698132,-0.174533,-0.174533,-0.0861893,-0.698556,-0.158664,-0.193947,-0.139187,0.0169632,-0.396791,0.485296
26,65,-0.0872665,-0.698132,-0.174533,-0.174533,-0.0861893,-0.698556,-0.158664,-0.193947,-0.139187,0.0169632,-0.396791,0.485296
26,65,-0.0872665,-0.698132,-0.174533,-0.174533,-0.0861893,-0.698556,-0.158664,-0.193947,-0.139187,0.0169632,-0.396791,0.485296
26,65,-0.0872665,-0.698132,-0.174533,-0.174533,-0.0861893,-0.698556,-0.158664,-0.193947,-0.139187,0.0169632,-0.396791,0.485296
26,65,-0.0872665,-0.698132,-0.174533,-0.174533,-0.0861893,-0.698556,-0.158664,-0.193947,-0.139187,0.0169632,-0.396791,0.485296
26,65,-0.0872665,-0.698132,-0.174533,-0.174533,-0.0861893,-0.698556,-0.158664,-0.193947,-0.139187,0.0169632,-0.396791,0.485296
26,65,-0.0872665,-0.698132,-0.174533,-0.174533,-0.0861893,-0.698556,-0.158664,-0.193947,-0.139187,0.0169632,-0.396791,0.485296
26,65,-0.0872665,-0.698132,-0.174533,-0.174533,-0.0861893,-0.698556,-0.158664,-0.193947,-0.139187,0.0169632,-0.396791,0.485296
26,65,-0.0872665,-0.698132,-0.174533,-0.174533,-0.0861893,-0.698556,-0.158664,-0.193947,-0.139187,0.0169632,-0.396791,0.485296
26,65,-0.0872665,-0.698132,-0.174533,-0.174533,-0.0861893,-0.698556,-0.158664,-0.193947,-0.139187,0.0169632,-0.396791,0.485296
26,65,-0.0872665,-0.698132,-0.174533,-0.174533,-0.0861893,-0.698556,-0.158664,-0.193947,-0.139187,0.0169632,-0.396791,0.485296
26,65,-0.0872665,-0.698132,-0.174533,-0.174533,-0.0861893,-0.698556,-0.158598,-0.193905,-0.139187,0.0169632,-0.398433,0.48425
26,65,-0.0872665,-0.698132,-0.174533,-0.174533,-0.0861893,-0.698556,-0.158598,-0.193905,-0.139187,0.0169632,-0.398433,0.48425
26,65,-0.0872665,-0.698132,-0.174533,-0.174533,-0.0861893,-0.698556,-0.158598,-0.193905,-0.139187,0.0169632,-0.398433,0.48425
26,65,-0.0872665,-0.698132,-0.174533,-0.174533,-0.0861893,-0.698556,-0.158598,-0.193905,-0.139187,0.0169632,-0.398433,0.48425
26,65,-0.0872665,-0.698132,-0.174533,-0.174533,-0.0861893,-0.698556,-0.158598,-0.193905,-0.139187,0.0169632,-0.398433,0.48425
26,65,-0.0872665,-0.698132,-0.174533,-0.174533,-0.0861893,-0.698556,-0.158598,-0.193905,-0.139187,0.0169632,-0.398433,0.48425
26,65,-0.0872665,-0.698132,-0.174533,-0.174533,-0.0861893,-0.698556,-0.158598,-0.193905,-0.139187,0.0169632,-0.398433,0.48425
26,65,-0.0872665,-0.698132,-0.174533,-0.174533,-0.0861893,-0.698556,-0.158598,-0.193905,-0.139187,0.0169632,-0.398433,0.48425
26,65,-0.0872665,-0.698132,-0.174533,-0.174533,-0.0861893,-0.698556,-0.158598,-0.193905,-0.139187,0.0169632,-0.398433,0.48425
26,65,-0.0872665,-0.698132,-0.174533,-0.174533,-0.0861893,-0.698556,-0.158598,-0.193905,-0.139187,0.0169632,-0.398433,0.48425
26,65,-0.0872665,-0.698132,-0.174533,-0.174533,-0.0861893,-0.698556,-0.158598,-0.193905,-0.139187,0.0169632,-0.398433,0.48425
26,65,-0.0872665,-0.698132,-0.174533,-0.174533,-0.0861893,-0.698556,-0.158598,-0.193905,-0.139187,0.0169632,-0.398433,0.48425
26,65,-0.0872665,-0.698132,-0.174533,-0.174533,-0.0861893,-0.698556,-0.158598,-0.193905,-0.139187,0.0169632,-0.398433,0.48425
26,65,-0.0872665,-0.698132,-0.174533,-0.174533,-0.0861893,-0.698556,-0.158598,-0.193905,-0.139187,0.0169632,-0.398433,0.48425
26,65,-0.0872665,-0.698132,-0.174533,-0.174533,-0.0861893,-0.698556,-0.158598,-0.193905,-0.139187,0.0169632,-0.398433,0.48425
26,65,-0.0872665,-0.698132,-0.174533,-0.174533,-0.0861893,-0.698556,-0.158598,-0.193905,-0.139187,0.0169632,-0.398433,0.48425
26,65,-0.0872665,-0.698132,-0.174533,-0.174533,-0.0861893,-0.698556,-0.158598,-0.193905,-0.139187,0.0169632,-0.398433,0.48425
26,65,-0.0872665,-0.698132,-0.174533,-0.174533,-0.0861893,-0.698556,-0.158598,-0.193905,-0.139187,0.0169632,-0.398433,0.48425
26,65,-0.0872665,-0.698132,-0.174533,-0.174533,-0.0861893,-0.698556,-0.158598,-0.193905,-0.139187,0.0169632,-0.398433,0.48425
26,65,-0.0872665,-0.698132,-0.174533,-0.174533,-0.0861893,-0.698556,-0.158598,-0.193905,-0.139187,0.0169632,-0.398433,0.48425
26,65,-0.0872665,-0.698132,-0.174533,-0.174533,-0.0861893,-0.698556,-0.158598,-0.193905,-0.139187,0.0169632,-0.398433,0.48425
26,65,-0.0872665,-0.698132,-0.174533,-0.174533,-0.0861893,-0.698556,-0.158598,-0.193905,-0.139187,0.0169632,-0.398433,0.48425
26,65,-0.0872665,-0.698132,-0.174533,-0.174533,-0.0861893,-0.698556,-0.158598,-0.193905,-0.139127,0.0169632,-0.398433,0.48425
26,65,-0.0872665,-0.698132,-0.174533,-0.174533,-0.0861893,-0.698556,-0.158598,-0.193905,-0.139079,0.0169632,-0.398433,0.48425
26,65,-0.0872665,-0.698132,-0.174533,-0.174533,-0.0861893,-0.698556,-0.158598,-0.193905,-0.138687,0.0169632,-0.398433,0.48425
26,65,-0.0872665,-0.698132,-0.174533,-0.174533,-0.0861893,-0.698556,-0.158598,-0.193905,-0.138492,0.0169632,-0.398433,0.48425
26,65,-0.0872665,-0.698132,-0.174533,-0.174533,-0.0861893,-0.698556,-0.158598,-0.193905,-0.138325,0.0169632,-0.398433,0.48425
26,65,-0.0872665,-0.698132,-0.174533,-0.174533,-0.0861893,-0.698556,-0.158598,-0.193905,-0.138164,0.0169632,-0.398433,0.48425
26,65,-0.0872665,-0.698132,-0.174533,-0.174533,-0.0861893,-0.698556,-0.158598,-0.193905,-0.138009,0.0169632,-0.398433,0.48425
26,65,-0.0872665,-0.698132,-0.174533,-0.174533,-0.0861893,-0.698556,-0.158598,-0.193905,-0.137859,0.0169632,-0.398433,0.48425
26,65,-0.0872665,-0.698132,-0.174533,-0.174533,-0.0861893,-0.698556,-0.158532,-0.193863,-0.137714,0.0169632,-0.400018,0.483241
26,65,-0.0872665,-0.698132,-0.174533,-0.174533,-0.0861893,-0.698556,-0.158532,-0.193863,-0.137573,0.0169632,-0.400018,0.483241
26,65,-0.0872665,-0.698132,-0.174533,-0.174533,-0.0861893,-0.698556,-0.158532,-0.193863,-0.137438,0.0169632,-0.400018,0.483241
26,65,-0.0872665,-0.698132,-0.174533,-0.174533,-0.0861893,-0.698556,-0.158532,-0.193863,-0.137307,0.0169632,-0.400018,0.483241
26,65,-0.0872665,-0.698132,-0.174533,-0.174533,-0.0861893,-0.698556,-0.158532,-0.193863,-0.13718,0.0169632,-0.400018,0.483241
26,65,-0.0872665,-0.698132,-0.174533,-0.174533,-0.0861893,-0.698556,-0.158532,-0.193863,-0.137057,0.0169632,-0.400018,0.483241
26,65,-0.0872665,-0.698132,-0.174533,-0.174533,-0.0861893,-0.698556,-0.158532,-0.193863,-0.136937,0.0169632,-0.400018,0.483241
26,65,-0.0872665,-0.698132,-0.174533,-0.174533,-0.0861893,-0.698556,-0.158532,-0.193863,-0.136822,0.0169632,-0.400018,0.483241
26,65,-0.0872665,-0.698132,-0.174533,-0.174533,-0.0861893,-0.698556,-0.158532,-0.193863,-0.136709,0.0169632,-0.400018,0.483241
26,65,-0.0872665,-0.698132,-0.174533,-0.174533,-0.0861893,-0.698556,-0.158532,-0.193863,-0.1366,0.0169632,-0.400018,0.483241
26,65,-0.0872665,-0.698132,-0.174533,-0.174533,-0.0861893,-0.698556,-0.158532,-0.193863,-0.136494,0.0169632,-0.400018,0.483241
26,65,-0.0872665,-0.698132,-0.174533,-0.174533,-0.0861893,-0.698556,-0.158532,-0.193863,-0.136392,0.0169632,-0.400018,0.483241
26,65,-0.0872665,-0.698132,-0.174533,-0.174533,-0.0861893,-0.698556,-0.158532,-0.193863,-0.136292,0.0169632,-0.400018,0.483241
26,65,-0.0872665,-0.698132,-0.174533,-0.174533,-0.0861893,-0.698556,-0.158532,-0.193863,-0.136194,0.0169632,-0.400018,0.483241
26,65,-0.0872665,-0.698132,-0.174533,-0.174533,-0.0861893,-0.698556,-0.158532,-0.193863,-0.1361,0.0169632,-0.400018,0.483241
26,65,-0.0872665,-0.698132,-0.174533,-0.174533,-0.0861893,-0.698556,-0.158532,-0.193863,-0.136008,0.0169632,-0.400018,0.483241
26,65,-0.0872665,-0.698132,-0.174533,-0.174533,-0.0861893,-0.698556,-0.158532,-0.193863,-0.135918,0.0169632,-0.400018,0.483241
26,65,-0.0872665,-0.698132,-0.174533,-0.174533,-0.0861893,-0.698556,-0.158532,-0.193863,-0.135831,0.0169632,-0.400018,0.483241
26,65,-0.0872665,-0.698132,-0.174533,-0.174533,-0.0861893,-0.698556,-0.158532,-0.193863,-0.135746,0.0169632,-0.400018,0.483241
26,65,-0.0872665,-0.698132,-0.174533,-0.174533,-0.0861893,-0.698556,-0.158532,-0.193863,-0.135663,0.0169632,-0.400018,0.483241
26,65,-0.0872665,-0.698132,-0.174533,-0.174533,-0.0861893,-0.698556,-0.158532,-0.193863,-0.135583,0.0169632,-0.400018,0.483241
26,65,-0.0872665,-0.698132,-0.174533,-0.174533,-0.0861893,-0.698556,-0.158532,-0.193863,-0.135504,0.0169632,-0.400018,0.483241
26,65,-0.0872665,-0.698132,-0.174533,-0.174533,-0.0861893,-0.698556,-0.158532,-0.193863,-0.135427,0.0169632,-0.400018,0.483241
26,65,-0.0872665,-0.698132,-0.174533,-0.174533,-0.0861893,-0.698556,-0.158532,-0.193863,-0.135352,0.0169632,-0.400018,0.483241
26,65,-0.0872665,-0.698132,-0.174533,-0.174533,-0.0861893,-0.698556,-0.158532,-0.193863,-0.135279,0.0169632,-0.400018,0.483241
26,65,-0.0872665,-0.698132,-0.174533,-0.174533,-0.0861177,-0.698556,-0.158532,-0.193863,-0.137854,0.0169632,-0.400018,0.483241
26,65,-0.0872665,-0.698132,-0.174533,-0.174533,-0.0861177,-0.698556,-0.158532,-0.193863,-0.137854,0.0169632,-0.400018,0.483241
26,65,-0.0872665,-0.698132,-0.174533,-0.174533,-0.0861177,-0.698556,-0.158532,-0.193863,-0.137854,0.0169632,-0.400018,0.483241
26,65,-0.0872665,-0.698132,-0.174533,-0.174533,-0.0861177,-0.698556,-0.158532,-0.193863,-0.137854,0.0169632,-0.400018,0.483241
26,65,-0.0872665,-0.698132,-0.174533,-0.174533,-0.0861177,-0.698556,-0.158532,-0.193863,-0.137854,0.0169632,-0.400018,0.483241
26,65,-0.0872665,-0.698132,-0.174533,-0.174533,-0.0861177,-0.698556,-0.158532,-0.193863,-0.137854,0.0169632,-0.400018,0.483241
26,65,-0.0872665,-0.698132,-0.174533,-0.174533,-0.0861177,-0.698556,-0.158532,-0.193863,-0.137854,0.0169632,-0.400018,0.483241
26,65,-0.0872665,-0.698132,-0.174533,-0.174533,-0.0861177,-0.698556,-0.158532,-0.193863,-0.137854,0.0169632,-0.400018,0.483241
26,65,-0.0872665,-0.698132,-0.174533,-0.174533,-0.0861177,-0.698556,-0.158532,-0.193863,-0.137854,0.0169632,-0.400018,0.483241
26,65,-0.0872665,-0.698132,-0.174533,-0.174533,-0.0861177,-0.698556,-0.158532,-0.193863,-0.137854,0.0169632,-0.400018,0.483241
26,65,-0.0872665,-0.698132,-0.174533,-0.174533,-0.0861177,-0.698556,-0.158532,-0.193863,-0.137854,0.0169632,-0.400018,0.483241
26,65,-0.0872665,-0.698132,-0.174533,-0.174533,-0.0861177,-0.698556,-0.158532,-0.193863,-0.137854,0.0169632,-0.400018,0.483241
26,65,-0.0872665,-0.698132,-0.174533,-0.174533,-0.0861177,-0.698556,-0.158532,-0.193863,-0.137854,0.0169632,-0.400018,0.483241
26,65,-0.0872665,-0.698132,-0.174533,-0.174533,-0.0861177,-0.698556,-0.158532,-0.193863,-0.137854,0.0169632,-0.400018,0.483241
26,65,-0.0872665,-0.698132,-0.174533,-0.174533,-0.0861177,-0.698556,-0.158532,-0.193863,-0.137854,0.0169632,-0.400018,0.483241
26,65,-0.0872665,-0.698132,-0.174533,-0.174533,-0.0861177,-0.698556,-0.158532,-0.193863,-0.137854,0.0169632,-0.400018,0.483241
26,65,-0.0872665,-0.698132,-0.174533,-0.174533,-0.0861177,-0.698556,-0.158532,-0.193863,-0.137854,0.0169632,-0.400018,0.483241
26,65,-0.0872665,-0.698132,-0.174533,-0.174533,-0.0860461,-0.698556,-0.158532,-0.193863,-0.146444,0.0169632,-0.400018,0.483241
26,65,-0.0872665,-0.698132,-0.174533,-0.174533,-0.0860461,-0.698556,-0.158532,-0.193863,-0.146444,0.0169632,-0.400018,0.483241
26,65,-0.0872665,-0.698132,-0.174533,-0.174533,-0.0860461,-0.698556,-0.158532,-0.193863,-0.146444,0.0169632,-0.400018,0.483241
26,65,-0.0872665,-0.698132,-0.174533,-0.174533,-0.0860461,-0.698556,-0.158532,-0.193863,-0.146444,0.0169632,-0.400018,0.483241
26,65,-0.0872665,-0.698132,-0.174533,-0.174533,-0.0860461,-0.698556,-0.158532,-0.193863,-0.146444,0.0169632,-0.400018,0.483241
26,65,-0.0872665,-0.698132,-0.174533,-0.174533,-0.0860461,-0.698556,-0.158532,-0.193863,-0.146444,0.0169632,-0.400018,0.483241
26,65,-0.0872665,-0.698132,-0.174533,-0.174533,-0.0860461,-0.698556,-0.158532,-0.193863,-0.146444,0.0169632,-0.400018,0.483241
26,65,-0.0872665,-0.698132,-0.174533,-0.174533,-0.0860461,-0.698556,-0.158532,-0.193863,-0.146444,0.0169632,-0.400018,0.483241
26,65,-0.0872665,-0.698132,-0.174533,-0.174533,-0.0860461,-0.698556,-0.158466,-0.19382,-0.146444,0.0169632,-0.401669,0.482189
26,65,-0.0872665,-0.698132,-0.174533,-0.174533,-0.0860461,-0.698556,-0.158466,-0.19382,-0.146444,0.0169632,-0.401669,0.482189
26,65,-0.0872665,-0.698132,-0.174533,-0.174533,-0.0860461,-0.698556,-0.158466,-0.19382,-0.146444,0.0169632,-0.401669,0.482189
26,65,-0.0872665,-0.698132,-0.174533,-0.174533,-0.0860461,-0.698556,-0.158466,-0.19382,-0.146444,0.0169632,-0.401669,0.482189
26,65,-0.0872665,-0.698132,-0.174533,-0.174533,-0.0860461,-0.698556,-0.158466,-0.19382,-0.146444,0.0169632,-0.401669,0.482189
26,65,-0.0872665,-0.698132,-0.174533,-0.174533,-0.0860461,-0.698556,-0.158466,-0.19382,-0.146444,0.0169632,-0.401669,0.482189
26,65,-0.0872665,-0.698132,-0.174533,-0.174533,-0.0860461,-0.698556,-0.158466,-0.19382,-0.146444,0.0169632,-0.401669,0.482189
26,65,-0.0872665,-0.698132,-0.174533,-0.174533,-0.0859745,-0.698556,-0.158466,-0.19382,-0.155034,0.0169632,-0.401669,0.482189
26,65,-0.0872665,-0.698132,-0.174533,-0.174533,-0.0859745,-0.698556,-0.158466,-0.19382,-0.155034,0.0169632,-0.401669,0.482189
26,65,-0.0872665,-0.698132,-0.174533,-0.174533,-0.0859745,-0.698556,-0.158466,-0.19382,-0.155034,0.0169632,-0.401669,0.482189
26,65,-0.0872665,-0.698132,-0.174533,-0.174533,-0.0859745,-0.698556,-0.158466,-0.19382,-0.155034,0.0169632,-0.401669,0.482189
26,65,-0.0872665,-0.698132,-0.174533,-0.174533,-0.0859745,-0.698556,-0.158466,-0.19382,-0.155034,0.0169632,-0.401669,0.482189
26,65,-0.0872665,-0.698132,-0.174533,-0.174533,-0.0859745,-0.698556,-0.158466,-0.19382,-0.155034,0.0169632,-0.401669,0.482189
26,65,-0.0872665,-0.698132,-0.174533,-0.174533,-0.0859745,-0.698556,-0.158466,-0.19382,-0.155034,0.0169632,-0.401669,0.482189
26,65,-0.0872665,-0.698132,-0.174533,-0.174533,-0.0859745,-0.698556,-0.158466,-0.19382,-0.155034,0.0169632,-0.401669,0.482189
26,65,-0.0872665,-0.698132,-0.174533,-0.174533,-0.0859029,-0.698556,-0.158466,-0.19382,-0.163625,0.0169632,-0.401669,0.482189
26,65,-0.0872665,-0.698132,-0.174533,-0.174533,-0.0859029,-0.698556,-0.158466,-0.19382,-0.163625,0.0169632,-0.401669,0.482189
26,65,-0.0872665,-0.698132,-0.174533,-0.174533,-0.0859029,-0.698556,-0.158466,-0.19382,-0.163625,0.0169632,-0.401669,0.482189
26,65,-0.0872665,-0.698132,-0.174533,-0.174533,-0.0859029,-0.698556,-0.1584,-0.193778,-0.163625,0.0169632,-0.403321,0.481138
26,65,-0.0872665,-0.698132,-0.174533,-0.174533,-0.0859029,-0.698556,-0.1584,-0.193778,-0.163625,0.0169632,-0.403321,0.481138
26,65,-0.0872665,-0.698132,-0.174533,-0.174533,-0.0859029,-0.698556,-0.1584,-0.193778,-0.163625,0.0169632,-0.403321,0.481138
26,65,-0.0872665,-0.698132,-0.174533,-0.174533,-0.0859029,-0.698556,-0.1584,-0.193778,-0.163625,0.0169632,-0.403321,0.481138
26,65,-0.0872665,-0.698132,-0.174533,-0.174533,-0.0858313,-0.698556,-0.1584,-0.193778,-0.183059,0.0169632,-0.403321,0.481138
26,65,-0.0872665,-0.698132,-0.174533,-0.174533,-0.0858313,-0.698556,-0.1584,-0.193778,-0.183059,0.0169632,-0.403321,0.481138
26,65,-0.0872665,-0.698132,-0.174533,-0.174533,-0.0858313,-0.698556,-0.1584,-0.193778,-0.183059,0.0169632,-0.403321,0.481138
26,65,-0.0872665,-0.698132,-0.174533,-0.174533,-0.0858313,-0.698556,-0.1584,-0.193778,-0.183059,0.0169632,-0.403321,0.481138
26,65,-0.0872665,-0.698132,-0.174533,-0.174533,-0.0858313,-0.698556,-0.1584,-0.193778,-0.183059,0.0169632,-0.403321,0.481138
26,65,-0.0872665,-0.698132,-0.174533,-0.174533,-0.0858313,-0.698556,-0.1584,-0.193778,-0.183059,0.0169632,-0.403321,0.481138
26,65,-0.0872665,-0.698132,-0.174533,-0.174533,-0.0858313,-0.698556,-0.1584,-0.193778,-0.183059,0.0169632,-0.403321,0.481138
26,65,-0.0872665,-0.698132,-0.174533,-0.174533,-0.0858313,-0.698556,-0.1584,-0.193778,-0.183059,0.0169632,-0.403321,0.481138
26,65,-0.0872665,-0.698132,-0.174533,-0.174533,-0.0858313,-0.698556,-0.1584,-0.193778,-0.183059,0.0169632,-0.403321,0.481138
26,65,-0.0872665,-0.698132,-0.174533,-0.174533,-0.0858313,-0.698556,-0.1584,-0.193778,-0.183059,0.0169632,-0.403321,0.481138
26,65,-0.0872665,-0.698132,-0.174533,-0.174533,-0.0857598,-0.698556,-0.1584,-0.193778,-0.193415,0.0169632,-0.403321,0.481138
26,65,-0.0872665,-0.698132,-0.174533,-0.174533,-0.0857598,-0.698556,-0.1584,-0.193778,-0.193415,0.0169632,-0.403321,0.481138
26,65,-0.0872665,-0.698132,-0.174533,-0.174533,-0.0857598,-0.698556,-0.1584,-0.193778,-0.193415,0.0169632,-0.403321,0.481138
26,65,-0.0872665,-0.698132,-0.174533,-0.174533,-0.0857598,-0.698556,-0.1584,-0.193778,-0.193415,0.0169632,-0.403321,0.481138
26,65,-0.0872665,-0.698132,-0.174533,-0.174533,-0.0857598,-0.698556,-0.1584,-0.193778,-0.193415,0.0169632,-0.403321,0.481138
26,65,-0.0872665,-0.698132,-0.174533,-0.174533,-0.0857598,-0.698556,-0.1584,-0.193778,-0.193415,0.0169632,-0.403321,0.481138
26,65,-0.0872665,-0.698132,-0.174533,-0.174533,-0.0857598,-0.698556,-0.1584,-0.193778,-0.193415,0.0169632,-0.403321,0.481138
26,65,-0.0872665,-0.698132,-0.174533,-0.174533,-0.0857598,-0.698556,-0.1584,-0.193778,-0.193415,0.0169632,-0.403321,0.481138
26,65,-0.0872665,-0.698132,-0.174533,-0.174533,-0.0857598,-0.698556,-0.1584,-0.193778,-0.193415,0.0169632,-0.403321,0.481138
26,65,-0.0872665,-0.698132,-0.174533,-0.174533,-0.0856882,-0.698556,-0.1584,-0.193778,-0.20414,0.0169632,-0.403321,0.481138
26,65,-0.0872665,-0.698132,-0.174533,-0.174533,-0.0856882,-0.698556,-0.1584,-0.193778,-0.20414,0.0169632,-0.403321,0.481138
26,65,-0.0872665,-0.698132,-0.174533,-0.174533,-0.0856882,-0.698556,-0.1584,-0.193778,-0.20414,0.0169632,-0.403321,0.481138
26,65,-0.0872665,-0.698132,-0.174533,-0.174533,-0.0856882,-0.698556,-0.1584,-0.193778,-0.20414,0.0169632,-0.403321,0.481138
26,65,-0.0872665,-0.698132,-0.174533,-0.174533,-0.0856882,-0.698556,-0.1584,-0.193778,-0.20414,0.0169632,-0.403321,0.481138
26,65,-0.0872665,-0.698132,-0.174533,-0.174533,-0.0856882,-0.698556,-0.1584,-0.193778,-0.20414,0.0169632,-0.403321,0.481138
26,65,-0.0872665,-0.698132,-0.174533,-0.174533,-0.0856882,-0.698556,-0.1584,-0.193778,-0.20414,0.0169632,-0.403321,0.481138
26,65,-0.0872665,-0.698132,-0.174533,-0.174533,-0.0856882,-0.698556,-0.1584,-0.193778,-0.20414,0.0169632,-0.403321,0.481138
26,65,-0.0872665,-0.698132,-0.174533,-0.174533,-0.0856882,-0.698556,-0.1584,-0.193778,-0.20414,0.0169632,-0.403321,0.481138
26,65,-0.0872665,-0.698132,-0.174533,-0.174533,-0.0856882,-0.698556,-0.1584,-0.193778,-0.20414,0.0169632,-0.403321,0.481138
26,65,-0.0872665,-0.698132,-0.174533,-0.174533,-0.0856882,-0.698556,-0.1584,-0.193778,-0.20414,0.0169632,-0.403321,0.481138
26,65,-0.0872665,-0.698132,-0.174533,-0.174533,-0.0856166,-0.698556,-0.1584,-0.193778,-0.21154,0.0169632,-0.403321,0.481138
26,65,-0.0872665,-0.698132,-0.174533,-0.174533,-0.0856166,-0.698556,-0.1584,-0.193778,-0.21154,0.0169632,-0.403321,0.481138
26,65,-0.0872665,-0.698132,-0.174533,-0.174533,-0.0856166,-0.698556,-0.1584,-0.193778,-0.21154,0.0169632,-0.403321,0.481138
26,65,-0.0872665,-0.698132,-0.174533,-0.174533,-0.0856166,-0.698556,-0.1584,-0.193778,-0.21154,0.0169632,-0.403321,0.481138
26,65,-0.0872665,-0.698132,-0.174533,-0.174533,-0.0856166,-0.698556,-0.1584,-0.193778,-0.21154,0.0169632,-0.403321,0.481138
26,65,-0.0872665,-0.698132,-0.174533,-0.174533,-0.0856166,-0.698556,-0.1584,-0.193778,-0.21154,0.0169632,-0.403321,0.481138
26,65,-0.0872665,-0.698132,-0.174533,-0.174533,-0.0856166,-0.698556,-0.1584,-0.193778,-0.21154,0.0169632,-0.403321,0.481138
26,65,-0.0872665,-0.698132,-0.174533,-0.174533,-0.0856166,-0.698556,-0.1584,-0.193778,-0.21154,0.0169632,-0.403321,0.481138
26,65,-0.0872665,-0.698132,-0.174533,-0.174533,-0.0856166,-0.698556,-0.1584,-0.193778,-0.21154,0.0169632,-0.403321,0.481138
26,65,-0.0872665,-0.698132,-0.174533,-0.174533,-0.0856166,-0.698556,-0.1584,-0.193778,-0.21154,0.0169632,-0.403321,0.481138
26,65,-0.0872665,-0.698132,-0.174533,-0.174533,-0.085545,-0.698556,-0.1584,-0.193778,-0.219085,0.0169632,-0.403321,0.481138
26,65,-0.0872665,-0.698132,-0.174533,-0.174533,-0.085545,-0.698556,-0.1584,-0.193778,-0.219085,0.0169632,-0.403321,0.481138
26,65,-0.0872665,-0.698132,-0.174533,-0.174533,-0.085545,-0.698556,-0.1584,-0.193778,-0.219085,0.0169632,-0.403321,0.481138
26,65,-0.0872665,-0.698132,-0.174533,-0.174533,-0.085545,-0.698556,-0.1584,-0.193778,-0.219085,0.0169632,-0.403321,0.481138
26,65,-0.0872665,-0.698132,-0.174533,-0.174533,-0.085545,-0.698556,-0.1584,-0.193778,-0.219085,0.0169632,-0.403321,0.481138
26,65,-0.0872665,-0.698132,-0.174533,-0.174533,-0.085545,-0.698556,-0.1584,-0.193778,-0.219085,0.0169632,-0.403321,0.481138
26,65,-0.0872665,-0.698132,-0.174533,-0.174533,-0.085545,-0.698556,-0.1584,-0.193778,-0.219085,0.0169632,-0.403321,0.481138
26,65,-0.0872665,-0.698132,-0.174533,-0.174533,-0.085545,-0.698556,-0.1584,-0.193778,-0.219085,0.0169632,-0.403321,0.481138
26,65,-0.0872665,-0.698132,-0.174533,-0.174533,-0.085545,-0.698556,-0.1584,-0.193778,-0.219085,0.0169632,-0.403321,0.481138
26,65,-0.0872665,-0.698132,-0.174533,-0.174533,-0.085545,-0.698556,-0.158334,-0.193736,-0.219085,0.0169632,-0.404972,0.480086
26,65,-0.0872665,-0.698132,-0.174533,-0.174533,-0.085545,-0.698556,-0.158334,-0.193736,-0.219085,0.0169632,-0.404972,0.480086
26,65,-0.0872665,-0.698132,-0.174533,-0.174533,-0.085545,-0.698556,-0.158334,-0.193736,-0.219085,0.0169632,-0.404972,0.480086
26,65,-0.0872665,-0.698132,-0.174533,-0.174533,-0.085545,-0.698556,-0.158334,-0.193736,-0.219085,0.0169632,-0.404972,0.480086
26,65,-0.0872665,-0.698132,-0.174533,-0.174533,-0.085545,-0.698556,-0.158334,-0.193736,-0.219085,0.0169632,-0.404972,0.480086
26,65,-0.0872665,-0.698132,-0.174533,-0.174533,-0.085545,-0.698556,-0.158334,-0.193736,-0.219085,0.0169632,-0.404972,0.480086
26,65,-0.0872665,-0.698132,-0.174533,-0.174533,-0.085545,-0.698556,-0.158334,-0.193736,-0.219085,0.0169632,-0.404972,0.480086
26,65,-0.0872665,-0.698132,-0.174533,-0.174533,-0.085545,-0.698556,-0.158334,-0.193736,-0.219085,0.0169632,-0.404972,0.480086
26,65,-0.0872665,-0.698132,-0.174533,-0.174533,-0.085545,-0.698556,-0.158334,-0.193736,-0.219085,0.0169632,-0.404972,0.480086
26,65,-0.0872665,-0.698132,-0.174533,-0.174533,-0.0854734,-0.698556,-0.158334,-0.193736,-0.225414,0.0169632,-0.404972,0.480086
26,65,-0.0872665,-0.698132,-0.174533,-0.174533,-0.0854734,-0.698556,-0.158334,-0.193736,-0.225414,0.0169632,-0.404972,0.480086
26,65,-0.0872665,-0.698132,-0.174533,-0.174533,-0.0854734,-0.698556,-0.158334,-0.193736,-0.225414,0.0169632,-0.404972,0.480086
26,65,-0.0872665,-0.698132,-0.174533,-0.174533,-0.0854734,-0.698556,-0.158334,-0.193736,-0.225414,0.0169632,-0.404972,0.480086
26,65,-0.0872665,-0.698132,-0.174533,-0.174533,-0.0854734,-0.698556,-0.158334,-0.193736,-0.225414,0.0169632,-0.404972,0.480086
26,65,-0.0872665,-0.698132,-0.174533,-0.174533,-0.0854734,-0.698556,-0.158334,-0.193736,-0.225414,0.0169632,-0.404972,0.480086
26,65,-0.0872665,-0.698132,-0.174533,-0.174533,-0.0854734,-0.698556,-0.158334,-0.193736,-0.225414,0.0169632,-0.404972,0.480086
26,65,-0.0872665,-0.698132,-0.174533,-0.174533,-0.0854734,-0.698556,-0.158334,-0.193736,-0.225414,0.0169632,-0.404972,0.480086
26,65,-0.0872665,-0.698132,-0.174533,-0.174533,-0.0854734,-0.698556,-0.158334,-0.193736,-0.225414,0.0169632,-0.404972,0.480086
26,65,-0.0872665,-0.698132,-0.174533,-0.174533,-0.0854734,-0.698556,-0.158334,-0.193736,-0.225414,0.0169632,-0.404972,0.480086
26,65,-0.0872665,-0.698132,-0.174533,-0.174533,-0.0854734,-0.698556,-0.158334,-0.193736,-0.225414,0.0169632,-0.404972,0.480086
26,65,-0.0872665,-0.698132,-0.174533,-0.174533,-0.0854734,-0.698556,-0.158334,-0.193736,-0.225414,0.0169632,-0.404972,0.480086
26,65,-0.0872665,-0.698132,-0.174533,-0.174533,-0.0854734,-0.698556,-0.158334,-0.193736,-0.225414,0.0169632,-0.404972,0.480086
26,65,-0.0872665,-0.698132,-0.174533,-0.174533,-0.0854734,-0.698556,-0.158334,-0.193736,-0.225414,0.0169632,-0.404972,0.480086
26,65,-0.0872665,-0.698132,-0.174533,-0.174533,-0.0854734,-0.698556,-0.158334,-0.193736,-0.225414,0.0169632,-0.404972,0.480086
26,65,-0.0872665,-0.698132,-0.174533,-0.174533,-0.0854734,-0.698556,-0.158334,-0.193736,-0.225414,0.0169632,-0.404972,0.480086
26,65,-0.0872665,-0.698132,-0.174533,-0.174533,-0.0854734,-0.698556,-0.158334,-0.193736,-0.225414,0.0169632,-0.404972,0.480086
26,65,-0.0872665,-0.698132,-0.174533,-0.174533,-0.0854018,-0.698556,-0.158334,-0.193736,-0.23282,0.0169632,-0.404972,0.480086
26,65,-0.0872665,-0.698132,-0.174533,-0.174533,-0.0854018,-0.698556,-0.158334,-0.193736,-0.23282,0.0169632,-0.404972,0.480086
26,65,-0.0872665,-0.698132,-0.174533,-0.174533,-0.0854018,-0.698556,-0.158334,-0.193736,-0.23282,0.0169632,-0.404972,0.480086
26,65,-0.0872665,-0.698132,-0.174533,-0.174533,-0.0854018,-0.698556,-0.158334,-0.193736,-0.23282,0.0169632,-0.404972,0.480086
26,65,-0.0872665,-0.698132,-0.174533,-0.174533,-0.0854018,-0.698556,-0.158334,-0.193736,-0.23282,0.0169632,-0.404972,0.480086
26,65,-0.0872665,-0.698132,-0.174533,-0.174533,-0.0854018,-0.698556,-0.158334,-0.193736,-0.23282,0.0169632,-0.404972,0.480086
26,65,-0.0872665,-0.698132,-0.174533,-0.174533,-0.0854018,-0.698556,-0.158334,-0.193736,-0.23282,0.0169632,-0.404972,0.480086
26,65,-0.0872665,-0.698132,-0.174533,-0.174533,-0.0854018,-0.698556,-0.158334,-0.193736,-0.23282,0.0169632,-0.404972,0.480086
26,65,-0.0872665,-0.698132,-0.174533,-0.174533,-0.0854018,-0.698556,-0.158334,-0.193736,-0.23282,0.0169632,-0.404972,0.480086
26,65,-0.0872665,-0.698132,-0.174533,-0.174533,-0.0854018,-0.698556,-0.158334,-0.193736,-0.23282,0.0169632,-0.404972,0.480086
26,65,-0.0872665,-0.698132,-0.174533,-0.174533,-0.0854018,-0.698556,-0.158334,-0.193736,-0.23282,0.0169632,-0.404972,0.480086
26,65,-0.0872665,-0.698132,-0.174533,-0.174533,-0.0854018,-0.698556,-0.158334,-0.193736,-0.23282,0.0169632,-0.404972,0.480086
26,65,-0.0872665,-0.698132,-0.174533,-0.174533,-0.0854018,-0.698556,-0.158334,-0.193736,-0.23282,0.0169632,-0.404972,0.480086
26,65,-0.0872665,-0.698132,-0.174533,-0.174533,-0.0854018,-0.698556,-0.158334,-0.193736,-0.23282,0.0169632,-0.404972,0.480086
26,65,-0.0872665,-0.698132,-0.174533,-0.174533,-0.0854018,-0.698556,-0.158334,-0.193736,-0.23282,0.0169632,-0.404972,0.480086
26,65,-0.0872665,-0.698132,-0.174533,-0.174533,-0.0854018,-0.698556,-0.158334,-0.193736,-0.23282,0.0169632,-0.404972,0.480086
26,65,-0.0872665,-0.698132,-0.174533,-0.174533,-0.0854018,-0.698556,-0.158334,-0.193736,-0.23282,0.0169632,-0.404972,0.480086
26,65,-0.0872665,-0.698132,-0.174533,-0.174533,-0.0854018,-0.698556,-0.158334,-0.193736,-0.23282,0.0169632,-0.404972,0.480086
26,65,-0.0872665,-0.698132,-0.174533,-0.174533,-0.0854018,-0.698556,-0.158334,-0.193736,-0.23282,0.0169632,-0.404972,0.480086
26,65,-0.0872665,-0.698132,-0.174533,-0.174533,-0.0854018,-0.698556,-0.158334,-0.193736,-0.23282,0.0169632,-0.404972,0.480086
26,65,-0.0872665,-0.698132,-0.174533,-0.174533,-0.0854018,-0.698556,-0.158334,-0.193736,-0.23282,0.0169632,-0.404972,0.480086
26,65,-0.0872665,-0.698132,-0.174533,-0.174533,-0.0853302,-0.698556,-0.158334,-0.193736,-0.239934,0.0169632,-0.404972,0.480086
26,65,-0.0872665,-0.698132,-0.174533,-0.174533,-0.0853302,-0.698556,-0.158334,-0.193736,-0.239934,0.0169632,-0.404972,0.480086
26,65,-0.0872665,-0.698132,-0.174533,-0.174533,-0.0853302,-0.698556,-0.158334,-0.193736,-0.239934,0.0169632,-0.404972,0.480086
26,65,-0.0872665,-0.698132,-0.174533,-0.174533,-0.0853302,-0.698556,-0.158334,-0.193736,-0.239934,0.0169632,-0.404972,0.480086
26,65,-0.0872665,-0.698132,-0.174533,-0.174533,-0.0853302,-0.698556,-0.158334,-0.193736,-0.239934,0.0169632,-0.404972,0.480086
26,65,-0.0872665,-0.698132,-0.174533,-0.174533,-0.0853302,-0.698556,-0.158334,-0.193736,-0.239934,0.0169632,-0.404972,0.480086
26,65,-0.0872665,-0.698132,-0.174533,-0.174533,-0.0853302,-0.698556,-0.158334,-0.193736,-0.239934,0.0169632,-0.404972,0.480086
26,65,-0.0872665,-0.698132,-0.174533,-0.174533,-0.0853302,-0.698556,-0.158334,-0.193736,-0.239934,0.0169632,-0.404972,0.480086
26,65,-0.0872665,-0.698132,-0.174533,-0.174533,-0.0853302,-0.698556,-0.158334,-0.193736,-0.239934,0.0169632,-0.404972,0.480086
26,65,-0.0872665,-0.698132,-0.174533,-0.174533,-0.0853302,-0.698556,-0.158334,-0.193736,-0.239934,0.0169632,-0.404972,0.480086
26,65,-0.0872665,-0.698132,-0.174533,-0.174533,-0.0853302,-0.698556,-0.158334,-0.193736,-0.239934,0.0169632,-0.404972,0.480086
26,65,-0.0872665,-0.698132,-0.174533,-0.174533,-0.0853302,-0.698556,-0.158334,-0.193736,-0.239934,0.0169632,-0.404972,0.480086
26,65,-0.0872665,-0.698132,-0.174533,-0.174533,-0.0853302,-0.698556,-0.158334,-0.193736,-0.239934,0.0169632,-0.404972,0.480086
26,65,-0.0872665,-0.698132,-0.174533,-0.174533,-0.0853302,-0.698556,-0.158334,-0.193736,-0.239934,0.0169632,-0.404972,0.480086
26,65,-0.0872665,-0.698132,-0.174533,-0.174533,-0.0852587,-0.698556,-0.158334,-0.193736,-0.248032,0.0169632,-0.404972,0.480086
26,65,-0.0872665,-0.698132,-0.174533,-0.174533,-0.0852587,-0.698556,-0.158334,-0.193736,-0.248032,0.0169632,-0.404972,0.480086
26,65,-0.0872665,-0.698132,-0.174533,-0.174533,-0.0852587,-0.698556,-0.158334,-0.193736,-0.248032,0.0169632,-0.404972,0.480086
26,65,-0.0872665,-0.698132,-0.174533,-0.174533,-0.0852587,-0.698556,-0.158334,-0.193736,-0.248032,0.0169632,-0.404972,0.480086
26,65,-0.0872665,-0.698132,-0.174533,-0.174533,-0.0852587,-0.698556,-0.158334,-0.193736,-0.248032,0.0169632,-0.404972,0.480086
