stim_pw [us],stim_amp [mA],com_elbow_fe [rad],com_forearm_ps [rad],com_wrist_fe [rad],com_wrist_ru [rad],act_elbow_fe [rad],act_forearm_ps [rad],act_wrist_fe [rad],act_wrist_ru [rad],elbow_fe_trq [Nm],forearm_ps_trq [Nm],wrist_fe_trq [Nm],wrist_ru_trq [Nm]
23,45,-0.0872665,-0.698132,-0.174533,-0.174533,-0.0970703,-0.686964,-0.15786,-0.199345,1.17646,-0.446707,-0.416826,0.620299
23,45,-0.0872665,-0.698132,-0.174533,-0.174533,-0.0970703,-0.686964,-0.15786,-0.199345,1.17646,-0.446707,-0.416826,0.620299
23,45,-0.0872665,-0.698132,-0.174533,-0.174533,-0.0970703,-0.686964,-0.15786,-0.199345,1.17646,-0.446707,-0.416826,0.620299
23,45,-0.0872665,-0.698132,-0.174533,-0.174533,-0.0970703,-0.686964,-0.15786,-0.199345,1.17646,-0.446707,-0.416826,0.620299
23,45,-0.0872665,-0.698132,-0.174533,-0.174533,-0.0970703,-0.686964,-0.15786,-0.199345,1.17646,-0.446707,-0.416826,0.620299
23,45,-0.0872665,-0.698132,-0.174533,-0.174533,-0.0970703,-0.686964,-0.15786,-0.199345,1.17646,-0.446707,-0.416826,0.620299
23,45,-0.0872665,-0.698132,-0.174533,-0.174533,-0.0970703,-0.686964,-0.15786,-0.199345,1.17646,-0.446707,-0.416826,0.620299
23,45,-0.0872665,-0.698132,-0.174533,-0.174533,-0.0970703,-0.686964,-0.15786,-0.199345,1.17646,-0.446707,-0.416826,0.620299
23,45,-0.0872665,-0.698132,-0.174533,-0.174533,-0.0970703,-0.686964,-0.15786,-0.199345,1.17646,-0.446707,-0.416826,0.620299
23,45,-0.0872665,-0.698132,-0.174533,-0.174533,-0.0970703,-0.686964,-0.15786,-0.199345,1.17646,-0.446707,-0.416826,0.620299
23,45,-0.0872665,-0.698132,-0.174533,-0.174533,-0.0970703,-0.686964,-0.15786,-0.199345,1.17646,-0.446707,-0.416826,0.620299
23,45,-0.0872665,-0.698132,-0.174533,-0.174533,-0.0970703,-0.686964,-0.15786,-0.199345,1.17646,-0.446707,-0.416826,0.620299
23,45,-0.0872665,-0.698132,-0.174533,-0.174533,-0.0970703,-0.686964,-0.15786,-0.199345,1.17646,-0.446707,-0.416826,0.620299
23,45,-0.0872665,-0.698132,-0.174533,-0.174533,-0.0970703,-0.686964,-0.157926,-0.199387,1.17646,-0.446707,-0.415162,0.621353
23,45,-0.0872665,-0.698132,-0.174533,-0.174533,-0.0970703,-0.686964,-0.157926,-0.199387,1.17646,-0.446707,-0.415162,0.621353
23,45,-0.0872665,-0.698132,-0.174533,-0.174533,-0.0970703,-0.686964,-0.157926,-0.199387,1.17646,-0.446707,-0.415162,0.621353
23,45,-0.0872665,-0.698132,-0.174533,-0.174533,-0.0970703,-0.686964,-0.157926,-0.199387,1.17646,-0.446707,-0.415162,0.621353
23,45,-0.0872665,-0.698132,-0.174533,-0.174533,-0.0970703,-0.686964,-0.157926,-0.199387,1.17646,-0.446707,-0.415162,0.621353
23,45,-0.0872665,-0.698132,-0.174533,-0.174533,-0.0970703,-0.686964,-0.157926,-0.199387,1.17646,-0.446707,-0.415162,0.621353
23,45,-0.0872665,-0.698132,-0.174533,-0.174533,-0.0970703,-0.686964,-0.157926,-0.199387,1.17646,-0.446707,-0.415162,0.621353
23,45,-0.0872665,-0.698132,-0.174533,-0.174533,-0.0970703,-0.686964,-0.157926,-0.199387,1.17646,-0.446707,-0.415162,0.621353
23,45,-0.0872665,-0.698132,-0.174533,-0.174533,-0.0970703,-0.686964,-0.157926,-0.199387,1.17646,-0.446707,-0.415162,0.621353
23,45,-0.0872665,-0.698132,-0.174533,-0.174533,-0.0970703,-0.686964,-0.157926,-0.199387,1.17646,-0.446707,-0.415162,0.621353
23,45,-0.0872665,-0.698132,-0.174533,-0.174533,-0.0970703,-0.686964,-0.157926,-0.199387,1.17646,-0.446707,-0.415162,0.621353
23,45,-0.0872665,-0.698132,-0.174533,-0.174533,-0.0970703,-0.686964,-0.157926,-0.199387,1.17646,-0.446707,-0.415162,0.621353
23,45,-0.0872665,-0.698132,-0.174533,-0.174533,-0.0970703,-0.686964,-0.157926,-0.199387,1.17646,-0.446707,-0.415162,0.621353
23,45,-0.0872665,-0.698132,-0.174533,-0.174533,-0.0970703,-0.686964,-0.157926,-0.199387,1.17646,-0.446707,-0.415162,0.621353
23,45,-0.0872665,-0.698132,-0.174533,-0.174533,-0.0970703,-0.686964,-0.157926,-0.199387,1.17646,-0.446707,-0.415162,0.621353
23,45,-0.0872665,-0.698132,-0.174533,-0.174533,-0.0970703,-0.686964,-0.157926,-0.199387,1.17646,-0.446707,-0.415162,0.621353
23,45,-0.0872665,-0.698132,-0.174533,-0.174533,-0.0970703,-0.686964,-0.157987,-0.199368,1.17646,-0.446707,-0.413637,0.620872
23,45,-0.0872665,-0.698132,-0.174533,-0.174533,-0.0970703,-0.686964,-0.157987,-0.199368,1.17646,-0.446707,-0.413637,0.620872
23,45,-0.0872665,-0.698132,-0.174533,-0.174533,-0.0970703,-0.686964,-0.157987,-0.199368,1.17646,-0.446707,-0.413637,0.620872
23,45,-0.0872665,-0.698132,-0.174533,-0.174533,-0.0970703,-0.686964,-0.157987,-0.199368,1.17646,-0.446707,-0.413637,0.620872
23,45,-0.0872665,-0.698132,-0.174533,-0.174533,-0.0970703,-0.686964,-0.157987,-0.199368,1.17646,-0.446707,-0.413637,0.620872
23,45,-0.0872665,-0.698132,-0.174533,-0.174533,-0.0970703,-0.686964,-0.157987,-0.199368,1.17646,-0.446707,-0.413637,0.620872
23,45,-0.0872665,-0.698132,-0.174533,-0.174533,-0.0970703,-0.686964,-0.157987,-0.199368,1.17646,-0.446707,-0.413637,0.620872
23,45,-0.0872665,-0.698132,-0.174533,-0.174533,-0.0970703,-0.686964,-0.157987,-0.199368,1.17646,-0.446707,-0.413637,0.620872
23,45,-0.0872665,-0.698132,-0.174533,-0.174533,-0.0970703,-0.686964,-0.157987,-0.199368,1.17646,-0.446707,-0.413637,0.620872
23,45,-0.0872665,-0.698132,-0.174533,-0.174533,-0.0970703,-0.686964,-0.157987,-0.199368,1.17646,-0.446707,-0.413637,0.620872
23,45,-0.0872665,-0.698132,-0.174533,-0.174533,-0.0970703,-0.686964,-0.157987,-0.199368,1.17646,-0.446707,-0.413637,0.620872
23,45,-0.0872665,-0.698132,-0.174533,-0.174533,-0.0970703,-0.686964,-0.157987,-0.199368,1.17646,-0.446707,-0.413637,0.620872
23,45,-0.0872665,-0.698132,-0.174533,-0.174533,-0.0970703,-0.686964,-0.157987,-0.199368,1.17646,-0.446707,-0.413637,0.620872
23,45,-0.0872665,-0.698132,-0.174533,-0.174533,-0.0970703,-0.686964,-0.157987,-0.199368,1.17646,-0.446707,-0.413637,0.620872
23,45,-0.0872665,-0.698132,-0.174533,-0.174533,-0.0970703,-0.686964,-0.157987,-0.199368,1.17646,-0.446707,-0.413637,0.620872
23,45,-0.0872665,-0.698132,-0.174533,-0.174533,-0.0970703,-0.686964,-0.157987,-0.199368,1.17646,-0.446707,-0.413637,0.620872
23,45,-0.0872665,-0.698132,-0.174533,-0.174533,-0.0970703,-0.686964,-0.157987,-0.199368,1.17646,-0.446707,-0.413637,0.620872
23,45,-0.0872665,-0.698132,-0.174533,-0.174533,-0.0970703,-0.686964,-0.157987,-0.199368,1.17646,-0.446707,-0.413637,0.620872
23,45,-0.0872665,-0.698132,-0.174533,-0.174533,-0.0970703,-0.686964,-0.157987,-0.199368,1.17646,-0.446707,-0.413637,0.620872
23,45,-0.0872665,-0.698132,-0.174533,-0.174533,-0.0970703,-0.686964,-0.157987,-0.199368,1.17646,-0.446707,-0.413637,0.620872
23,45,-0.0872665,-0.698132,-0.174533,-0.174533,-0.0970703,-0.686964,-0.157987,-0.199368,1.17646,-0.446707,-0.413637,0.620872
23,45,-0.0872665,-0.698132,-0.174533,-0.174533,-0.0970703,-0.686964,-0.157987,-0.199368,1.17646,-0.446707,-0.413637,0.620872
23,45,-0.0872665,-0.698132,-0.174533,-0.174533,-0.0970703,-0.686964,-0.157987,-0.199368,1.17646,-0.446707,-0.413637,0.620872
23,45,-0.0872665,-0.698132,-0.174533,-0.174533,-0.0970703,-0.686964,-0.157987,-0.199368,1.17646,-0.446707,-0.413637,0.620872
23,45,-0.0872665,-0.698132,-0.174533,-0.174533,-0.0970703,-0.686964,-0.157987,-0.199368,1.17646,-0.446707,-0.413637,0.620872
23,45,-0.0872665,-0.698132,-0.174533,-0.174533,-0.0970703,-0.686964,-0.157987,-0.199368,1.17646,-0.446707,-0.413637,0.620872
23,45,-0.0872665,-0.698132,-0.174533,-0.174533,-0.0970703,-0.686964,-0.157987,-0.199368,1.17646,-0.446707,-0.413637,0.620872
23,45,-0.0872665,-0.698132,-0.174533,-0.174533,-0.0970703,-0.686964,-0.157987,-0.199368,1.17646,-0.446707,-0.413637,0.620872
23,45,-0.0872665,-0.698132,-0.174533,-0.174533,-0.0970703,-0.686964,-0.157987,-0.199368,1.17646,-0.446707,-0.413637,0.620872
23,45,-0.0872665,-0.698132,-0.174533,-0.174533,-0.0970703,-0.686964,-0.157987,-0.199368,1.17646,-0.446707,-0.413637,0.620872
23,45,-0.0872665,-0.698132,-0.174533,-0.174533,-0.0970703,-0.686964,-0.157987,-0.199368,1.17646,-0.446707,-0.413637,0.620872
23,45,-0.0872665,-0.698132,-0.174533,-0.174533,-0.0970703,-0.686964,-0.157987,-0.199368,1.17646,-0.446707,-0.413637,0.620872
23,45,-0.0872665,-0.698132,-0.174533,-0.174533,-0.0970703,-0.686964,-0.157987,-0.199368,1.17646,-0.446707,-0.413637,0.620872
23,45,-0.0872665,-0.698132,-0.174533,-0.174533,-0.0970703,-0.686964,-0.157987,-0.199368,1.17646,-0.446707,-0.413637,0.620872
23,45,-0.0872665,-0.698132,-0.174533,-0.174533,-0.0970703,-0.686964,-0.157987,-0.199368,1.17646,-0.446707,-0.413637,0.620872
23,45,-0.0872665,-0.698132,-0.174533,-0.174533,-0.0970703,-0.686964,-0.157987,-0.199368,1.17646,-0.446707,-0.413637,0.620872
23,45,-0.0872665,-0.698132,-0.174533,-0.174533,-0.0970703,-0.686964,-0.157987,-0.199368,1.17646,-0.446707,-0.413637,0.620872
23,45,-0.0872665,-0.698132,-0.174533,-0.174533,-0.0970703,-0.686964,-0.157987,-0.199368,1.17646,-0.446707,-0.413637,0.620872
23,45,-0.0872665,-0.698132,-0.174533,-0.174533,-0.0970703,-0.686964,-0.157987,-0.199368,1.17646,-0.446707,-0.413637,0.620872
23,45,-0.0872665,-0.698132,-0.174533,-0.174533,-0.0970703,-0.686964,-0.157987,-0.199368,1.17646,-0.446707,-0.413637,0.620872
23,45,-0.0872665,-0.698132,-0.174533,-0.174533,-0.0970703,-0.686964,-0.157987,-0.199368,1.17646,-0.446707,-0.413637,0.620872
23,45,-0.0872665,-0.698132,-0.174533,-0.174533,-0.0970703,-0.686964,-0.157987,-0.199368,1.17646,-0.446707,-0.413637,0.620872
23,45,-0.0872665,-0.698132,-0.174533,-0.174533,-0.0970703,-0.686964,-0.157987,-0.199368,1.17646,-0.446707,-0.413637,0.620872
23,45,-0.0872665,-0.698132,-0.174533,-0.174533,-0.0970703,-0.686964,-0.157987,-0.199368,1.17646,-0.446707,-0.413637,0.620872
23,45,-0.0872665,-0.698132,-0.174533,-0.174533,-0.0970703,-0.686964,-0.157987,-0.199368,1.17646,-0.446707,-0.413637,0.620872
23,45,-0.0872665,-0.698132,-0.174533,-0.174533,-0.0970703,-0.686964,-0.157987,-0.199368,1.17646,-0.446707,-0.413637,0.620872
23,45,-0.0872665,-0.698132,-0.174533,-0.174533,-0.0970703,-0.686964,-0.157987,-0.199368,1.17646,-0.446707,-0.413637,0.620872
23,45,-0.0872665,-0.698132,-0.174533,-0.174533,-0.0970703,-0.686964,-0.158048,-0.199349,1.17646,-0.446707,-0.412112,0.620392
23,45,-0.0872665,-0.698132,-0.174533,-0.174533,-0.0970703,-0.686964,-0.158048,-0.199349,1.17646,-0.446707,-0.412112,0.620392
23,45,-0.0872665,-0.698132,-0.174533,-0.174533,-0.0970703,-0.686964,-0.158048,-0.199349,1.17646,-0.446707,-0.412112,0.620392
23,45,-0.0872665,-0.698132,-0.174533,-0.174533,-0.0970703,-0.686964,-0.158048,-0.199349,1.17646,-0.446707,-0.412112,0.620392
23,45,-0.0872665,-0.698132,-0.174533,-0.174533,-0.0970703,-0.686964,-0.158048,-0.199349,1.17646,-0.446707,-0.412112,0.620392
23,45,-0.0872665,-0.698132,-0.174533,-0.174533,-0.0970703,-0.686964,-0.158048,-0.199349,1.17646,-0.446707,-0.412112,0.620392
23,45,-0.0872665,-0.698132,-0.174533,-0.174533,-0.0970703,-0.686964,-0.158048,-0.199349,1.17646,-0.446707,-0.412112,0.620392
23,45,-0.0872665,-0.698132,-0.174533,-0.174533,-0.0970703,-0.686964,-0.158048,-0.199349,1.17646,-0.446707,-0.412112,0.620392
23,45,-0.0872665,-0.698132,-0.174533,-0.174533,-0.0970703,-0.686964,-0.158048,-0.199349,1.17646,-0.446707,-0.412112,0.620392
23,45,-0.0872665,-0.698132,-0.174533,-0.174533,-0.0970703,-0.686964,-0.158048,-0.199349,1.17646,-0.446707,-0.412112,0.620392
23,45,-0.0872665,-0.698132,-0.174533,-0.174533,-0.0970703,-0.686964,-0.158048,-0.199349,1.17646,-0.446707,-0.412112,0.620392
23,45,-0.0872665,-0.698132,-0.174533,-0.174533,-0.0970703,-0.686964,-0.158048,-0.199349,1.17646,-0.446707,-0.412112,0.620392
23,45,-0.0872665,-0.698132,-0.174533,-0.174533,-0.0970703,-0.686964,-0.158048,-0.199349,1.17646,-0.446707,-0.412112,0.620392
23,45,-0.0872665,-0.698132,-0.174533,-0.174533,-0.0970703,-0.686964,-0.158048,-0.199349,1.17646,-0.446707,-0.412112,0.620392
23,45,-0.0872665,-0.698132,-0.174533,-0.174533,-0.0970703,-0.686964,-0.158048,-0.199349,1.17646,-0.446707,-0.412112,0.620392
23,45,-0.0872665,-0.698132,-0.174533,-0.174533,-0.0970703,-0.686964,-0.158048,-0.199349,1.17646,-0.446707,-0.412112,0.620392
23,45,-0.0872665,-0.698132,-0.174533,-0.174533,-0.0970703,-0.686964,-0.158048,-0.199349,1.17646,-0.446707,-0.412112,0.620392
23,45,-0.0872665,-0.698132,-0.174533,-0.174533,-0.0970703,-0.686964,-0.158048,-0.199349,1.17646,-0.446707,-0.412112,0.620392
23,45,-0.0872665,-0.698132,-0.174533,-0.174533,-0.0970703,-0.686964,-0.158048,-0.199349,1.17646,-0.446707,-0.412112,0.620392
23,45,-0.0872665,-0.698132,-0.174533,-0.174533,-0.0970703,-0.686964,-0.158048,-0.199349,1.17646,-0.446707,-0.412112,0.620392
23,45,-0.0872665,-0.698132,-0.174533,-0.174533,-0.0970703,-0.686964,-0.158048,-0.199349,1.17646,-0.446707,-0.412112,0.620392
23,45,-0.0872665,-0.698132,-0.174533,-0.174533,-0.0970703,-0.686964,-0.158048,-0.199349,1.17646,-0.446707,-0.412112,0.620392
23,45,-0.0872665,-0.698132,-0.174533,-0.174533,-0.0970703,-0.686964,-0.158048,-0.199349,1.17646,-0.446707,-0.412112,0.620392
23,45,-0.0872665,-0.698132,-0.174533,-0.174533,-0.0970703,-0.686964,-0.158048,-0.199349,1.17646,-0.446707,-0.412112,0.620392
23,45,-0.0872665,-0.698132,-0.174533,-0.174533,-0.0970703,-0.686964,-0.158048,-0.199349,1.17646,-0.446707,-0.412112,0.620392
23,45,-0.0872665,-0.698132,-0.174533,-0.174533,-0.0970703,-0.686964,-0.158048,-0.199349,1.17646,-0.446707,-0.412112,0.620392
23,45,-0.0872665,-0.698132,-0.174533,-0.174533,-0.0970703,-0.686964,-0.158048,-0.199349,1.17646,-0.446707,-0.412112,0.620392
23,45,-0.0872665,-0.698132,-0.174533,-0.174533,-0.0970703,-0.686964,-0.158048,-0.199349,1.17646,-0.446707,-0.412112,0.620392
23,45,-0.0872665,-0.698132,-0.174533,-0.174533,-0.0970703,-0.686964,-0.158048,-0.199349,1.17646,-0.446707,-0.412112,0.620392
23,45,-0.0872665,-0.698132,-0.174533,-0.174533,-0.0970703,-0.686964,-0.158048,-0.199349,1.17646,-0.446707,-0.412112,0.620392
23,45,-0.0872665,-0.698132,-0.174533,-0.174533,-0.0970703,-0.686964,-0.158048,-0.199349,1.17646,-0.446707,-0.412112,0.620392
23,45,-0.0872665,-0.698132,-0.174533,-0.174533,-0.0970703,-0.686964,-0.158048,-0.199349,1.17646,-0.446707,-0.412112,0.620392
23,45,-0.0872665,-0.698132,-0.174533,-0.174533,-0.0970703,-0.686964,-0.158048,-0.199349,1.17646,-0.446707,-0.412112,0.620392
23,45,-0.0872665,-0.698132,-0.174533,-0.174533,-0.0970703,-0.686964,-0.158048,-0.199349,1.17646,-0.446707,-0.412112,0.620392
23,45,-0.0872665,-0.698132,-0.174533,-0.174533,-0.0970703,-0.686964,-0.158048,-0.199349,1.17646,-0.446707,-0.412112,0.620392
23,45,-0.0872665,-0.698132,-0.174533,-0.174533,-0.0970703,-0.686964,-0.158048,-0.199349,1.17646,-0.446707,-0.412112,0.620392
23,45,-0.0872665,-0.698132,-0.174533,-0.174533,-0.0970703,-0.686964,-0.158048,-0.199349,1.17646,-0.446707,-0.412112,0.620392
23,45,-0.0872665,-0.698132,-0.174533,-0.174533,-0.0970703,-0.686964,-0.158048,-0.199349,1.17646,-0.446707,-0.412112,0.620392
23,45,-0.0872665,-0.698132,-0.174533,-0.174533,-0.0970703,-0.686964,-0.158048,-0.199349,1.17646,-0.446707,-0.412112,0.620392
23,45,-0.0872665,-0.698132,-0.174533,-0.174533,-0.0970703,-0.686964,-0.158048,-0.199349,1.17646,-0.446707,-0.412112,0.620392
23,45,-0.0872665,-0.698132,-0.174533,-0.174533,-0.0970703,-0.686964,-0.158048,-0.199349,1.17646,-0.446707,-0.412112,0.620392
23,45,-0.0872665,-0.698132,-0.174533,-0.174533,-0.0970703,-0.686964,-0.158048,-0.199349,1.17646,-0.446707,-0.412112,0.620392
23,45,-0.0872665,-0.698132,-0.174533,-0.174533,-0.0970703,-0.686964,-0.158048,-0.199349,1.17646,-0.446707,-0.412112,0.620392
23,45,-0.0872665,-0.698132,-0.174533,-0.174533,-0.0970703,-0.686964,-0.158048,-0.199349,1.17646,-0.446707,-0.412112,0.620392
23,45,-0.0872665,-0.698132,-0.174533,-0.174533,-0.0970703,-0.686964,-0.158048,-0.199349,1.17646,-0.446707,-0.412112,0.620392
23,45,-0.0872665,-0.698132,-0.174533,-0.174533,-0.0970703,-0.686964,-0.158048,-0.199349,1.17646,-0.446707,-0.412112,0.620392
23,45,-0.0872665,-0.698132,-0.174533,-0.174533,-0.0970703,-0.686964,-0.158048,-0.199349,1.17646,-0.446707,-0.412112,0.620392
23,45,-0.0872665,-0.698132,-0.174533,-0.174533,-0.0970703,-0.686964,-0.158048,-0.199349,1.17646,-0.446707,-0.412112,0.620392
23,45,-0.0872665,-0.698132,-0.174533,-0.174533,-0.0970703,-0.686964,-0.158048,-0.199349,1.17646,-0.446707,-0.412112,0.620392
23,45,-0.0872665,-0.698132,-0.174533,-0.174533,-0.0970703,-0.686964,-0.158048,-0.199349,1.17646,-0.446707,-0.412112,0.620392
23,45,-0.0872665,-0.698132,-0.174533,-0.174533,-0.0970703,-0.686964,-0.158048,-0.199349,1.17646,-0.446707,-0.412112,0.620392
23,45,-0.0872665,-0.698132,-0.174533,-0.174533,-0.0970703,-0.686964,-0.158048,-0.199349,1.17646,-0.446707,-0.412112,0.620392
23,45,-0.0872665,-0.698132,-0.174533,-0.174533,-0.0970703,-0.686964,-0.158048,-0.199349,1.17646,-0.446707,-0.412112,0.620392
23,45,-0.0872665,-0.698132,-0.174533,-0.174533,-0.0970703,-0.686964,-0.158048,-0.199349,1.17646,-0.446707,-0.412112,0.620392
23,45,-0.0872665,-0.698132,-0.174533,-0.174533,-0.0970703,-0.686964,-0.158048,-0.199349,1.17646,-0.446707,-0.412112,0.620392
23,45,-0.0872665,-0.698132,-0.174533,-0.174533,-0.0970703,-0.686964,-0.158048,-0.199349,1.17646,-0.446707,-0.412112,0.620392
23,45,-0.0872665,-0.698132,-0.174533,-0.174533,-0.0970703,-0.686964,-0.158048,-0.199349,1.17646,-0.446707,-0.412112,0.620392
23,45,-0.0872665,-0.698132,-0.174533,-0.174533,-0.0970703,-0.686964,-0.158048,-0.199349,1.17646,-0.446707,-0.412112,0.620392
23,45,-0.0872665,-0.698132,-0.174533,-0.174533,-0.0970703,-0.686964,-0.158048,-0.199349,1.17646,-0.446707,-0.412112,0.620392
23,45,-0.0872665,-0.698132,-0.174533,-0.174533,-0.0970703,-0.686964,-0.158048,-0.199349,1.17646,-0.446707,-0.412112,0.620392
23,45,-0.0872665,-0.698132,-0.174533,-0.174533,-0.0970703,-0.686964,-0.158048,-0.199349,1.17646,-0.446707,-0.412112,0.620392
23,45,-0.0872665,-0.698132,-0.174533,-0.174533,-0.0970703,-0.686964,-0.158048,-0.199349,1.17646,-0.446707,-0.412112,0.620392
23,45,-0.0872665,-0.698132,-0.174533,-0.174533,-0.0970703,-0.686964,-0.158048,-0.199349,1.17646,-0.446707,-0.412112,0.620392
23,45,-0.0872665,-0.698132,-0.174533,-0.174533,-0.0970703,-0.686964,-0.158048,-0.199349,1.17646,-0.446707,-0.412112,0.620392
23,45,-0.0872665,-0.698132,-0.174533,-0.174533,-0.0970703,-0.686964,-0.158048,-0.199349,1.17646,-0.446707,-0.412112,0.620392
23,45,-0.0872665,-0.698132,-0.174533,-0.174533,-0.0970703,-0.686964,-0.158048,-0.199349,1.17646,-0.446707,-0.412112,0.620392
23,45,-0.0872665,-0.698132,-0.174533,-0.174533,-0.0970703,-0.686964,-0.158048,-0.199349,1.17646,-0.446707,-0.412112,0.620392
23,45,-0.0872665,-0.698132,-0.174533,-0.174533,-0.0970703,-0.686964,-0.158048,-0.199349,1.17646,-0.446707,-0.412112,0.620392
23,45,-0.0872665,-0.698132,-0.174533,-0.174533,-0.0970703,-0.686964,-0.158048,-0.199349,1.17646,-0.446707,-0.412112,0.620392
23,45,-0.0872665,-0.698132,-0.174533,-0.174533,-0.0970703,-0.686964,-0.158048,-0.199349,1.17646,-0.446707,-0.412112,0.620392
23,45,-0.0872665,-0.698132,-0.174533,-0.174533,-0.0970703,-0.686964,-0.158048,-0.199349,1.17646,-0.446707,-0.412112,0.620392
23,45,-0.0872665,-0.698132,-0.174533,-0.174533,-0.0970703,-0.686964,-0.158048,-0.199349,1.17646,-0.446707,-0.412112,0.620392
23,45,-0.0872665,-0.698132,-0.174533,-0.174533,-0.0970703,-0.686964,-0.158048,-0.199349,1.17646,-0.446707,-0.412112,0.620392
23,45,-0.0872665,-0.698132,-0.174533,-0.174533,-0.0970703,-0.686964,-0.158048,-0.199349,1.17646,-0.446707,-0.412112,0.620392
23,45,-0.0872665,-0.698132,-0.174533,-0.174533,-0.0970703,-0.686964,-0.158048,-0.199349,1.17646,-0.446707,-0.412112,0.620392
23,45,-0.0872665,-0.698132,-0.174533,-0.174533,-0.0970703,-0.686964,-0.158048,-0.199349,1.17646,-0.446707,-0.412112,0.620392
23,45,-0.0872665,-0.698132,-0.174533,-0.174533,-0.0970703,-0.686964,-0.158048,-0.199349,1.17646,-0.446707,-0.412112,0.620392
23,45,-0.0872665,-0.698132,-0.174533,-0.174533,-0.0970703,-0.686964,-0.158048,-0.199349,1.17646,-0.446707,-0.412112,0.620392
23,45,-0.0872665,-0.698132,-0.174533,-0.174533,-0.0970703,-0.686964,-0.158048,-0.199349,1.17646,-0.446707,-0.412112,0.620392
23,45,-0.0872665,-0.698132,-0.174533,-0.174533,-0.0970703,-0.686964,-0.158048,-0.199349,1.17646,-0.446707,-0.412112,0.620392
23,45,-0.0872665,-0.698132,-0.174533,-0.174533,-0.0970703,-0.686964,-0.158048,-0.199349,1.17646,-0.446707,-0.412112,0.620392
23,45,-0.0872665,-0.698132,-0.174533,-0.174533,-0.0970703,-0.686964,-0.158048,-0.199349,1.17646,-0.446707,-0.412112,0.620392
23,45,-0.0872665,-0.698132,-0.174533,-0.174533,-0.0970703,-0.686964,-0.158048,-0.199349,1.17646,-0.446707,-0.412112,0.620392
23,45,-0.0872665,-0.698132,-0.174533,-0.174533,-0.0970703,-0.686964,-0.158048,-0.199349,1.17646,-0.446707,-0.412112,0.620392
23,45,-0.0872665,-0.698132,-0.174533,-0.174533,-0.0970703,-0.686964,-0.158048,-0.199349,1.17646,-0.446707,-0.412112,0.620392
23,45,-0.0872665,-0.698132,-0.174533,-0.174533,-0.0970703,-0.686964,-0.158048,-0.199349,1.17646,-0.446707,-0.412112,0.620392
23,45,-0.0872665,-0.698132,-0.174533,-0.174533,-0.0970703,-0.686964,-0.158048,-0.199349,1.17646,-0.446707,-0.412112,0.620392
23,45,-0.0872665,-0.698132,-0.174533,-0.174533,-0.0970703,-0.686964,-0.158048,-0.199349,1.17646,-0.446707,-0.412112,0.620392
23,45,-0.0872665,-0.698132,-0.174533,-0.174533,-0.0970703,-0.686964,-0.158048,-0.199349,1.17646,-0.446707,-0.412112,0.620392
23,45,-0.0872665,-0.698132,-0.174533,-0.174533,-0.0970703,-0.686964,-0.158048,-0.199349,1.17646,-0.446707,-0.412112,0.620392
23,45,-0.0872665,-0.698132,-0.174533,-0.174533,-0.0970703,-0.686964,-0.158048,-0.199349,1.17646,-0.446707,-0.412112,0.620392
23,45,-0.0872665,-0.698132,-0.174533,-0.174533,-0.0970703,-0.686964,-0.158048,-0.199349,1.17646,-0.446707,-0.412112,0.620392
23,45,-0.0872665,-0.698132,-0.174533,-0.174533,-0.0970703,-0.686964,-0.158048,-0.199349,1.17646,-0.446707,-0.412112,0.620392
23,45,-0.0872665,-0.698132,-0.174533,-0.174533,-0.0970703,-0.686964,-0.158048,-0.199349,1.17646,-0.446707,-0.412112,0.620392
23,45,-0.0872665,-0.698132,-0.174533,-0.174533,-0.0970703,-0.686964,-0.158048,-0.199349,1.17646,-0.446707,-0.412112,0.620392
23,45,-0.0872665,-0.698132,-0.174533,-0.174533,-0.0970703,-0.686964,-0.158048,-0.199349,1.17646,-0.446707,-0.412112,0.620392
23,45,-0.0872665,-0.698132,-0.174533,-0.174533,-0.0970703,-0.686964,-0.158048,-0.199349,1.17646,-0.446707,-0.412112,0.620392
23,45,-0.0872665,-0.698132,-0.174533,-0.174533,-0.0970703,-0.686964,-0.158048,-0.199349,1.17646,-0.446707,-0.412112,0.620392
23,45,-0.0872665,-0.698132,-0.174533,-0.174533,-0.0970703,-0.686964,-0.158048,-0.199349,1.17646,-0.446707,-0.412112,0.620392
23,45,-0.0872665,-0.698132,-0.174533,-0.174533,-0.0970703,-0.686964,-0.158048,-0.199349,1.17646,-0.446707,-0.412112,0.620392
23,45,-0.0872665,-0.698132,-0.174533,-0.174533,-0.0970703,-0.686964,-0.158048,-0.199349,1.17646,-0.446707,-0.412112,0.620392
23,45,-0.0872665,-0.698132,-0.174533,-0.174533,-0.0970703,-0.686964,-0.158048,-0.199349,1.17646,-0.446707,-0.412112,0.620392
23,45,-0.0872665,-0.698132,-0.174533,-0.174533,-0.0970703,-0.686964,-0.158048,-0.199349,1.17646,-0.446707,-0.412112,0.620392
23,45,-0.0872665,-0.698132,-0.174533,-0.174533,-0.0970703,-0.686964,-0.158048,-0.199349,1.17646,-0.446707,-0.412112,0.620392
23,45,-0.0872665,-0.698132,-0.174533,-0.174533,-0.0970703,-0.686964,-0.158048,-0.199349,1.17646,-0.446707,-0.412112,0.620392
23,45,-0.0872665,-0.698132,-0.174533,-0.174533,-0.0970703,-0.686964,-0.158048,-0.199349,1.17646,-0.446707,-0.412112,0.620392
23,45,-0.0872665,-0.698132,-0.174533,-0.174533,-0.0970703,-0.686964,-0.158048,-0.199349,1.17646,-0.446707,-0.412112,0.620392
23,45,-0.0872665,-0.698132,-0.174533,-0.174533,-0.0970703,-0.686964,-0.158048,-0.199349,1.17646,-0.446707,-0.412112,0.620392
23,45,-0.0872665,-0.698132,-0.174533,-0.174533,-0.0970703,-0.686964,-0.158048,-0.199349,1.17646,-0.446707,-0.412112,0.620392
23,45,-0.0872665,-0.698132,-0.174533,-0.174533,-0.0970703,-0.686964,-0.158048,-0.199349,1.17646,-0.446707,-0.412112,0.620392
23,45,-0.0872665,-0.698132,-0.174533,-0.174533,-0.0970703,-0.686964,-0.158048,-0.199349,1.17646,-0.446707,-0.412112,0.620392
23,45,-0.0872665,-0.698132,-0.174533,-0.174533,-0.0970703,-0.686964,-0.158048,-0.199349,1.17646,-0.446707,-0.412112,0.620392
23,45,-0.0872665,-0.698132,-0.174533,-0.174533,-0.0970703,-0.686964,-0.158048,-0.199349,1.17646,-0.446707,-0.412112,0.620392
23,45,-0.0872665,-0.698132,-0.174533,-0.174533,-0.0970703,-0.686964,-0.158048,-0.199349,1.17646,-0.446707,-0.412112,0.620392
23,45,-0.0872665,-0.698132,-0.174533,-0.174533,-0.0970703,-0.686964,-0.158048,-0.199349,1.17646,-0.446707,-0.412112,0.620392
23,45,-0.0872665,-0.698132,-0.174533,-0.174533,-0.0970703,-0.686964,-0.158048,-0.199349,1.17646,-0.446707,-0.412112,0.620392
23,45,-0.0872665,-0.698132,-0.174533,-0.174533,-0.0970703,-0.686964,-0.158048,-0.199349,1.17646,-0.446707,-0.412112,0.620392
23,45,-0.0872665,-0.698132,-0.174533,-0.174533,-0.0970703,-0.686964,-0.158048,-0.199349,1.17646,-0.446707,-0.412112,0.620392
23,45,-0.0872665,-0.698132,-0.174533,-0.174533,-0.0970703,-0.686964,-0.158048,-0.199349,1.17646,-0.446707,-0.412112,0.620392
23,45,-0.0872665,-0.698132,-0.174533,-0.174533,-0.0970703,-0.686964,-0.158048,-0.199349,1.17646,-0.446707,-0.412112,0.620392
23,45,-0.0872665,-0.698132,-0.174533,-0.174533,-0.0970703,-0.686964,-0.158048,-0.199349,1.17646,-0.446707,-0.412112,0.620392
23,45,-0.0872665,-0.698132,-0.174533,-0.174533,-0.0970703,-0.686964,-0.158048,-0.199349,1.17646,-0.446707,-0.412112,0.620392
23,45,-0.0872665,-0.698132,-0.174533,-0.174533,-0.0970703,-0.686964,-0.158048,-0.199349,1.17646,-0.446707,-0.412112,0.620392
23,45,-0.0872665,-0.698132,-0.174533,-0.174533,-0.0970703,-0.686964,-0.158048,-0.199349,1.17646,-0.446707,-0.412112,0.620392
23,45,-0.0872665,-0.698132,-0.174533,-0.174533,-0.0970703,-0.686964,-0.158048,-0.199349,1.17646,-0.446707,-0.412112,0.620392
23,45,-0.0872665,-0.698132,-0.174533,-0.174533,-0.0970703,-0.686964,-0.158048,-0.199349,1.17646,-0.446707,-0.412112,0.620392
23,45,-0.0872665,-0.698132,-0.174533,-0.174533,-0.0970703,-0.686964,-0.158048,-0.199349,1.17646,-0.446707,-0.412112,0.620392
23,45,-0.0872665,-0.698132,-0.174533,-0.174533,-0.0970703,-0.686964,-0.158048,-0.199349,1.17646,-0.446707,-0.412112,0.620392
23,45,-0.0872665,-0.698132,-0.174533,-0.174533,-0.0970703,-0.686964,-0.158048,-0.199349,1.17646,-0.446707,-0.412112,0.620392
23,45,-0.0872665,-0.698132,-0.174533,-0.174533,-0.0970703,-0.686964,-0.158048,-0.199349,1.17646,-0.446707,-0.412112,0.620392
23,45,-0.0872665,-0.698132,-0.174533,-0.174533,-0.0970703,-0.686964,-0.158048,-0.199349,1.17646,-0.446707,-0.412112,0.620392
23,45,-0.0872665,-0.698132,-0.174533,-0.174533,-0.0970703,-0.686964,-0.158048,-0.199349,1.17646,-0.446707,-0.412112,0.620392
23,45,-0.0872665,-0.698132,-0.174533,-0.174533,-0.0970703,-0.686964,-0.158048,-0.199349,1.17646,-0.446707,-0.412112,0.620392
23,45,-0.0872665,-0.698132,-0.174533,-0.174533,-0.0970703,-0.686964,-0.158048,-0.199349,1.17646,-0.446707,-0.412112,0.620392
23,45,-0.0872665,-0.698132,-0.174533,-0.174533,-0.0970703,-0.686964,-0.158048,-0.199349,1.17646,-0.446707,-0.412112,0.620392
23,45,-0.0872665,-0.698132,-0.174533,-0.174533,-0.0970703,-0.686964,-0.158109,-0.199329,1.17646,-0.446707,-0.410587,0.619912
23,45,-0.0872665,-0.698132,-0.174533,-0.174533,-0.0970703,-0.686964,-0.158109,-0.199329,1.17646,-0.446707,-0.410587,0.619912
23,45,-0.0872665,-0.698132,-0.174533,-0.174533,-0.0970703,-0.686964,-0.158109,-0.199329,1.17646,-0.446707,-0.410587,0.619912
23,45,-0.0872665,-0.698132,-0.174533,-0.174533,-0.0970703,-0.686964,-0.158109,-0.199329,1.17646,-0.446707,-0.410587,0.619912
23,45,-0.0872665,-0.698132,-0.174533,-0.174533,-0.0970703,-0.686964,-0.158109,-0.199329,1.17646,-0.446707,-0.410587,0.619912
23,45,-0.0872665,-0.698132,-0.174533,-0.174533,-0.0970703,-0.686964,-0.158109,-0.199329,1.17646,-0.446707,-0.410587,0.619912
23,45,-0.0872665,-0.698132,-0.174533,-0.174533,-0.0970703,-0.686964,-0.158109,-0.199329,1.17646,-0.446707,-0.410587,0.619912
23,45,-0.0872665,-0.698132,-0.174533,-0.174533,-0.0970703,-0.686964,-0.158109,-0.199329,1.17646,-0.446707,-0.410587,0.619912
23,45,-0.0872665,-0.698132,-0.174533,-0.174533,-0.0970703,-0.686964,-0.158109,-0.199329,1.17646,-0.446707,-0.410587,0.619912
23,45,-0.0872665,-0.698132,-0.174533,-0.174533,-0.0970703,-0.686964,-0.158109,-0.199329,1.17646,-0.446707,-0.410587,0.619912
23,45,-0.0872665,-0.698132,-0.174533,-0.174533,-0.0970703,-0.686964,-0.158109,-0.199329,1.17646,-0.446707,-0.410587,0.619912
23,45,-0.0872665,-0.698132,-0.174533,-0.174533,-0.0970703,-0.686964,-0.158109,-0.199329,1.17646,-0.446707,-0.410587,0.619912
23,45,-0.0872665,-0.698132,-0.174533,-0.174533,-0.0970703,-0.686964,-0.158109,-0.199329,1.17646,-0.446707,-0.410587,0.619912
23,45,-0.0872665,-0.698132,-0.174533,-0.174533,-0.0970703,-0.686964,-0.158109,-0.199329,1.17646,-0.446707,-0.410587,0.619912
23,45,-0.0872665,-0.698132,-0.174533,-0.174533,-0.0970703,-0.686964,-0.158109,-0.199329,1.17646,-0.446707,-0.410587,0.619912
23,45,-0.0872665,-0.698132,-0.174533,-0.174533,-0.0970703,-0.686964,-0.158109,-0.199329,1.17646,-0.446707,-0.410587,0.619912
23,45,-0.0872665,-0.698132,-0.174533,-0.174533,-0.0970703,-0.686964,-0.158109,-0.199329,1.17646,-0.446707,-0.410587,0.619912
23,45,-0.0872665,-0.698132,-0.174533,-0.174533,-0.0970703,-0.686964,-0.158109,-0.199329,1.17646,-0.446707,-0.410587,0.619912
23,45,-0.0872665,-0.698132,-0.174533,-0.174533,-0.0970703,-0.686964,-0.158109,-0.199329,1.17646,-0.446707,-0.410587,0.619912
23,45,-0.0872665,-0.698132,-0.174533,-0.174533,-0.0970703,-0.686964,-0.158109,-0.199329,1.17646,-0.446707,-0.410587,0.619912
23,45,-0.0872665,-0.698132,-0.174533,-0.174533,-0.0970703,-0.686964,-0.158109,-0.199329,1.17646,-0.446707,-0.410587,0.619912
23,45,-0.0872665,-0.698132,-0.174533,-0.174533,-0.0970703,-0.686964,-0.158109,-0.199329,1.17646,-0.446707,-0.410587,0.619912
23,45,-0.0872665,-0.698132,-0.174533,-0.174533,-0.0970703,-0.686964,-0.158109,-0.199329,1.17646,-0.446707,-0.410587,0.619912
23,45,-0.0872665,-0.698132,-0.174533,-0.174533,-0.0970703,-0.686964,-0.158109,-0.199329,1.17646,-0.446707,-0.410587,0.619912
23,45,-0.0872665,-0.698132,-0.174533,-0.174533,-0.0970703,-0.686964,-0.158109,-0.199329,1.17646,-0.446707,-0.410587,0.619912
23,45,-0.0872665,-0.698132,-0.174533,-0.174533,-0.0970703,-0.686964,-0.158109,-0.199329,1.17646,-0.446707,-0.410587,0.619912
23,45,-0.0872665,-0.698132,-0.174533,-0.174533,-0.0970703,-0.686964,-0.158109,-0.199329,1.17646,-0.446707,-0.410587,0.619912
23,45,-0.0872665,-0.698132,-0.174533,-0.174533,-0.0970703,-0.686964,-0.158109,-0.199329,1.17646,-0.446707,-0.410587,0.619912
23,45,-0.0872665,-0.698132,-0.174533,-0.174533,-0.0970703,-0.686964,-0.158109,-0.199329,1.17646,-0.446707,-0.410587,0.619912
23,45,-0.0872665,-0.698132,-0.174533,-0.174533,-0.0970703,-0.686964,-0.158109,-0.199329,1.17646,-0.446707,-0.410587,0.619912
23,45,-0.0872665,-0.698132,-0.174533,-0.174533,-0.0970703,-0.686964,-0.158109,-0.199329,1.17646,-0.446707,-0.410587,0.619912
23,45,-0.0872665,-0.698132,-0.174533,-0.174533,-0.0970703,-0.686964,-0.158109,-0.199329,1.17646,-0.446707,-0.410587,0.619912
23,45,-0.0872665,-0.698132,-0.174533,-0.174533,-0.0970703,-0.686964,-0.158109,-0.199329,1.17646,-0.446707,-0.410587,0.619912
23,45,-0.0872665,-0.698132,-0.174533,-0.174533,-0.0970703,-0.686964,-0.158109,-0.199329,1.17646,-0.446707,-0.410587,0.619912
23,45,-0.0872665,-0.698132,-0.174533,-0.174533,-0.0970703,-0.686964,-0.158109,-0.199329,1.17646,-0.446707,-0.410587,0.619912
23,45,-0.0872665,-0.698132,-0.174533,-0.174533,-0.0970703,-0.686964,-0.158109,-0.199329,1.17646,-0.446707,-0.410587,0.619912
23,45,-0.0872665,-0.698132,-0.174533,-0.174533,-0.0970703,-0.686964,-0.158109,-0.199329,1.17646,-0.446707,-0.410587,0.619912
23,45,-0.0872665,-0.698132,-0.174533,-0.174533,-0.0970703,-0.686964,-0.158109,-0.199329,1.17646,-0.446707,-0.410587,0.619912
23,45,-0.0872665,-0.698132,-0.174533,-0.174533,-0.0970703,-0.686964,-0.158109,-0.199329,1.17646,-0.446707,-0.410587,0.619912
23,45,-0.0872665,-0.698132,-0.174533,-0.174533,-0.0970703,-0.686964,-0.158109,-0.199329,1.17646,-0.446707,-0.410587,0.619912
23,45,-0.0872665,-0.698132,-0.174533,-0.174533,-0.0970703,-0.686964,-0.158109,-0.199329,1.17646,-0.446707,-0.410587,0.619912
23,45,-0.0872665,-0.698132,-0.174533,-0.174533,-0.0970703,-0.686964,-0.158109,-0.199329,1.17646,-0.446707,-0.410587,0.619912
23,45,-0.0872665,-0.698132,-0.174533,-0.174533,-0.0970703,-0.686964,-0.158109,-0.199329,1.17646,-0.446707,-0.410587,0.619912
23,45,-0.0872665,-0.698132,-0.174533,-0.174533,-0.0970703,-0.686964,-0.158109,-0.199329,1.17646,-0.446707,-0.410587,0.619912
23,45,-0.0872665,-0.698132,-0.174533,-0.174533,-0.0970703,-0.686964,-0.158109,-0.199329,1.17646,-0.446707,-0.410587,0.619912
23,45,-0.0872665,-0.698132,-0.174533,-0.174533,-0.0970703,-0.686964,-0.158109,-0.199329,1.17646,-0.446707,-0.410587,0.619912
23,45,-0.0872665,-0.698132,-0.174533,-0.174533,-0.0970703,-0.686964,-0.158109,-0.199329,1.17646,-0.446707,-0.410587,0.619912
23,45,-0.0872665,-0.698132,-0.174533,-0.174533,-0.0970703,-0.686964,-0.158109,-0.199329,1.17646,-0.446707,-0.410587,0.619912
23,45,-0.0872665,-0.698132,-0.174533,-0.174533,-0.0970703,-0.686964,-0.158109,-0.199329,1.17646,-0.446707,-0.410587,0.619912
23,45,-0.0872665,-0.698132,-0.174533,-0.174533,-0.0970703,-0.686964,-0.158109,-0.199329,1.17646,-0.446707,-0.410587,0.619912
23,45,-0.0872665,-0.698132,-0.174533,-0.174533,-0.0970703,-0.686964,-0.158109,-0.199329,1.17646,-0.446707,-0.410587,0.619912
23,45,-0.0872665,-0.698132,-0.174533,-0.174533,-0.0970703,-0.686964,-0.158109,-0.199329,1.17646,-0.446707,-0.410587,0.619912
23,45,-0.0872665,-0.698132,-0.174533,-0.174533,-0.0970703,-0.686964,-0.158109,-0.199329,1.17646,-0.446707,-0.410587,0.619912
23,45,-0.0872665,-0.698132,-0.174533,-0.174533,-0.0970703,-0.686964,-0.158109,-0.199329,1.17646,-0.446707,-0.410587,0.619912
23,45,-0.0872665,-0.698132,-0.174533,-0.174533,-0.0970703,-0.686964,-0.158109,-0.199329,1.17646,-0.446707,-0.410587,0.619912
23,45,-0.0872665,-0.698132,-0.174533,-0.174533,-0.0970703,-0.686964,-0.158109,-0.199329,1.17646,-0.446707,-0.410587,0.619912
23,45,-0.0872665,-0.698132,-0.174533,-0.174533,-0.0970703,-0.686964,-0.158109,-0.199329,1.17646,-0.446707,-0.410587,0.619912
23,45,-0.0872665,-0.698132,-0.174533,-0.174533,-0.0970703,-0.686964,-0.158109,-0.199329,1.17646,-0.446707,-0.410587,0.619912
23,45,-0.0872665,-0.698132,-0.174533,-0.174533,-0.0970703,-0.686964,-0.158109,-0.199329,1.17646,-0.446707,-0.410587,0.619912
23,45,-0.0872665,-0.698132,-0.174533,-0.174533,-0.0970703,-0.686964,-0.158109,-0.199329,1.17646,-0.446707,-0.410587,0.619912
23,45,-0.0872665,-0.698132,-0.174533,-0.174533,-0.0970703,-0.686964,-0.158109,-0.199329,1.17646,-0.446707,-0.410587,0.619912
23,45,-0.0872665,-0.698132,-0.174533,-0.174533,-0.0970703,-0.686964,-0.158109,-0.199329,1.17646,-0.446707,-0.410587,0.619912
23,45,-0.0872665,-0.698132,-0.174533,-0.174533,-0.0970703,-0.686964,-0.158109,-0.199329,1.17646,-0.446707,-0.410587,0.619912
23,45,-0.0872665,-0.698132,-0.174533,-0.174533,-0.0970703,-0.686964,-0.158109,-0.199329,1.17646,-0.446707,-0.410587,0.619912
23,45,-0.0872665,-0.698132,-0.174533,-0.174533,-0.0970703,-0.686964,-0.158109,-0.199329,1.17646,-0.446707,-0.410587,0.619912
23,45,-0.0872665,-0.698132,-0.174533,-0.174533,-0.0970703,-0.686964,-0.158109,-0.199329,1.17646,-0.446707,-0.410587,0.619912
23,45,-0.0872665,-0.698132,-0.174533,-0.174533,-0.0970703,-0.686964,-0.158109,-0.199329,1.17646,-0.446707,-0.410587,0.619912
23,45,-0.0872665,-0.698132,-0.174533,-0.174533,-0.0970703,-0.686964,-0.158109,-0.199329,1.17646,-0.446707,-0.410587,0.619912
23,45,-0.0872665,-0.698132,-0.174533,-0.174533,-0.0970703,-0.686964,-0.158109,-0.199329,1.17646,-0.446707,-0.410587,0.619912
23,45,-0.0872665,-0.698132,-0.174533,-0.174533,-0.0970703,-0.686964,-0.158109,-0.199329,1.17646,-0.446707,-0.410587,0.619912
23,45,-0.0872665,-0.698132,-0.174533,-0.174533,-0.0970703,-0.686964,-0.158109,-0.199329,1.17646,-0.446707,-0.410587,0.619912
23,45,-0.0872665,-0.698132,-0.174533,-0.174533,-0.0970703,-0.686964,-0.158109,-0.199329,1.17646,-0.446707,-0.410587,0.619912
23,45,-0.0872665,-0.698132,-0.174533,-0.174533,-0.0970703,-0.686964,-0.158109,-0.199329,1.17646,-0.446707,-0.410587,0.619912
23,45,-0.0872665,-0.698132,-0.174533,-0.174533,-0.0970703,-0.686964,-0.158109,-0.199329,1.17646,-0.446707,-0.410587,0.619912
23,45,-0.0872665,-0.698132,-0.174533,-0.174533,-0.0970703,-0.686964,-0.158109,-0.199329,1.17646,-0.446707,-0.410587,0.619912
23,45,-0.0872665,-0.698132,-0.174533,-0.174533,-0.0970703,-0.686964,-0.158109,-0.199329,1.17646,-0.446707,-0.410587,0.619912
23,45,-0.0872665,-0.698132,-0.174533,-0.174533,-0.0970703,-0.686964,-0.158109,-0.199329,1.17646,-0.446707,-0.410587,0.619912
23,45,-0.0872665,-0.698132,-0.174533,-0.174533,-0.0970703,-0.686964,-0.158109,-0.199329,1.17646,-0.446707,-0.410587,0.619912
23,45,-0.0872665,-0.698132,-0.174533,-0.174533,-0.0970703,-0.686964,-0.158109,-0.199329,1.17646,-0.446707,-0.410587,0.619912
23,45,-0.0872665,-0.698132,-0.174533,-0.174533,-0.0970703,-0.686964,-0.158109,-0.199329,1.17646,-0.446707,-0.410587,0.619912
23,45,-0.0872665,-0.698132,-0.174533,-0.174533,-0.0970703,-0.686964,-0.158109,-0.199329,1.17646,-0.446707,-0.410587,0.619912
23,45,-0.0872665,-0.698132,-0.174533,-0.174533,-0.0970703,-0.686964,-0.158109,-0.199329,1.17646,-0.446707,-0.410587,0.619912
23,45,-0.0872665,-0.698132,-0.174533,-0.174533,-0.0970703,-0.686964,-0.158109,-0.199329,1.17646,-0.446707,-0.410587,0.619912
23,45,-0.0872665,-0.698132,-0.174533,-0.174533,-0.0970703,-0.686964,-0.158109,-0.199329,1.17646,-0.446707,-0.410587,0.619912
23,45,-0.0872665,-0.698132,-0.174533,-0.174533,-0.0970703,-0.686964,-0.158109,-0.199329,1.17646,-0.446707,-0.410587,0.619912
23,45,-0.0872665,-0.698132,-0.174533,-0.174533,-0.0970703,-0.686964,-0.158109,-0.199329,1.17646,-0.446707,-0.410587,0.619912
23,45,-0.0872665,-0.698132,-0.174533,-0.174533,-0.0970703,-0.686964,-0.158109,-0.199329,1.17646,-0.446707,-0.410587,0.619912
23,45,-0.0872665,-0.698132,-0.174533,-0.174533,-0.0970703,-0.686964,-0.158109,-0.199329,1.17646,-0.446707,-0.410587,0.619912
23,45,-0.0872665,-0.698132,-0.174533,-0.174533,-0.0970703,-0.686964,-0.158109,-0.199329,1.17646,-0.446707,-0.410587,0.619912
23,45,-0.0872665,-0.698132,-0.174533,-0.174533,-0.0970703,-0.686964,-0.158109,-0.199329,1.17646,-0.446707,-0.410587,0.619912
23,45,-0.0872665,-0.698132,-0.174533,-0.174533,-0.0970703,-0.686964,-0.158109,-0.199329,1.17646,-0.446707,-0.410587,0.619912
23,45,-0.0872665,-0.698132,-0.174533,-0.174533,-0.0970703,-0.686964,-0.158109,-0.199329,1.17646,-0.446707,-0.410587,0.619912
23,45,-0.0872665,-0.698132,-0.174533,-0.174533,-0.0970703,-0.686964,-0.158109,-0.199329,1.17646,-0.446707,-0.410587,0.619912
23,45,-0.0872665,-0.698132,-0.174533,-0.174533,-0.0970703,-0.686964,-0.158109,-0.199329,1.17646,-0.446707,-0.410587,0.619912
23,45,-0.0872665,-0.698132,-0.174533,-0.174533,-0.0970703,-0.686964,-0.158109,-0.199329,1.17646,-0.446707,-0.410587,0.619912
23,45,-0.0872665,-0.698132,-0.174533,-0.174533,-0.0970703,-0.686964,-0.158109,-0.199329,1.17646,-0.446707,-0.410587,0.619912
23,45,-0.0872665,-0.698132,-0.174533,-0.174533,-0.0970703,-0.686964,-0.158109,-0.199329,1.17646,-0.446707,-0.410587,0.619912
23,45,-0.0872665,-0.698132,-0.174533,-0.174533,-0.0970703,-0.686964,-0.158109,-0.199329,1.17646,-0.446707,-0.410587,0.619912
23,45,-0.0872665,-0.698132,-0.174533,-0.174533,-0.0970703,-0.686964,-0.158109,-0.199329,1.17646,-0.446707,-0.410587,0.619912
23,45,-0.0872665,-0.698132,-0.174533,-0.174533,-0.0970703,-0.686964,-0.158109,-0.199329,1.17646,-0.446707,-0.410587,0.619912
23,45,-0.0872665,-0.698132,-0.174533,-0.174533,-0.0970703,-0.686964,-0.158109,-0.199329,1.17646,-0.446707,-0.410587,0.619912
23,45,-0.0872665,-0.698132,-0.174533,-0.174533,-0.0970703,-0.686964,-0.158109,-0.199329,1.17646,-0.446707,-0.410587,0.619912
23,45,-0.0872665,-0.698132,-0.174533,-0.174533,-0.0970703,-0.686964,-0.158109,-0.199329,1.17646,-0.446707,-0.410587,0.619912
23,45,-0.0872665,-0.698132,-0.174533,-0.174533,-0.0970703,-0.686964,-0.158109,-0.199329,1.17646,-0.446707,-0.410587,0.619912
23,45,-0.0872665,-0.698132,-0.174533,-0.174533,-0.0970703,-0.686964,-0.158109,-0.199329,1.17646,-0.446707,-0.410587,0.619912
23,45,-0.0872665,-0.698132,-0.174533,-0.174533,-0.0970703,-0.686964,-0.158109,-0.199329,1.17646,-0.446707,-0.410587,0.619912
23,45,-0.0872665,-0.698132,-0.174533,-0.174533,-0.0970703,-0.686964,-0.158109,-0.199329,1.17646,-0.446707,-0.410587,0.619912
23,45,-0.0872665,-0.698132,-0.174533,-0.174533,-0.0970703,-0.686964,-0.158109,-0.199329,1.17646,-0.446707,-0.410587,0.619912
23,45,-0.0872665,-0.698132,-0.174533,-0.174533,-0.0970703,-0.686964,-0.158109,-0.199329,1.17646,-0.446707,-0.410587,0.619912
23,45,-0.0872665,-0.698132,-0.174533,-0.174533,-0.0970703,-0.686964,-0.158109,-0.199329,1.17646,-0.446707,-0.410587,0.619912
23,45,-0.0872665,-0.698132,-0.174533,-0.174533,-0.0970703,-0.686964,-0.158109,-0.199329,1.17646,-0.446707,-0.410587,0.619912
23,45,-0.0872665,-0.698132,-0.174533,-0.174533,-0.0970703,-0.686964,-0.158109,-0.199329,1.17646,-0.446707,-0.410587,0.619912
23,45,-0.0872665,-0.698132,-0.174533,-0.174533,-0.0970703,-0.686964,-0.158109,-0.199329,1.17646,-0.446707,-0.410587,0.619912
23,45,-0.0872665,-0.698132,-0.174533,-0.174533,-0.0970703,-0.686964,-0.158109,-0.199329,1.17646,-0.446707,-0.410587,0.619912
23,45,-0.0872665,-0.698132,-0.174533,-0.174533,-0.0970703,-0.686964,-0.158109,-0.199329,1.17646,-0.446707,-0.410587,0.619912
23,45,-0.0872665,-0.698132,-0.174533,-0.174533,-0.0970703,-0.686964,-0.158109,-0.199329,1.17646,-0.446707,-0.410587,0.619912
23,45,-0.0872665,-0.698132,-0.174533,-0.174533,-0.0970703,-0.686964,-0.158109,-0.199329,1.17646,-0.446707,-0.410587,0.619912
23,45,-0.0872665,-0.698132,-0.174533,-0.174533,-0.0970703,-0.686964,-0.158109,-0.199329,1.17646,-0.446707,-0.410587,0.619912
23,45,-0.0872665,-0.698132,-0.174533,-0.174533,-0.0970703,-0.686964,-0.158109,-0.199329,1.17646,-0.446707,-0.410587,0.619912
23,45,-0.0872665,-0.698132,-0.174533,-0.174533,-0.0970703,-0.686964,-0.158109,-0.199329,1.17646,-0.446707,-0.410587,0.619912
23,45,-0.0872665,-0.698132,-0.174533,-0.174533,-0.0970703,-0.686964,-0.158109,-0.199329,1.17646,-0.446707,-0.410587,0.619912
23,45,-0.0872665,-0.698132,-0.174533,-0.174533,-0.0970703,-0.686964,-0.158109,-0.199329,1.17646,-0.446707,-0.410587,0.619912
23,45,-0.0872665,-0.698132,-0.174533,-0.174533,-0.0970703,-0.686964,-0.158109,-0.199329,1.17646,-0.446707,-0.410587,0.619912
23,45,-0.0872665,-0.698132,-0.174533,-0.174533,-0.0970703,-0.686964,-0.158109,-0.199329,1.17646,-0.446707,-0.410587,0.619912
23,45,-0.0872665,-0.698132,-0.174533,-0.174533,-0.0970703,-0.686964,-0.158109,-0.199329,1.17646,-0.446707,-0.410587,0.619912
23,45,-0.0872665,-0.698132,-0.174533,-0.174533,-0.0970703,-0.686964,-0.158109,-0.199329,1.17646,-0.446707,-0.410587,0.619912
23,45,-0.0872665,-0.698132,-0.174533,-0.174533,-0.0970703,-0.686964,-0.158109,-0.199329,1.17646,-0.446707,-0.410587,0.619912
23,45,-0.0872665,-0.698132,-0.174533,-0.174533,-0.0970703,-0.686964,-0.158109,-0.199329,1.17646,-0.446707,-0.410587,0.619912
23,45,-0.0872665,-0.698132,-0.174533,-0.174533,-0.0970703,-0.686964,-0.158109,-0.199329,1.17646,-0.446707,-0.410587,0.619912
23,45,-0.0872665,-0.698132,-0.174533,-0.174533,-0.0970703,-0.686964,-0.158109,-0.199329,1.17646,-0.446707,-0.410587,0.619912
23,45,-0.0872665,-0.698132,-0.174533,-0.174533,-0.0970703,-0.686964,-0.158109,-0.199329,1.17646,-0.446707,-0.410587,0.619912
23,45,-0.0872665,-0.698132,-0.174533,-0.174533,-0.0970703,-0.686964,-0.158109,-0.199329,1.17646,-0.446707,-0.410587,0.619912
23,45,-0.0872665,-0.698132,-0.174533,-0.174533,-0.0970703,-0.686964,-0.158109,-0.199329,1.17646,-0.446707,-0.410587,0.619912
23,45,-0.0872665,-0.698132,-0.174533,-0.174533,-0.0970703,-0.686964,-0.158109,-0.199329,1.17646,-0.446707,-0.410587,0.619912
23,45,-0.0872665,-0.698132,-0.174533,-0.174533,-0.0970703,-0.686964,-0.15817,-0.19931,1.17646,-0.446707,-0.409063,0.619432
23,45,-0.0872665,-0.698132,-0.174533,-0.174533,-0.0970703,-0.686964,-0.15817,-0.19931,1.17646,-0.446707,-0.409063,0.619432
23,45,-0.0872665,-0.698132,-0.174533,-0.174533,-0.0970703,-0.686964,-0.15817,-0.19931,1.17646,-0.446707,-0.409063,0.619432
23,45,-0.0872665,-0.698132,-0.174533,-0.174533,-0.0970703,-0.686964,-0.15817,-0.19931,1.17646,-0.446707,-0.409063,0.619432
23,45,-0.0872665,-0.698132,-0.174533,-0.174533,-0.0970703,-0.686964,-0.15817,-0.19931,1.17646,-0.446707,-0.409063,0.619432
23,45,-0.0872665,-0.698132,-0.174533,-0.174533,-0.0970703,-0.686964,-0.15817,-0.19931,1.17646,-0.446707,-0.409063,0.619432
23,45,-0.0872665,-0.698132,-0.174533,-0.174533,-0.0970703,-0.686964,-0.15817,-0.19931,1.17646,-0.446707,-0.409063,0.619432
23,45,-0.0872665,-0.698132,-0.174533,-0.174533,-0.0970703,-0.686964,-0.15817,-0.19931,1.17646,-0.446707,-0.409063,0.619432
23,45,-0.0872665,-0.698132,-0.174533,-0.174533,-0.0970703,-0.686964,-0.15817,-0.19931,1.17646,-0.446707,-0.409063,0.619432
23,45,-0.0872665,-0.698132,-0.174533,-0.174533,-0.0970703,-0.686964,-0.15817,-0.19931,1.17646,-0.446707,-0.409063,0.619432
23,45,-0.0872665,-0.698132,-0.174533,-0.174533,-0.0970703,-0.686964,-0.15817,-0.19931,1.17646,-0.446707,-0.409063,0.619432
23,45,-0.0872665,-0.698132,-0.174533,-0.174533,-0.0970703,-0.686964,-0.15817,-0.19931,1.17646,-0.446707,-0.409063,0.619432
23,45,-0.0872665,-0.698132,-0.174533,-0.174533,-0.0970703,-0.686964,-0.15817,-0.19931,1.17646,-0.446707,-0.409063,0.619432
23,45,-0.0872665,-0.698132,-0.174533,-0.174533,-0.0970703,-0.686964,-0.15817,-0.19931,1.17646,-0.446707,-0.409063,0.619432
23,45,-0.0872665,-0.698132,-0.174533,-0.174533,-0.0970703,-0.686964,-0.15817,-0.19931,1.17646,-0.446707,-0.409063,0.619432
23,45,-0.0872665,-0.698132,-0.174533,-0.174533,-0.0970703,-0.686964,-0.15817,-0.19931,1.17646,-0.446707,-0.409063,0.619432
23,45,-0.0872665,-0.698132,-0.174533,-0.174533,-0.0970703,-0.686964,-0.15817,-0.19931,1.17646,-0.446707,-0.409063,0.619432
23,45,-0.0872665,-0.698132,-0.174533,-0.174533,-0.0970703,-0.686964,-0.15817,-0.19931,1.17646,-0.446707,-0.409063,0.619432
23,45,-0.0872665,-0.698132,-0.174533,-0.174533,-0.0970703,-0.686964,-0.15817,-0.19931,1.17646,-0.446707,-0.409063,0.619432
23,45,-0.0872665,-0.698132,-0.174533,-0.174533,-0.0970703,-0.686964,-0.15817,-0.19931,1.17646,-0.446707,-0.409063,0.619432
23,45,-0.0872665,-0.698132,-0.174533,-0.174533,-0.0970703,-0.686964,-0.15817,-0.19931,1.17646,-0.446707,-0.409063,0.619432
23,45,-0.0872665,-0.698132,-0.174533,-0.174533,-0.0970703,-0.686964,-0.15817,-0.19931,1.17646,-0.446707,-0.409063,0.619432
23,45,-0.0872665,-0.698132,-0.174533,-0.174533,-0.0970703,-0.686964,-0.15817,-0.19931,1.17646,-0.446707,-0.409063,0.619432
23,45,-0.0872665,-0.698132,-0.174533,-0.174533,-0.0970703,-0.686964,-0.15817,-0.19931,1.17646,-0.446707,-0.409063,0.619432
23,45,-0.0872665,-0.698132,-0.174533,-0.174533,-0.0970703,-0.686964,-0.15817,-0.19931,1.17646,-0.446707,-0.409063,0.619432
23,45,-0.0872665,-0.698132,-0.174533,-0.174533,-0.0970703,-0.686964,-0.15817,-0.19931,1.17646,-0.446707,-0.409063,0.619432
23,45,-0.0872665,-0.698132,-0.174533,-0.174533,-0.0970703,-0.686964,-0.15817,-0.19931,1.17646,-0.446707,-0.409063,0.619432
23,45,-0.0872665,-0.698132,-0.174533,-0.174533,-0.0970703,-0.686964,-0.15817,-0.19931,1.17646,-0.446707,-0.409063,0.619432
23,45,-0.0872665,-0.698132,-0.174533,-0.174533,-0.0970703,-0.686964,-0.15817,-0.19931,1.17646,-0.446707,-0.409063,0.619432
23,45,-0.0872665,-0.698132,-0.174533,-0.174533,-0.0970703,-0.686964,-0.15817,-0.19931,1.17646,-0.446707,-0.409063,0.619432
23,45,-0.0872665,-0.698132,-0.174533,-0.174533,-0.0970703,-0.686964,-0.15817,-0.19931,1.17646,-0.446707,-0.409063,0.619432
23,45,-0.0872665,-0.698132,-0.174533,-0.174533,-0.0970703,-0.686964,-0.15817,-0.19931,1.17646,-0.446707,-0.409063,0.619432
23,45,-0.0872665,-0.698132,-0.174533,-0.174533,-0.0970703,-0.686964,-0.15817,-0.19931,1.17646,-0.446707,-0.409063,0.619432
23,45,-0.0872665,-0.698132,-0.174533,-0.174533,-0.0970703,-0.686964,-0.15817,-0.19931,1.17646,-0.446707,-0.409063,0.619432
23,45,-0.0872665,-0.698132,-0.174533,-0.174533,-0.0970703,-0.686964,-0.15817,-0.19931,1.17646,-0.446707,-0.409063,0.619432
23,45,-0.0872665,-0.698132,-0.174533,-0.174533,-0.0970703,-0.686964,-0.15817,-0.19931,1.17646,-0.446707,-0.409063,0.619432
23,45,-0.0872665,-0.698132,-0.174533,-0.174533,-0.0970703,-0.686964,-0.15817,-0.19931,1.17646,-0.446707,-0.409063,0.619432
23,45,-0.0872665,-0.698132,-0.174533,-0.174533,-0.0970703,-0.686964,-0.15817,-0.19931,1.17646,-0.446707,-0.409063,0.619432
23,45,-0.0872665,-0.698132,-0.174533,-0.174533,-0.0970703,-0.686964,-0.15817,-0.19931,1.17646,-0.446707,-0.409063,0.619432
23,45,-0.0872665,-0.698132,-0.174533,-0.174533,-0.0970703,-0.686964,-0.15817,-0.19931,1.17646,-0.446707,-0.409063,0.619432
23,45,-0.0872665,-0.698132,-0.174533,-0.174533,-0.0970703,-0.686964,-0.15817,-0.19931,1.17646,-0.446707,-0.409063,0.619432
23,45,-0.0872665,-0.698132,-0.174533,-0.174533,-0.0970703,-0.686964,-0.15817,-0.19931,1.17646,-0.446707,-0.409063,0.619432
23,45,-0.0872665,-0.698132,-0.174533,-0.174533,-0.0970703,-0.686964,-0.15817,-0.19931,1.17646,-0.446707,-0.409063,0.619432
23,45,-0.0872665,-0.698132,-0.174533,-0.174533,-0.0970703,-0.686964,-0.15817,-0.19931,1.17646,-0.446707,-0.409063,0.619432
23,45,-0.0872665,-0.698132,-0.174533,-0.174533,-0.0970703,-0.686964,-0.15817,-0.19931,1.17646,-0.446707,-0.409063,0.619432
23,45,-0.0872665,-0.698132,-0.174533,-0.174533,-0.0970703,-0.686964,-0.15817,-0.19931,1.17646,-0.446707,-0.409063,0.619432
23,45,-0.0872665,-0.698132,-0.174533,-0.174533,-0.0970703,-0.686964,-0.15817,-0.19931,1.17646,-0.446707,-0.409063,0.619432
23,45,-0.0872665,-0.698132,-0.174533,-0.174533,-0.0970703,-0.686964,-0.15817,-0.19931,1.17646,-0.446707,-0.409063,0.619432
23,45,-0.0872665,-0.698132,-0.174533,-0.174533,-0.0970703,-0.686964,-0.15817,-0.19931,1.17646,-0.446707,-0.409063,0.619432
23,45,-0.0872665,-0.698132,-0.174533,-0.174533,-0.0970703,-0.686964,-0.15817,-0.19931,1.17646,-0.446707,-0.409063,0.619432
23,45,-0.0872665,-0.698132,-0.174533,-0.174533,-0.0970703,-0.686964,-0.15817,-0.19931,1.17646,-0.446707,-0.409063,0.619432
23,45,-0.0872665,-0.698132,-0.174533,-0.174533,-0.0970703,-0.686964,-0.15817,-0.19931,1.17646,-0.446707,-0.409063,0.619432
23,45,-0.0872665,-0.698132,-0.174533,-0.174533,-0.0970703,-0.686964,-0.15817,-0.19931,1.17646,-0.446707,-0.409063,0.619432
23,45,-0.0872665,-0.698132,-0.174533,-0.174533,-0.0970703,-0.686964,-0.15817,-0.19931,1.17646,-0.446707,-0.409063,0.619432
23,45,-0.0872665,-0.698132,-0.174533,-0.174533,-0.0970703,-0.686964,-0.15817,-0.19931,1.17646,-0.446707,-0.409063,0.619432
23,45,-0.0872665,-0.698132,-0.174533,-0.174533,-0.0970703,-0.686964,-0.15817,-0.19931,1.17646,-0.446707,-0.409063,0.619432
23,45,-0.0872665,-0.698132,-0.174533,-0.174533,-0.0970703,-0.686964,-0.15817,-0.19931,1.17646,-0.446707,-0.409063,0.619432
23,45,-0.0872665,-0.698132,-0.174533,-0.174533,-0.0970703,-0.686964,-0.15817,-0.19931,1.17646,-0.446707,-0.409063,0.619432
23,45,-0.0872665,-0.698132,-0.174533,-0.174533,-0.0970703,-0.686964,-0.15817,-0.19931,1.17646,-0.446707,-0.409063,0.619432
23,45,-0.0872665,-0.698132,-0.174533,-0.174533,-0.0970703,-0.686964,-0.15817,-0.19931,1.17646,-0.446707,-0.409063,0.619432
23,45,-0.0872665,-0.698132,-0.174533,-0.174533,-0.0970703,-0.686964,-0.15817,-0.19931,1.17646,-0.446707,-0.409063,0.619432
23,45,-0.0872665,-0.698132,-0.174533,-0.174533,-0.0970703,-0.686964,-0.15817,-0.19931,1.17646,-0.446707,-0.409063,0.619432
23,45,-0.0872665,-0.698132,-0.174533,-0.174533,-0.0970703,-0.686964,-0.15817,-0.19931,1.17646,-0.446707,-0.409063,0.619432
23,45,-0.0872665,-0.698132,-0.174533,-0.174533,-0.0970703,-0.686964,-0.15817,-0.19931,1.17646,-0.446707,-0.409063,0.619432
23,45,-0.0872665,-0.698132,-0.174533,-0.174533,-0.0970703,-0.686964,-0.15817,-0.19931,1.17646,-0.446707,-0.409063,0.619432
23,45,-0.0872665,-0.698132,-0.174533,-0.174533,-0.0970703,-0.686964,-0.15817,-0.19931,1.17646,-0.446707,-0.409063,0.619432
23,45,-0.0872665,-0.698132,-0.174533,-0.174533,-0.0970703,-0.686964,-0.15817,-0.19931,1.17646,-0.446707,-0.409063,0.619432
23,45,-0.0872665,-0.698132,-0.174533,-0.174533,-0.0970703,-0.686964,-0.15817,-0.19931,1.17646,-0.446707,-0.409063,0.619432
23,45,-0.0872665,-0.698132,-0.174533,-0.174533,-0.0970703,-0.686964,-0.15817,-0.19931,1.17646,-0.446707,-0.409063,0.619432
23,45,-0.0872665,-0.698132,-0.174533,-0.174533,-0.0970703,-0.686964,-0.15817,-0.19931,1.17646,-0.446707,-0.409063,0.619432
23,45,-0.0872665,-0.698132,-0.174533,-0.174533,-0.0970703,-0.686964,-0.15817,-0.19931,1.17646,-0.446707,-0.409063,0.619432
23,45,-0.0872665,-0.698132,-0.174533,-0.174533,-0.0970703,-0.686964,-0.15817,-0.19931,1.17646,-0.446707,-0.409063,0.619432
23,45,-0.0872665,-0.698132,-0.174533,-0.174533,-0.0970703,-0.686964,-0.15817,-0.19931,1.17646,-0.446707,-0.409063,0.619432
23,45,-0.0872665,-0.698132,-0.174533,-0.174533,-0.0970703,-0.686964,-0.15817,-0.19931,1.17646,-0.446707,-0.409063,0.619432
23,45,-0.0872665,-0.698132,-0.174533,-0.174533,-0.0970703,-0.686964,-0.15817,-0.19931,1.17646,-0.446707,-0.409063,0.619432
23,45,-0.0872665,-0.698132,-0.174533,-0.174533,-0.0970703,-0.686964,-0.15817,-0.19931,1.17646,-0.446707,-0.409063,0.619432
23,45,-0.0872665,-0.698132,-0.174533,-0.174533,-0.0970703,-0.686964,-0.15817,-0.19931,1.17646,-0.446707,-0.409063,0.619432
23,45,-0.0872665,-0.698132,-0.174533,-0.174533,-0.0970703,-0.686964,-0.15817,-0.19931,1.17646,-0.446707,-0.409063,0.619432
23,45,-0.0872665,-0.698132,-0.174533,-0.174533,-0.0970703,-0.686964,-0.15817,-0.19931,1.17646,-0.446707,-0.409063,0.619432
23,45,-0.0872665,-0.698132,-0.174533,-0.174533,-0.0970703,-0.686964,-0.15817,-0.19931,1.17646,-0.446707,-0.409063,0.619432
23,45,-0.0872665,-0.698132,-0.174533,-0.174533,-0.0970703,-0.686964,-0.15817,-0.19931,1.17646,-0.446707,-0.409063,0.619432
23,45,-0.0872665,-0.698132,-0.174533,-0.174533,-0.0970703,-0.686964,-0.15817,-0.19931,1.17646,-0.446707,-0.409063,0.619432
23,45,-0.0872665,-0.698132,-0.174533,-0.174533,-0.0970703,-0.686964,-0.158231,-0.199291,1.17646,-0.446707,-0.407538,0.618952
23,45,-0.0872665,-0.698132,-0.174533,-0.174533,-0.0970703,-0.686964,-0.158231,-0.199291,1.17646,-0.446707,-0.407538,0.618952
23,45,-0.0872665,-0.698132,-0.174533,-0.174533,-0.0970703,-0.686964,-0.158231,-0.199291,1.17646,-0.446707,-0.407538,0.618952
23,45,-0.0872665,-0.698132,-0.174533,-0.174533,-0.0970703,-0.686964,-0.158231,-0.199291,1.17646,-0.446707,-0.407538,0.618952
23,45,-0.0872665,-0.698132,-0.174533,-0.174533,-0.0970703,-0.686964,-0.158231,-0.199291,1.17646,-0.446707,-0.407538,0.618952
23,45,-0.0872665,-0.698132,-0.174533,-0.174533,-0.0970703,-0.686964,-0.158231,-0.199291,1.17646,-0.446707,-0.407538,0.618952
23,45,-0.0872665,-0.698132,-0.174533,-0.174533,-0.0970703,-0.686964,-0.158231,-0.199291,1.17646,-0.446707,-0.407538,0.618952
23,45,-0.0872665,-0.698132,-0.174533,-0.174533,-0.0970703,-0.686964,-0.158231,-0.199291,1.17646,-0.446707,-0.407538,0.618952
23,45,-0.0872665,-0.698132,-0.174533,-0.174533,-0.0970703,-0.686964,-0.158231,-0.199291,1.17646,-0.446707,-0.407538,0.618952
23,45,-0.0872665,-0.698132,-0.174533,-0.174533,-0.0970703,-0.686964,-0.158231,-0.199291,1.17646,-0.446707,-0.407538,0.618952
23,45,-0.0872665,-0.698132,-0.174533,-0.174533,-0.0970703,-0.686964,-0.158231,-0.199291,1.17646,-0.446707,-0.407538,0.618952
23,45,-0.0872665,-0.698132,-0.174533,-0.174533,-0.0970703,-0.686964,-0.158231,-0.199291,1.17646,-0.446707,-0.407538,0.618952
23,45,-0.0872665,-0.698132,-0.174533,-0.174533,-0.0970703,-0.686964,-0.158231,-0.199291,1.17646,-0.446707,-0.407538,0.618952
23,45,-0.0872665,-0.698132,-0.174533,-0.174533,-0.0970703,-0.686964,-0.158231,-0.199291,1.17646,-0.446707,-0.407538,0.618952
23,45,-0.0872665,-0.698132,-0.174533,-0.174533,-0.0970703,-0.686964,-0.158231,-0.199291,1.17646,-0.446707,-0.407538,0.618952
23,45,-0.0872665,-0.698132,-0.174533,-0.174533,-0.0970703,-0.686964,-0.158231,-0.199291,1.17646,-0.446707,-0.407538,0.618952
23,45,-0.0872665,-0.698132,-0.174533,-0.174533,-0.0970703,-0.686964,-0.158231,-0.199291,1.17646,-0.446707,-0.407538,0.618952
23,45,-0.0872665,-0.698132,-0.174533,-0.174533,-0.0970703,-0.686964,-0.158231,-0.199291,1.17646,-0.446707,-0.407538,0.618952
23,45,-0.0872665,-0.698132,-0.174533,-0.174533,-0.0970703,-0.686964,-0.158231,-0.199291,1.17646,-0.446707,-0.407538,0.618952
23,45,-0.0872665,-0.698132,-0.174533,-0.174533,-0.0970703,-0.686964,-0.158231,-0.199291,1.17646,-0.446707,-0.407538,0.618952
23,45,-0.0872665,-0.698132,-0.174533,-0.174533,-0.0970703,-0.686964,-0.158231,-0.199291,1.17646,-0.446707,-0.407538,0.618952
23,45,-0.0872665,-0.698132,-0.174533,-0.174533,-0.0970703,-0.686964,-0.158231,-0.199291,1.17646,-0.446707,-0.407538,0.618952
23,45,-0.0872665,-0.698132,-0.174533,-0.174533,-0.0970703,-0.686964,-0.158231,-0.199291,1.17646,-0.446707,-0.407538,0.618952
23,45,-0.0872665,-0.698132,-0.174533,-0.174533,-0.0970703,-0.686964,-0.158231,-0.199291,1.17646,-0.446707,-0.407538,0.618952
23,45,-0.0872665,-0.698132,-0.174533,-0.174533,-0.0970703,-0.686964,-0.158231,-0.199291,1.17646,-0.446707,-0.407538,0.618952
23,45,-0.0872665,-0.698132,-0.174533,-0.174533,-0.0970703,-0.686964,-0.158231,-0.199291,1.17646,-0.446707,-0.407538,0.618952
23,45,-0.0872665,-0.698132,-0.174533,-0.174533,-0.0970703,-0.686964,-0.158292,-0.199272,1.17646,-0.446707,-0.406013,0.618472
23,45,-0.0872665,-0.698132,-0.174533,-0.174533,-0.0970703,-0.686964,-0.158292,-0.199272,1.17646,-0.446707,-0.406013,0.618472
23,45,-0.0872665,-0.698132,-0.174533,-0.174533,-0.0970703,-0.686964,-0.158292,-0.199272,1.17646,-0.446707,-0.406013,0.618472
23,45,-0.0872665,-0.698132,-0.174533,-0.174533,-0.0970703,-0.686964,-0.158292,-0.199272,1.17646,-0.446707,-0.406013,0.618472
23,45,-0.0872665,-0.698132,-0.174533,-0.174533,-0.0970703,-0.686964,-0.158292,-0.199272,1.17646,-0.446707,-0.406013,0.618472
23,45,-0.0872665,-0.698132,-0.174533,-0.174533,-0.0970703,-0.686964,-0.158292,-0.199272,1.17646,-0.446707,-0.406013,0.618472
23,45,-0.0872665,-0.698132,-0.174533,-0.174533,-0.0970703,-0.686964,-0.158292,-0.199272,1.17646,-0.446707,-0.406013,0.618472
23,45,-0.0872665,-0.698132,-0.174533,-0.174533,-0.0970703,-0.686964,-0.158292,-0.199272,1.17646,-0.446707,-0.406013,0.618472
23,45,-0.0872665,-0.698132,-0.174533,-0.174533,-0.0970703,-0.686964,-0.158292,-0.199272,1.17646,-0.446707,-0.406013,0.618472
23,45,-0.0872665,-0.698132,-0.174533,-0.174533,-0.0970703,-0.686964,-0.158292,-0.199272,1.17646,-0.446707,-0.406013,0.618472
23,45,-0.0872665,-0.698132,-0.174533,-0.174533,-0.0970703,-0.686964,-0.158292,-0.199272,1.17646,-0.446707,-0.406013,0.618472
23,45,-0.0872665,-0.698132,-0.174533,-0.174533,-0.0970703,-0.686964,-0.158292,-0.199272,1.17646,-0.446707,-0.406013,0.618472
23,45,-0.0872665,-0.698132,-0.174533,-0.174533,-0.0970703,-0.686964,-0.158292,-0.199272,1.17646,-0.446707,-0.406013,0.618472
23,45,-0.0872665,-0.698132,-0.174533,-0.174533,-0.0970703,-0.686964,-0.158292,-0.199272,1.17646,-0.446707,-0.406013,0.618472
23,45,-0.0872665,-0.698132,-0.174533,-0.174533,-0.0970703,-0.686964,-0.158292,-0.199272,1.17646,-0.446707,-0.406013,0.618472
23,45,-0.0872665,-0.698132,-0.174533,-0.174533,-0.0970703,-0.686964,-0.158292,-0.199272,1.17646,-0.446707,-0.406013,0.618472
23,45,-0.0872665,-0.698132,-0.174533,-0.174533,-0.0970703,-0.686964,-0.158292,-0.199272,1.17646,-0.446707,-0.406013,0.618472
23,45,-0.0872665,-0.698132,-0.174533,-0.174533,-0.0970703,-0.686964,-0.158292,-0.199272,1.17646,-0.446707,-0.406013,0.618472
23,45,-0.0872665,-0.698132,-0.174533,-0.174533,-0.0970703,-0.686964,-0.158292,-0.199272,1.17646,-0.446707,-0.406013,0.618472
23,45,-0.0872665,-0.698132,-0.174533,-0.174533,-0.0970703,-0.686964,-0.158292,-0.199272,1.17646,-0.446707,-0.406013,0.618472
23,45,-0.0872665,-0.698132,-0.174533,-0.174533,-0.0970703,-0.686964,-0.158292,-0.199272,1.17646,-0.446707,-0.406013,0.618472
23,45,-0.0872665,-0.698132,-0.174533,-0.174533,-0.0970703,-0.686964,-0.158292,-0.199272,1.17646,-0.446707,-0.406013,0.618472
23,45,-0.0872665,-0.698132,-0.174533,-0.174533,-0.0970703,-0.686964,-0.158292,-0.199272,1.17646,-0.446707,-0.406013,0.618472
23,45,-0.0872665,-0.698132,-0.174533,-0.174533,-0.0970703,-0.686964,-0.158292,-0.199272,1.17646,-0.446707,-0.406013,0.618472
23,45,-0.0872665,-0.698132,-0.174533,-0.174533,-0.0970703,-0.686964,-0.158292,-0.199272,1.17646,-0.446707,-0.406013,0.618472
23,45,-0.0872665,-0.698132,-0.174533,-0.174533,-0.0970703,-0.686964,-0.158292,-0.199272,1.17646,-0.446707,-0.406013,0.618472
23,45,-0.0872665,-0.698132,-0.174533,-0.174533,-0.0970703,-0.686964,-0.158292,-0.199272,1.17646,-0.446707,-0.406013,0.618472
23,45,-0.0872665,-0.698132,-0.174533,-0.174533,-0.0970703,-0.686964,-0.158292,-0.199272,1.17646,-0.446707,-0.406013,0.618472
23,45,-0.0872665,-0.698132,-0.174533,-0.174533,-0.0970703,-0.686964,-0.158292,-0.199272,1.17646,-0.446707,-0.406013,0.618472
23,45,-0.0872665,-0.698132,-0.174533,-0.174533,-0.0970703,-0.686964,-0.158292,-0.199272,1.17646,-0.446707,-0.406013,0.618472
23,45,-0.0872665,-0.698132,-0.174533,-0.174533,-0.0970703,-0.686964,-0.158292,-0.199272,1.17646,-0.446707,-0.406013,0.618472
23,45,-0.0872665,-0.698132,-0.174533,-0.174533,-0.0970703,-0.686964,-0.158292,-0.199272,1.17646,-0.446707,-0.406013,0.618472
23,45,-0.0872665,-0.698132,-0.174533,-0.174533,-0.0970703,-0.686964,-0.158292,-0.199272,1.17646,-0.446707,-0.406013,0.618472
23,45,-0.0872665,-0.698132,-0.174533,-0.174533,-0.0970703,-0.686964,-0.158292,-0.199272,1.17646,-0.446707,-0.406013,0.618472
23,45,-0.0872665,-0.698132,-0.174533,-0.174533,-0.0970703,-0.686964,-0.158292,-0.199272,1.17646,-0.446707,-0.406013,0.618472
23,45,-0.0872665,-0.698132,-0.174533,-0.174533,-0.0970703,-0.686964,-0.158292,-0.199272,1.17646,-0.446707,-0.406013,0.618472
23,45,-0.0872665,-0.698132,-0.174533,-0.174533,-0.0970703,-0.686964,-0.158292,-0.199272,1.17646,-0.446707,-0.406013,0.618472
23,45,-0.0872665,-0.698132,-0.174533,-0.174533,-0.0970703,-0.686964,-0.158292,-0.199272,1.17646,-0.446707,-0.406013,0.618472
23,45,-0.0872665,-0.698132,-0.174533,-0.174533,-0.0970703,-0.686964,-0.158292,-0.199272,1.17646,-0.446707,-0.406013,0.618472
23,45,-0.0872665,-0.698132,-0.174533,-0.174533,-0.0969987,-0.686964,-0.158292,-0.199272,1.16787,-0.446707,-0.406013,0.618472
23,45,-0.0872665,-0.698132,-0.174533,-0.174533,-0.0969987,-0.686964,-0.158353,-0.199253,1.16787,-0.446707,-0.404488,0.617991
23,45,-0.0872665,-0.698132,-0.174533,-0.174533,-0.0969987,-0.686964,-0.158353,-0.199253,1.16787,-0.446707,-0.404488,0.617991
23,45,-0.0872665,-0.698132,-0.174533,-0.174533,-0.0969987,-0.686964,-0.158353,-0.199253,1.16787,-0.446707,-0.404488,0.617991
23,45,-0.0872665,-0.698132,-0.174533,-0.174533,-0.0969987,-0.686964,-0.158353,-0.199253,1.16787,-0.446707,-0.404488,0.617991
23,45,-0.0872665,-0.698132,-0.174533,-0.174533,-0.0969987,-0.686964,-0.158353,-0.199253,1.16787,-0.446707,-0.404488,0.617991
23,45,-0.0872665,-0.698132,-0.174533,-0.174533,-0.0969987,-0.686964,-0.158353,-0.199253,1.16787,-0.446707,-0.404488,0.617991
23,45,-0.0872665,-0.698132,-0.174533,-0.174533,-0.0969987,-0.686964,-0.158353,-0.199253,1.16787,-0.446707,-0.404488,0.617991
23,45,-0.0872665,-0.698132,-0.174533,-0.174533,-0.0969987,-0.686964,-0.158353,-0.199253,1.16787,-0.446707,-0.404488,0.617991
23,45,-0.0872665,-0.698132,-0.174533,-0.174533,-0.0969987,-0.686964,-0.158353,-0.199253,1.16787,-0.446707,-0.404488,0.617991
23,45,-0.0872665,-0.698132,-0.174533,-0.174533,-0.0969987,-0.686964,-0.158353,-0.199253,1.16787,-0.446707,-0.404488,0.617991
23,45,-0.0872665,-0.698132,-0.174533,-0.174533,-0.0969987,-0.686964,-0.158353,-0.199253,1.16787,-0.446707,-0.404488,0.617991
23,45,-0.0872665,-0.698132,-0.174533,-0.174533,-0.0969987,-0.686964,-0.158353,-0.199253,1.16787,-0.446707,-0.404488,0.617991
23,45,-0.0872665,-0.698132,-0.174533,-0.174533,-0.0969987,-0.686964,-0.158353,-0.199253,1.16787,-0.446707,-0.404488,0.617991
23,45,-0.0872665,-0.698132,-0.174533,-0.174533,-0.0969987,-0.686964,-0.158353,-0.199253,1.16787,-0.446707,-0.404488,0.617991
23,45,-0.0872665,-0.698132,-0.174533,-0.174533,-0.0969987,-0.686964,-0.158353,-0.199253,1.16787,-0.446707,-0.404488,0.617991
23,45,-0.0872665,-0.698132,-0.174533,-0.174533,-0.0969987,-0.686964,-0.158353,-0.199253,1.16787,-0.446707,-0.404488,0.617991
23,45,-0.0872665,-0.698132,-0.174533,-0.174533,-0.0969987,-0.686964,-0.158353,-0.199253,1.16787,-0.446707,-0.404488,0.617991
23,45,-0.0872665,-0.698132,-0.174533,-0.174533,-0.0969987,-0.686964,-0.158353,-0.199253,1.16787,-0.446707,-0.404488,0.617991
23,45,-0.0872665,-0.698132,-0.174533,-0.174533,-0.0969987,-0.686964,-0.158353,-0.199253,1.16787,-0.446707,-0.404488,0.617991
23,45,-0.0872665,-0.698132,-0.174533,-0.174533,-0.0969987,-0.686964,-0.158353,-0.199253,1.16787,-0.446707,-0.404488,0.617991
23,45,-0.0872665,-0.698132,-0.174533,-0.174533,-0.0969987,-0.686964,-0.158353,-0.199253,1.16787,-0.446707,-0.404488,0.617991
23,45,-0.0872665,-0.698132,-0.174533,-0.174533,-0.0969987,-0.686964,-0.158353,-0.199253,1.16787,-0.446707,-0.404488,0.617991
23,45,-0.0872665,-0.698132,-0.174533,-0.174533,-0.0969987,-0.686964,-0.158353,-0.199253,1.16787,-0.446707,-0.404488,0.617991
23,45,-0.0872665,-0.698132,-0.174533,-0.174533,-0.0969987,-0.686964,-0.158353,-0.199253,1.16787,-0.446707,-0.404488,0.617991
23,45,-0.0872665,-0.698132,-0.174533,-0.174533,-0.0969987,-0.686964,-0.158353,-0.199253,1.16787,-0.446707,-0.404488,0.617991
23,45,-0.0872665,-0.698132,-0.174533,-0.174533,-0.0969987,-0.686964,-0.158353,-0.199253,1.16787,-0.446707,-0.404488,0.617991
23,45,-0.0872665,-0.698132,-0.174533,-0.174533,-0.0969987,-0.686964,-0.158353,-0.199253,1.16787,-0.446707,-0.404488,0.617991
23,45,-0.0872665,-0.698132,-0.174533,-0.174533,-0.0969987,-0.686964,-0.158353,-0.199253,1.16787,-0.446707,-0.404488,0.617991
23,45,-0.0872665,-0.698132,-0.174533,-0.174533,-0.0969987,-0.686964,-0.158353,-0.199253,1.16787,-0.446707,-0.404488,0.617991
23,45,-0.0872665,-0.698132,-0.174533,-0.174533,-0.0969987,-0.686964,-0.158353,-0.199253,1.16787,-0.446707,-0.404488,0.617991
23,45,-0.0872665,-0.698132,-0.174533,-0.174533,-0.0969987,-0.686964,-0.158353,-0.199253,1.16787,-0.446707,-0.404488,0.617991
23,45,-0.0872665,-0.698132,-0.174533,-0.174533,-0.0969987,-0.686964,-0.158353,-0.199253,1.16787,-0.446707,-0.404488,0.617991
23,45,-0.0872665,-0.698132,-0.174533,-0.174533,-0.0969271,-0.686964,-0.158353,-0.199253,1.15928,-0.446707,-0.404488,0.617991
23,45,-0.0872665,-0.698132,-0.174533,-0.174533,-0.0969271,-0.686964,-0.158353,-0.199253,1.15928,-0.446707,-0.404488,0.617991
23,45,-0.0872665,-0.698132,-0.174533,-0.174533,-0.0969271,-0.686964,-0.158353,-0.199253,1.15928,-0.446707,-0.404488,0.617991
23,45,-0.0872665,-0.698132,-0.174533,-0.174533,-0.0969271,-0.686964,-0.158353,-0.199253,1.15928,-0.446707,-0.404488,0.617991
23,45,-0.0872665,-0.698132,-0.174533,-0.174533,-0.0969271,-0.686964,-0.158353,-0.199253,1.15928,-0.446707,-0.404488,0.617991
23,45,-0.0872665,-0.698132,-0.174533,-0.174533,-0.0969271,-0.686964,-0.158353,-0.199253,1.15928,-0.446707,-0.404488,0.617991
23,45,-0.0872665,-0.698132,-0.174533,-0.174533,-0.0969271,-0.686964,-0.158353,-0.199253,1.15928,-0.446707,-0.404488,0.617991
23,45,-0.0872665,-0.698132,-0.174533,-0.174533,-0.0969271,-0.686964,-0.158353,-0.199253,1.15928,-0.446707,-0.404488,0.617991
23,45,-0.0872665,-0.698132,-0.174533,-0.174533,-0.0969271,-0.686964,-0.158353,-0.199253,1.15928,-0.446707,-0.404488,0.617991
23,45,-0.0872665,-0.698132,-0.174533,-0.174533,-0.0969271,-0.686964,-0.158353,-0.199253,1.15928,-0.446707,-0.404488,0.617991
23,45,-0.0872665,-0.698132,-0.174533,-0.174533,-0.0969271,-0.686964,-0.158353,-0.199253,1.15928,-0.446707,-0.404488,0.617991
23,45,-0.0872665,-0.698132,-0.174533,-0.174533,-0.0969271,-0.686964,-0.158353,-0.199253,1.15928,-0.446707,-0.404488,0.617991
23,45,-0.0872665,-0.698132,-0.174533,-0.174533,-0.0969271,-0.686964,-0.158414,-0.199233,1.15928,-0.446707,-0.402964,0.617511
23,45,-0.0872665,-0.698132,-0.174533,-0.174533,-0.0969271,-0.686964,-0.158414,-0.199233,1.15928,-0.446707,-0.402964,0.617511
23,45,-0.0872665,-0.698132,-0.174533,-0.174533,-0.0969271,-0.686964,-0.158414,-0.199233,1.15928,-0.446707,-0.402964,0.617511
23,45,-0.0872665,-0.698132,-0.174533,-0.174533,-0.0969271,-0.686964,-0.158414,-0.199233,1.15928,-0.446707,-0.402964,0.617511
23,45,-0.0872665,-0.698132,-0.174533,-0.174533,-0.0969271,-0.686964,-0.158414,-0.199233,1.15928,-0.446707,-0.402964,0.617511
23,45,-0.0872665,-0.698132,-0.174533,-0.174533,-0.0969271,-0.686964,-0.158414,-0.199233,1.15928,-0.446707,-0.402964,0.617511
23,45,-0.0872665,-0.698132,-0.174533,-0.174533,-0.0969271,-0.686964,-0.158414,-0.199233,1.15928,-0.446707,-0.402964,0.617511
23,45,-0.0872665,-0.698132,-0.174533,-0.174533,-0.0969271,-0.686964,-0.158414,-0.199233,1.15928,-0.446707,-0.402964,0.617511
23,45,-0.0872665,-0.698132,-0.174533,-0.174533,-0.0969271,-0.686964,-0.158414,-0.199233,1.15928,-0.446707,-0.402964,0.617511
23,45,-0.0872665,-0.698132,-0.174533,-0.174533,-0.0969271,-0.686964,-0.158414,-0.199233,1.15928,-0.446707,-0.402964,0.617511
23,45,-0.0872665,-0.698132,-0.174533,-0.174533,-0.0969271,-0.686964,-0.158414,-0.199233,1.15928,-0.446707,-0.402964,0.617511
23,45,-0.0872665,-0.698132,-0.174533,-0.174533,-0.0969271,-0.686964,-0.158414,-0.199233,1.15928,-0.446707,-0.402964,0.617511
23,45,-0.0872665,-0.698132,-0.174533,-0.174533,-0.0969271,-0.686964,-0.158414,-0.199233,1.15928,-0.446707,-0.402964,0.617511
23,45,-0.0872665,-0.698132,-0.174533,-0.174533,-0.0969271,-0.686964,-0.158414,-0.199233,1.15928,-0.446707,-0.402964,0.617511
23,45,-0.0872665,-0.698132,-0.174533,-0.174533,-0.0969271,-0.686964,-0.158414,-0.199233,1.15928,-0.446707,-0.402964,0.617511
23,45,-0.0872665,-0.698132,-0.174533,-0.174533,-0.0969271,-0.686964,-0.158414,-0.199233,1.15928,-0.446707,-0.402964,0.617511
23,45,-0.0872665,-0.698132,-0.174533,-0.174533,-0.0969271,-0.686964,-0.158414,-0.199233,1.15928,-0.446707,-0.402964,0.617511
23,45,-0.0872665,-0.698132,-0.174533,-0.174533,-0.0969271,-0.686964,-0.158414,-0.199233,1.15928,-0.446707,-0.402964,0.617511
23,45,-0.0872665,-0.698132,-0.174533,-0.174533,-0.0969271,-0.686964,-0.158414,-0.199233,1.15928,-0.446707,-0.402964,0.617511
23,45,-0.0872665,-0.698132,-0.174533,-0.174533,-0.0969271,-0.686964,-0.158414,-0.199233,1.15928,-0.446707,-0.402964,0.617511
23,45,-0.0872665,-0.698132,-0.174533,-0.174533,-0.0969271,-0.686964,-0.158414,-0.199233,1.15928,-0.446707,-0.402964,0.617511
23,45,-0.0872665,-0.698132,-0.174533,-0.174533,-0.0969271,-0.686964,-0.158414,-0.199233,1.15928,-0.446707,-0.402964,0.617511
23,45,-0.0872665,-0.698132,-0.174533,-0.174533,-0.0969271,-0.686964,-0.158414,-0.199233,1.15928,-0.446707,-0.402964,0.617511
23,45,-0.0872665,-0.698132,-0.174533,-0.174533,-0.0969271,-0.686964,-0.158414,-0.199233,1.15928,-0.446707,-0.402964,0.617511
23,45,-0.0872665,-0.698132,-0.174533,-0.174533,-0.0969271,-0.686964,-0.158414,-0.199233,1.15928,-0.446707,-0.402964,0.617511
23,45,-0.0872665,-0.698132,-0.174533,-0.174533,-0.0969271,-0.686964,-0.158414,-0.199233,1.15928,-0.446707,-0.402964,0.617511
23,45,-0.0872665,-0.698132,-0.174533,-0.174533,-0.0969271,-0.686964,-0.158414,-0.199233,1.15928,-0.446707,-0.402964,0.617511
23,45,-0.0872665,-0.698132,-0.174533,-0.174533,-0.0969271,-0.686964,-0.158414,-0.199233,1.15928,-0.446707,-0.402964,0.617511
23,45,-0.0872665,-0.698132,-0.174533,-0.174533,-0.0969271,-0.686964,-0.158475,-0.199214,1.15928,-0.446707,-0.401439,0.617031
23,45,-0.0872665,-0.698132,-0.174533,-0.174533,-0.0969271,-0.686964,-0.158475,-0.199214,1.15928,-0.446707,-0.401439,0.617031
23,45,-0.0872665,-0.698132,-0.174533,-0.174533,-0.0969271,-0.686964,-0.158475,-0.199214,1.15928,-0.446707,-0.401439,0.617031
23,45,-0.0872665,-0.698132,-0.174533,-0.174533,-0.0969271,-0.686964,-0.158475,-0.199214,1.15928,-0.446707,-0.401439,0.617031
23,45,-0.0872665,-0.698132,-0.174533,-0.174533,-0.0969271,-0.686964,-0.158475,-0.199214,1.15928,-0.446707,-0.401439,0.617031
23,45,-0.0872665,-0.698132,-0.174533,-0.174533,-0.0969271,-0.686964,-0.158475,-0.199214,1.15928,-0.446707,-0.401439,0.617031
23,45,-0.0872665,-0.698132,-0.174533,-0.174533,-0.0969271,-0.686964,-0.158475,-0.199214,1.15928,-0.446707,-0.401439,0.617031
23,45,-0.0872665,-0.698132,-0.174533,-0.174533,-0.0969271,-0.686964,-0.158475,-0.199214,1.15928,-0.446707,-0.401439,0.617031
23,45,-0.0872665,-0.698132,-0.174533,-0.174533,-0.0969271,-0.686964,-0.158475,-0.199214,1.15928,-0.446707,-0.401439,0.617031
23,45,-0.0872665,-0.698132,-0.174533,-0.174533,-0.0969271,-0.686964,-0.158475,-0.199214,1.15928,-0.446707,-0.401439,0.617031
23,45,-0.0872665,-0.698132,-0.174533,-0.174533,-0.0969271,-0.686964,-0.158475,-0.199214,1.15928,-0.446707,-0.401439,0.617031
23,45,-0.0872665,-0.698132,-0.174533,-0.174533,-0.0969271,-0.686964,-0.158475,-0.199214,1.15928,-0.446707,-0.401439,0.617031
23,45,-0.0872665,-0.698132,-0.174533,-0.174533,-0.0969271,-0.686964,-0.158536,-0.199195,1.15928,-0.446707,-0.399914,0.616551
23,45,-0.0872665,-0.698132,-0.174533,-0.174533,-0.0969271,-0.686964,-0.158536,-0.199195,1.15928,-0.446707,-0.399914,0.616551
23,45,-0.0872665,-0.698132,-0.174533,-0.174533,-0.0969271,-0.686964,-0.158536,-0.199195,1.15928,-0.446707,-0.399914,0.616551
23,45,-0.0872665,-0.698132,-0.174533,-0.174533,-0.0969271,-0.686964,-0.158536,-0.199195,1.15928,-0.446707,-0.399914,0.616551
23,45,-0.0872665,-0.698132,-0.174533,-0.174533,-0.0969271,-0.686964,-0.158536,-0.199195,1.15928,-0.446707,-0.399914,0.616551
23,45,-0.0872665,-0.698132,-0.174533,-0.174533,-0.0969271,-0.686964,-0.158536,-0.199195,1.15928,-0.446707,-0.399914,0.616551
23,45,-0.0872665,-0.698132,-0.174533,-0.174533,-0.0969271,-0.686964,-0.158536,-0.199195,1.15928,-0.446707,-0.399914,0.616551
23,45,-0.0872665,-0.698132,-0.174533,-0.174533,-0.0969271,-0.686964,-0.158536,-0.199195,1.15928,-0.446707,-0.399914,0.616551
23,45,-0.0872665,-0.698132,-0.174533,-0.174533,-0.0969271,-0.686964,-0.158536,-0.199195,1.15928,-0.446707,-0.399914,0.616551
23,45,-0.0872665,-0.698132,-0.174533,-0.174533,-0.0969271,-0.686964,-0.158536,-0.199195,1.15928,-0.446707,-0.399914,0.616551
23,45,-0.0872665,-0.698132,-0.174533,-0.174533,-0.0969271,-0.686964,-0.158536,-0.199195,1.15928,-0.446707,-0.399914,0.616551
23,45,-0.0872665,-0.698132,-0.174533,-0.174533,-0.0969271,-0.686964,-0.158536,-0.199195,1.15928,-0.446707,-0.399914,0.616551
23,45,-0.0872665,-0.698132,-0.174533,-0.174533,-0.0969271,-0.686964,-0.158536,-0.199195,1.15928,-0.446707,-0.399914,0.616551
23,45,-0.0872665,-0.698132,-0.174533,-0.174533,-0.0969271,-0.686964,-0.158536,-0.199195,1.15928,-0.446707,-0.399914,0.616551
23,45,-0.0872665,-0.698132,-0.174533,-0.174533,-0.0969271,-0.686964,-0.158536,-0.199195,1.15928,-0.446707,-0.399914,0.616551
23,45,-0.0872665,-0.698132,-0.174533,-0.174533,-0.0969271,-0.686964,-0.158536,-0.199195,1.15928,-0.446707,-0.399914,0.616551
23,45,-0.0872665,-0.698132,-0.174533,-0.174533,-0.0969271,-0.686964,-0.158536,-0.199195,1.15928,-0.446707,-0.399914,0.616551
23,45,-0.0872665,-0.698132,-0.174533,-0.174533,-0.0969271,-0.686964,-0.158536,-0.199195,1.15928,-0.446707,-0.399914,0.616551
23,45,-0.0872665,-0.698132,-0.174533,-0.174533,-0.0969271,-0.686964,-0.158536,-0.199195,1.15928,-0.446707,-0.399914,0.616551
23,45,-0.0872665,-0.698132,-0.174533,-0.174533,-0.0969271,-0.686964,-0.158536,-0.199195,1.15928,-0.446707,-0.399914,0.616551
23,45,-0.0872665,-0.698132,-0.174533,-0.174533,-0.0969271,-0.686964,-0.158536,-0.199195,1.15928,-0.446707,-0.399914,0.616551
23,45,-0.0872665,-0.698132,-0.174533,-0.174533,-0.0969271,-0.686964,-0.158536,-0.199195,1.15928,-0.446707,-0.399914,0.616551
23,45,-0.0872665,-0.698132,-0.174533,-0.174533,-0.0969271,-0.686964,-0.158536,-0.199195,1.15928,-0.446707,-0.399914,0.616551
23,45,-0.0872665,-0.698132,-0.174533,-0.174533,-0.0969271,-0.686964,-0.158536,-0.199195,1.15928,-0.446707,-0.399914,0.616551
23,45,-0.0872665,-0.698132,-0.174533,-0.174533,-0.0969271,-0.686964,-0.158536,-0.199195,1.15928,-0.446707,-0.399914,0.616551
23,45,-0.0872665,-0.698132,-0.174533,-0.174533,-0.0969271,-0.686964,-0.158536,-0.199195,1.15928,-0.446707,-0.399914,0.616551
23,45,-0.0872665,-0.698132,-0.174533,-0.174533,-0.0969271,-0.686964,-0.158536,-0.199195,1.15928,-0.446707,-0.399914,0.616551
23,45,-0.0872665,-0.698132,-0.174533,-0.174533,-0.0969271,-0.686964,-0.158536,-0.199195,1.15928,-0.446707,-0.399914,0.616551
23,45,-0.0872665,-0.698132,-0.174533,-0.174533,-0.0969271,-0.686964,-0.158597,-0.199176,1.15928,-0.446707,-0.39839,0.616071
23,45,-0.0872665,-0.698132,-0.174533,-0.174533,-0.0969271,-0.686964,-0.158597,-0.199176,1.15928,-0.446707,-0.39839,0.616071
23,45,-0.0872665,-0.698132,-0.174533,-0.174533,-0.0969271,-0.686964,-0.158597,-0.199176,1.15928,-0.446707,-0.39839,0.616071
23,45,-0.0872665,-0.698132,-0.174533,-0.174533,-0.0969271,-0.686964,-0.158597,-0.199176,1.15928,-0.446707,-0.39839,0.616071
23,45,-0.0872665,-0.698132,-0.174533,-0.174533,-0.0969271,-0.686964,-0.158597,-0.199176,1.15928,-0.446707,-0.39839,0.616071
23,45,-0.0872665,-0.698132,-0.174533,-0.174533,-0.0969271,-0.686964,-0.158597,-0.199176,1.15928,-0.446707,-0.39839,0.616071
23,45,-0.0872665,-0.698132,-0.174533,-0.174533,-0.0969271,-0.686964,-0.158597,-0.199176,1.15928,-0.446707,-0.39839,0.616071
23,45,-0.0872665,-0.698132,-0.174533,-0.174533,-0.0969271,-0.686964,-0.158597,-0.199176,1.15928,-0.446707,-0.39839,0.616071
23,45,-0.0872665,-0.698132,-0.174533,-0.174533,-0.0969271,-0.686964,-0.158597,-0.199176,1.15928,-0.446707,-0.39839,0.616071
23,45,-0.0872665,-0.698132,-0.174533,-0.174533,-0.0969271,-0.686964,-0.158597,-0.199176,1.15928,-0.446707,-0.39839,0.616071
23,45,-0.0872665,-0.698132,-0.174533,-0.174533,-0.0969271,-0.686964,-0.158597,-0.199176,1.15928,-0.446707,-0.39839,0.616071
23,45,-0.0872665,-0.698132,-0.174533,-0.174533,-0.0969271,-0.686964,-0.158597,-0.199176,1.15928,-0.446707,-0.39839,0.616071
23,45,-0.0872665,-0.698132,-0.174533,-0.174533,-0.0969271,-0.686964,-0.158597,-0.199176,1.15928,-0.446707,-0.39839,0.616071
23,45,-0.0872665,-0.698132,-0.174533,-0.174533,-0.0969271,-0.686964,-0.158597,-0.199176,1.15928,-0.446707,-0.39839,0.616071
23,45,-0.0872665,-0.698132,-0.174533,-0.174533,-0.0969271,-0.686964,-0.158597,-0.199176,1.15928,-0.446707,-0.39839,0.616071
23,45,-0.0872665,-0.698132,-0.174533,-0.174533,-0.0969271,-0.686964,-0.158597,-0.199176,1.15928,-0.446707,-0.39839,0.616071
23,45,-0.0872665,-0.698132,-0.174533,-0.174533,-0.0969271,-0.686964,-0.158597,-0.199176,1.15928,-0.446707,-0.39839,0.616071
23,45,-0.0872665,-0.698132,-0.174533,-0.174533,-0.0969271,-0.686964,-0.158597,-0.199176,1.15928,-0.446707,-0.39839,0.616071
23,45,-0.0872665,-0.698132,-0.174533,-0.174533,-0.0969271,-0.686964,-0.158597,-0.199176,1.15928,-0.446707,-0.39839,0.616071
23,45,-0.0872665,-0.698132,-0.174533,-0.174533,-0.0969271,-0.686964,-0.158597,-0.199176,1.15928,-0.446707,-0.39839,0.616071
23,45,-0.0872665,-0.698132,-0.174533,-0.174533,-0.0969271,-0.686964,-0.158597,-0.199176,1.15928,-0.446707,-0.39839,0.616071
23,45,-0.0872665,-0.698132,-0.174533,-0.174533,-0.0969271,-0.686964,-0.158597,-0.199176,1.15928,-0.446707,-0.39839,0.616071
23,45,-0.0872665,-0.698132,-0.174533,-0.174533,-0.0969271,-0.686964,-0.158597,-0.199176,1.15928,-0.446707,-0.39839,0.616071
23,45,-0.0872665,-0.698132,-0.174533,-0.174533,-0.0969271,-0.686964,-0.158597,-0.199176,1.15928,-0.446707,-0.39839,0.616071
23,45,-0.0872665,-0.698132,-0.174533,-0.174533,-0.0969271,-0.686964,-0.158597,-0.199176,1.15928,-0.446707,-0.39839,0.616071
23,45,-0.0872665,-0.698132,-0.174533,-0.174533,-0.0969271,-0.686964,-0.158597,-0.199176,1.15928,-0.446707,-0.39839,0.616071
23,45,-0.0872665,-0.698132,-0.174533,-0.174533,-0.0969271,-0.686964,-0.158597,-0.199176,1.15928,-0.446707,-0.39839,0.616071
23,45,-0.0872665,-0.698132,-0.174533,-0.174533,-0.0969271,-0.686964,-0.158597,-0.199176,1.15928,-0.446707,-0.39839,0.616071
23,45,-0.0872665,-0.698132,-0.174533,-0.174533,-0.0969271,-0.686964,-0.158658,-0.199157,1.15928,-0.446707,-0.396865,0.615592
23,45,-0.0872665,-0.698132,-0.174533,-0.174533,-0.0969271,-0.686964,-0.158658,-0.199157,1.15928,-0.446707,-0.396865,0.615592
23,45,-0.0872665,-0.698132,-0.174533,-0.174533,-0.0969271,-0.686964,-0.158658,-0.199157,1.15928,-0.446707,-0.396865,0.615592
23,45,-0.0872665,-0.698132,-0.174533,-0.174533,-0.0969271,-0.686964,-0.158658,-0.199157,1.15928,-0.446707,-0.396865,0.615592
23,45,-0.0872665,-0.698132,-0.174533,-0.174533,-0.0969271,-0.686964,-0.158658,-0.199157,1.15928,-0.446707,-0.396865,0.615592
23,45,-0.0872665,-0.698132,-0.174533,-0.174533,-0.0969271,-0.686964,-0.158658,-0.199157,1.15928,-0.446707,-0.396865,0.615592
23,45,-0.0872665,-0.698132,-0.174533,-0.174533,-0.0969271,-0.686964,-0.158658,-0.199157,1.15928,-0.446707,-0.396865,0.615592
23,45,-0.0872665,-0.698132,-0.174533,-0.174533,-0.0969271,-0.686964,-0.158658,-0.199157,1.15928,-0.446707,-0.396865,0.615592
23,45,-0.0872665,-0.698132,-0.174533,-0.174533,-0.0969271,-0.686964,-0.158658,-0.199157,1.15928,-0.446707,-0.396865,0.615592
23,45,-0.0872665,-0.698132,-0.174533,-0.174533,-0.0969271,-0.686964,-0.158658,-0.199157,1.15928,-0.446707,-0.396865,0.615592
23,45,-0.0872665,-0.698132,-0.174533,-0.174533,-0.0969271,-0.686964,-0.158658,-0.199157,1.15928,-0.446707,-0.396865,0.615592
23,45,-0.0872665,-0.698132,-0.174533,-0.174533,-0.0969271,-0.686964,-0.158658,-0.199157,1.15928,-0.446707,-0.396865,0.615592
23,45,-0.0872665,-0.698132,-0.174533,-0.174533,-0.0969271,-0.686964,-0.158658,-0.199157,1.15928,-0.446707,-0.396865,0.615592
23,45,-0.0872665,-0.698132,-0.174533,-0.174533,-0.0969271,-0.686964,-0.158658,-0.199157,1.15928,-0.446707,-0.396865,0.615592
23,45,-0.0872665,-0.698132,-0.174533,-0.174533,-0.0969271,-0.686964,-0.158658,-0.199157,1.15928,-0.446707,-0.396865,0.615592
23,45,-0.0872665,-0.698132,-0.174533,-0.174533,-0.0968555,-0.686964,-0.158658,-0.199157,1.15069,-0.446707,-0.396865,0.615592
23,45,-0.0872665,-0.698132,-0.174533,-0.174533,-0.0968555,-0.686964,-0.158658,-0.199157,1.15069,-0.446707,-0.396865,0.615592
23,45,-0.0872665,-0.698132,-0.174533,-0.174533,-0.0968555,-0.686964,-0.158658,-0.199157,1.15069,-0.446707,-0.396865,0.615592
23,45,-0.0872665,-0.698132,-0.174533,-0.174533,-0.0968555,-0.686964,-0.158658,-0.199157,1.15069,-0.446707,-0.396865,0.615592
23,45,-0.0872665,-0.698132,-0.174533,-0.174533,-0.0968555,-0.686964,-0.158658,-0.199157,1.15069,-0.446707,-0.396865,0.615592
23,45,-0.0872665,-0.698132,-0.174533,-0.174533,-0.0968555,-0.686964,-0.158658,-0.199157,1.15069,-0.446707,-0.396865,0.615592
23,45,-0.0872665,-0.698132,-0.174533,-0.174533,-0.0968555,-0.686964,-0.158658,-0.199157,1.15069,-0.446707,-0.396865,0.615592
23,45,-0.0872665,-0.698132,-0.174533,-0.174533,-0.0968555,-0.686964,-0.158658,-0.199157,1.15069,-0.446707,-0.396865,0.615592
23,45,-0.0872665,-0.698132,-0.174533,-0.174533,-0.0968555,-0.686964,-0.158658,-0.199157,1.15069,-0.446707,-0.396865,0.615592
23,45,-0.0872665,-0.698132,-0.174533,-0.174533,-0.0968555,-0.686964,-0.158658,-0.199157,1.15069,-0.446707,-0.396865,0.615592
23,45,-0.0872665,-0.698132,-0.174533,-0.174533,-0.0968555,-0.686964,-0.158658,-0.199157,1.15069,-0.446707,-0.396865,0.615592
23,45,-0.0872665,-0.698132,-0.174533,-0.174533,-0.0968555,-0.686964,-0.158658,-0.199157,1.15069,-0.446707,-0.396865,0.615592
23,45,-0.0872665,-0.698132,-0.174533,-0.174533,-0.0968555,-0.686964,-0.158658,-0.199157,1.15069,-0.446707,-0.396865,0.615592
23,45,-0.0872665,-0.698132,-0.174533,-0.174533,-0.0968555,-0.686964,-0.158658,-0.199157,1.15069,-0.446707,-0.396865,0.615592
23,45,-0.0872665,-0.698132,-0.174533,-0.174533,-0.0968555,-0.686964,-0.158658,-0.199157,1.15069,-0.446707,-0.396865,0.615592
23,45,-0.0872665,-0.698132,-0.174533,-0.174533,-0.0968555,-0.686964,-0.158658,-0.199157,1.15069,-0.446707,-0.396865,0.615592
23,45,-0.0872665,-0.698132,-0.174533,-0.174533,-0.0968555,-0.686964,-0.158719,-0.199137,1.15069,-0.446707,-0.395341,0.615112
23,45,-0.0872665,-0.698132,-0.174533,-0.174533,-0.0968555,-0.686964,-0.158719,-0.199137,1.15069,-0.446707,-0.395341,0.615112
23,45,-0.0872665,-0.698132,-0.174533,-0.174533,-0.0968555,-0.686964,-0.158719,-0.199137,1.15069,-0.446707,-0.395341,0.615112
23,45,-0.0872665,-0.698132,-0.174533,-0.174533,-0.0968555,-0.686964,-0.158719,-0.199137,1.15069,-0.446707,-0.395341,0.615112
23,45,-0.0872665,-0.698132,-0.174533,-0.174533,-0.0968555,-0.686964,-0.158719,-0.199137,1.15069,-0.446707,-0.395341,0.615112
23,45,-0.0872665,-0.698132,-0.174533,-0.174533,-0.0968555,-0.686964,-0.158719,-0.199137,1.15069,-0.446707,-0.395341,0.615112
23,45,-0.0872665,-0.698132,-0.174533,-0.174533,-0.0968555,-0.686964,-0.158719,-0.199137,1.15069,-0.446707,-0.395341,0.615112
23,45,-0.0872665,-0.698132,-0.174533,-0.174533,-0.0968555,-0.686964,-0.158719,-0.199137,1.15069,-0.446707,-0.395341,0.615112
23,45,-0.0872665,-0.698132,-0.174533,-0.174533,-0.0968555,-0.686964,-0.158719,-0.199137,1.15069,-0.446707,-0.395341,0.615112
23,45,-0.0872665,-0.698132,-0.174533,-0.174533,-0.0968555,-0.686964,-0.158719,-0.199137,1.15069,-0.446707,-0.395341,0.615112
23,45,-0.0872665,-0.698132,-0.174533,-0.174533,-0.0968555,-0.686964,-0.158719,-0.199137,1.15069,-0.446707,-0.395341,0.615112
23,45,-0.0872665,-0.698132,-0.174533,-0.174533,-0.0968555,-0.686964,-0.158719,-0.199137,1.15069,-0.446707,-0.395341,0.615112
23,45,-0.0872665,-0.698132,-0.174533,-0.174533,-0.0968555,-0.686964,-0.158719,-0.199137,1.15069,-0.446707,-0.395341,0.615112
23,45,-0.0872665,-0.698132,-0.174533,-0.174533,-0.0968555,-0.686964,-0.158719,-0.199137,1.15069,-0.446707,-0.395341,0.615112
23,45,-0.0872665,-0.698132,-0.174533,-0.174533,-0.0968555,-0.686964,-0.158719,-0.199137,1.15069,-0.446707,-0.395341,0.615112
23,45,-0.0872665,-0.698132,-0.174533,-0.174533,-0.0968555,-0.686964,-0.158719,-0.199137,1.15069,-0.446707,-0.395341,0.615112
23,45,-0.0872665,-0.698132,-0.174533,-0.174533,-0.0968555,-0.686964,-0.158719,-0.199137,1.15069,-0.446707,-0.395341,0.615112
23,45,-0.0872665,-0.698132,-0.174533,-0.174533,-0.0968555,-0.686964,-0.158653,-0.199095,1.15069,-0.446707,-0.397005,0.614057
23,45,-0.0872665,-0.698132,-0.174533,-0.174533,-0.0968555,-0.686964,-0.158653,-0.199095,1.15069,-0.446707,-0.397005,0.614057
23,45,-0.0872665,-0.698132,-0.174533,-0.174533,-0.0968555,-0.686964,-0.158653,-0.199095,1.15069,-0.446707,-0.397005,0.614057
23,45,-0.0872665,-0.698132,-0.174533,-0.174533,-0.0968555,-0.686964,-0.158653,-0.199095,1.15069,-0.446707,-0.397005,0.614057
23,45,-0.0872665,-0.698132,-0.174533,-0.174533,-0.0968555,-0.686964,-0.158653,-0.199095,1.15069,-0.446707,-0.397005,0.614057
23,45,-0.0872665,-0.698132,-0.174533,-0.174533,-0.0968555,-0.686964,-0.158653,-0.199095,1.15069,-0.446707,-0.397005,0.614057
23,45,-0.0872665,-0.698132,-0.174533,-0.174533,-0.0968555,-0.686964,-0.158653,-0.199095,1.15069,-0.446707,-0.397005,0.614057
23,45,-0.0872665,-0.698132,-0.174533,-0.174533,-0.0968555,-0.686964,-0.158653,-0.199095,1.15069,-0.446707,-0.397005,0.614057
23,45,-0.0872665,-0.698132,-0.174533,-0.174533,-0.0968555,-0.686964,-0.158653,-0.199095,1.15069,-0.446707,-0.397005,0.614057
23,45,-0.0872665,-0.698132,-0.174533,-0.174533,-0.0968555,-0.686964,-0.158653,-0.199095,1.15069,-0.446707,-0.397005,0.614057
23,45,-0.0872665,-0.698132,-0.174533,-0.174533,-0.0968555,-0.686964,-0.158653,-0.199095,1.15069,-0.446707,-0.397005,0.614057
23,45,-0.0872665,-0.698132,-0.174533,-0.174533,-0.0968555,-0.686964,-0.158653,-0.199095,1.15069,-0.446707,-0.397005,0.614057
23,45,-0.0872665,-0.698132,-0.174533,-0.174533,-0.0968555,-0.686964,-0.158653,-0.199095,1.15069,-0.446707,-0.397005,0.614057
23,45,-0.0872665,-0.698132,-0.174533,-0.174533,-0.0968555,-0.686964,-0.158653,-0.199095,1.15069,-0.446707,-0.397005,0.614057
23,45,-0.0872665,-0.698132,-0.174533,-0.174533,-0.0968555,-0.686964,-0.158653,-0.199095,1.15069,-0.446707,-0.397005,0.614057
23,45,-0.0872665,-0.698132,-0.174533,-0.174533,-0.0968555,-0.686964,-0.158653,-0.199095,1.15069,-0.446707,-0.397005,0.614057
23,45,-0.0872665,-0.698132,-0.174533,-0.174533,-0.0968555,-0.686964,-0.158653,-0.199095,1.15069,-0.446707,-0.397005,0.614057
23,45,-0.0872665,-0.698132,-0.174533,-0.174533,-0.0968555,-0.686964,-0.158653,-0.199095,1.15069,-0.446707,-0.397005,0.614057
23,45,-0.0872665,-0.698132,-0.174533,-0.174533,-0.0968555,-0.686964,-0.158714,-0.199076,1.15069,-0.446707,-0.395481,0.613577
23,45,-0.0872665,-0.698132,-0.174533,-0.174533,-0.0968555,-0.686964,-0.158714,-0.199076,1.15069,-0.446707,-0.395481,0.613577
23,45,-0.0872665,-0.698132,-0.174533,-0.174533,-0.0968555,-0.686964,-0.158714,-0.199076,1.15069,-0.446707,-0.395481,0.613577
23,45,-0.0872665,-0.698132,-0.174533,-0.174533,-0.0968555,-0.686964,-0.158714,-0.199076,1.15069,-0.446707,-0.395481,0.613577
23,45,-0.0872665,-0.698132,-0.174533,-0.174533,-0.0968555,-0.686964,-0.158714,-0.199076,1.15069,-0.446707,-0.395481,0.613577
23,45,-0.0872665,-0.698132,-0.174533,-0.174533,-0.0968555,-0.686964,-0.158714,-0.199076,1.15069,-0.446707,-0.395481,0.613577
23,45,-0.0872665,-0.698132,-0.174533,-0.174533,-0.0968555,-0.686964,-0.158714,-0.199076,1.15069,-0.446707,-0.395481,0.613577
23,45,-0.0872665,-0.698132,-0.174533,-0.174533,-0.0968555,-0.686964,-0.158714,-0.199076,1.15069,-0.446707,-0.395481,0.613577
23,45,-0.0872665,-0.698132,-0.174533,-0.174533,-0.0968555,-0.686964,-0.158714,-0.199076,1.15069,-0.446707,-0.395481,0.613577
23,45,-0.0872665,-0.698132,-0.174533,-0.174533,-0.0968555,-0.686964,-0.158714,-0.199076,1.15069,-0.446707,-0.395481,0.613577
23,45,-0.0872665,-0.698132,-0.174533,-0.174533,-0.0968555,-0.686964,-0.158714,-0.199076,1.15069,-0.446707,-0.395481,0.613577
23,45,-0.0872665,-0.698132,-0.174533,-0.174533,-0.0968555,-0.686964,-0.158714,-0.199076,1.15069,-0.446707,-0.395481,0.613577
23,45,-0.0872665,-0.698132,-0.174533,-0.174533,-0.0968555,-0.686964,-0.158714,-0.199076,1.15069,-0.446707,-0.395481,0.613577
23,45,-0.0872665,-0.698132,-0.174533,-0.174533,-0.0968555,-0.686964,-0.158714,-0.199076,1.15069,-0.446707,-0.395481,0.613577
23,45,-0.0872665,-0.698132,-0.174533,-0.174533,-0.0968555,-0.686964,-0.158714,-0.199076,1.15069,-0.446707,-0.395481,0.613577
23,45,-0.0872665,-0.698132,-0.174533,-0.174533,-0.0968555,-0.686964,-0.158714,-0.199076,1.15069,-0.446707,-0.395481,0.613577
23,45,-0.0872665,-0.698132,-0.174533,-0.174533,-0.0968555,-0.686964,-0.158714,-0.199076,1.15069,-0.446707,-0.395481,0.613577
23,45,-0.0872665,-0.698132,-0.174533,-0.174533,-0.0968555,-0.686964,-0.158714,-0.199076,1.15069,-0.446707,-0.395481,0.613577
23,45,-0.0872665,-0.698132,-0.174533,-0.174533,-0.0968555,-0.686964,-0.158714,-0.199076,1.15069,-0.446707,-0.395481,0.613577
23,45,-0.0872665,-0.698132,-0.174533,-0.174533,-0.0968555,-0.686964,-0.158714,-0.199076,1.15069,-0.446707,-0.395481,0.613577
23,45,-0.0872665,-0.698132,-0.174533,-0.174533,-0.0968555,-0.686964,-0.158775,-0.199057,1.15069,-0.446707,-0.393956,0.613097
23,45,-0.0872665,-0.698132,-0.174533,-0.174533,-0.0968555,-0.686964,-0.158775,-0.199057,1.15069,-0.446707,-0.393956,0.613097
23,45,-0.0872665,-0.698132,-0.174533,-0.174533,-0.0968555,-0.686964,-0.158775,-0.199057,1.15069,-0.446707,-0.393956,0.613097
23,45,-0.0872665,-0.698132,-0.174533,-0.174533,-0.0968555,-0.686964,-0.158775,-0.199057,1.15069,-0.446707,-0.393956,0.613097
23,45,-0.0872665,-0.698132,-0.174533,-0.174533,-0.0968555,-0.686964,-0.158775,-0.199057,1.15069,-0.446707,-0.393956,0.613097
23,45,-0.0872665,-0.698132,-0.174533,-0.174533,-0.0968555,-0.686964,-0.158775,-0.199057,1.15069,-0.446707,-0.393956,0.613097
23,45,-0.0872665,-0.698132,-0.174533,-0.174533,-0.0968555,-0.686964,-0.158775,-0.199057,1.15069,-0.446707,-0.393956,0.613097
23,45,-0.0872665,-0.698132,-0.174533,-0.174533,-0.0968555,-0.686964,-0.158775,-0.199057,1.15069,-0.446707,-0.393956,0.613097
23,45,-0.0872665,-0.698132,-0.174533,-0.174533,-0.0968555,-0.686964,-0.158775,-0.199057,1.15069,-0.446707,-0.393956,0.613097
23,45,-0.0872665,-0.698132,-0.174533,-0.174533,-0.0968555,-0.686964,-0.158775,-0.199057,1.15069,-0.446707,-0.393956,0.613097
23,45,-0.0872665,-0.698132,-0.174533,-0.174533,-0.0968555,-0.686964,-0.158775,-0.199057,1.15069,-0.446707,-0.393956,0.613097
23,45,-0.0872665,-0.698132,-0.174533,-0.174533,-0.0968555,-0.686964,-0.158775,-0.199057,1.15069,-0.446707,-0.393956,0.613097
23,45,-0.0872665,-0.698132,-0.174533,-0.174533,-0.0968555,-0.686964,-0.158775,-0.199057,1.15069,-0.446707,-0.393956,0.613097
23,45,-0.0872665,-0.698132,-0.174533,-0.174533,-0.0968555,-0.686964,-0.158836,-0.199038,1.15069,-0.446707,-0.392432,0.612617
23,45,-0.0872665,-0.698132,-0.174533,-0.174533,-0.0968555,-0.686964,-0.158836,-0.199038,1.15069,-0.446707,-0.392432,0.612617
23,45,-0.0872665,-0.698132,-0.174533,-0.174533,-0.0968555,-0.686964,-0.158836,-0.199038,1.15069,-0.446707,-0.392432,0.612617
23,45,-0.0872665,-0.698132,-0.174533,-0.174533,-0.0968555,-0.686964,-0.158836,-0.199038,1.15069,-0.446707,-0.392432,0.612617
23,45,-0.0872665,-0.698132,-0.174533,-0.174533,-0.0968555,-0.686964,-0.158836,-0.199038,1.15069,-0.446707,-0.392432,0.612617
23,45,-0.0872665,-0.698132,-0.174533,-0.174533,-0.0968555,-0.686964,-0.158836,-0.199038,1.15069,-0.446707,-0.392432,0.612617
23,45,-0.0872665,-0.698132,-0.174533,-0.174533,-0.0968555,-0.686964,-0.158836,-0.199038,1.15069,-0.446707,-0.392432,0.612617
23,45,-0.0872665,-0.698132,-0.174533,-0.174533,-0.0968555,-0.686964,-0.158836,-0.199038,1.15069,-0.446707,-0.392432,0.612617
23,45,-0.0872665,-0.698132,-0.174533,-0.174533,-0.0968555,-0.686964,-0.158836,-0.199038,1.15069,-0.446707,-0.392432,0.612617
23,45,-0.0872665,-0.698132,-0.174533,-0.174533,-0.0968555,-0.686964,-0.158836,-0.199038,1.15069,-0.446707,-0.392432,0.612617
23,45,-0.0872665,-0.698132,-0.174533,-0.174533,-0.0968555,-0.686964,-0.158836,-0.199038,1.15069,-0.446707,-0.392432,0.612617
23,45,-0.0872665,-0.698132,-0.174533,-0.174533,-0.0968555,-0.686964,-0.158836,-0.199038,1.15069,-0.446707,-0.392432,0.612617
23,45,-0.0872665,-0.698132,-0.174533,-0.174533,-0.0968555,-0.686964,-0.158836,-0.199038,1.15069,-0.446707,-0.392432,0.612617
23,45,-0.0872665,-0.698132,-0.174533,-0.174533,-0.0968555,-0.686964,-0.158836,-0.199038,1.15069,-0.446707,-0.392432,0.612617
23,45,-0.0872665,-0.698132,-0.174533,-0.174533,-0.0968555,-0.686964,-0.158836,-0.199038,1.15069,-0.446707,-0.392432,0.612617
23,45,-0.0872665,-0.698132,-0.174533,-0.174533,-0.0968555,-0.686964,-0.158897,-0.199018,1.15069,-0.446707,-0.390848,0.612119
23,45,-0.0872665,-0.698132,-0.174533,-0.174533,-0.0968555,-0.686964,-0.158897,-0.199018,1.15069,-0.446707,-0.390848,0.612119
23,45,-0.0872665,-0.698132,-0.174533,-0.174533,-0.0968555,-0.686964,-0.158897,-0.199018,1.15069,-0.446707,-0.390848,0.612119
23,45,-0.0872665,-0.698132,-0.174533,-0.174533,-0.0968555,-0.686964,-0.15883,-0.198976,1.15069,-0.446707,-0.392513,0.611063
23,45,-0.0872665,-0.698132,-0.174533,-0.174533,-0.0968555,-0.686964,-0.15883,-0.198976,1.15069,-0.446707,-0.392513,0.611063
23,45,-0.0872665,-0.698132,-0.174533,-0.174533,-0.0968555,-0.686964,-0.15883,-0.198976,1.15069,-0.446707,-0.392513,0.611063
23,45,-0.0872665,-0.698132,-0.174533,-0.174533,-0.0968555,-0.686964,-0.15883,-0.198976,1.15069,-0.446707,-0.392513,0.611063
23,45,-0.0872665,-0.698132,-0.174533,-0.174533,-0.0968555,-0.686964,-0.15883,-0.198976,1.15069,-0.446707,-0.392513,0.611063
23,45,-0.0872665,-0.698132,-0.174533,-0.174533,-0.0968555,-0.686964,-0.15883,-0.198976,1.15069,-0.446707,-0.392513,0.611063
23,45,-0.0872665,-0.698132,-0.174533,-0.174533,-0.0968555,-0.686964,-0.15883,-0.198976,1.15069,-0.446707,-0.392513,0.611063
23,45,-0.0872665,-0.698132,-0.174533,-0.174533,-0.0968555,-0.686964,-0.15883,-0.198976,1.15069,-0.446707,-0.392513,0.611063
23,45,-0.0872665,-0.698132,-0.174533,-0.174533,-0.0968555,-0.686964,-0.15883,-0.198976,1.15069,-0.446707,-0.392513,0.611063
23,45,-0.0872665,-0.698132,-0.174533,-0.174533,-0.0968555,-0.686964,-0.15883,-0.198976,1.15069,-0.446707,-0.392513,0.611063
23,45,-0.0872665,-0.698132,-0.174533,-0.174533,-0.0968555,-0.686964,-0.15883,-0.198976,1.15069,-0.446707,-0.392513,0.611063
23,45,-0.0872665,-0.698132,-0.174533,-0.174533,-0.0968555,-0.686964,-0.15883,-0.198976,1.15069,-0.446707,-0.392513,0.611063
23,45,-0.0872665,-0.698132,-0.174533,-0.174533,-0.0968555,-0.686964,-0.15883,-0.198976,1.15069,-0.446707,-0.392513,0.611063
23,45,-0.0872665,-0.698132,-0.174533,-0.174533,-0.0968555,-0.686964,-0.15883,-0.198976,1.15069,-0.446707,-0.392513,0.611063
23,45,-0.0872665,-0.698132,-0.174533,-0.174533,-0.0968555,-0.686964,-0.15883,-0.198976,1.15069,-0.446707,-0.392513,0.611063
23,45,-0.0872665,-0.698132,-0.174533,-0.174533,-0.0968555,-0.686964,-0.15883,-0.198976,1.15069,-0.446707,-0.392513,0.611063
23,45,-0.0872665,-0.698132,-0.174533,-0.174533,-0.0968555,-0.686964,-0.15883,-0.198976,1.15069,-0.446707,-0.392513,0.611063
23,45,-0.0872665,-0.698132,-0.174533,-0.174533,-0.0968555,-0.686964,-0.15883,-0.198976,1.15069,-0.446707,-0.392513,0.611063
23,45,-0.0872665,-0.698132,-0.174533,-0.174533,-0.0968555,-0.686964,-0.15883,-0.198976,1.15069,-0.446707,-0.392513,0.611063
23,45,-0.0872665,-0.698132,-0.174533,-0.174533,-0.0968555,-0.686964,-0.15883,-0.198976,1.15069,-0.446707,-0.392513,0.611063
23,45,-0.0872665,-0.698132,-0.174533,-0.174533,-0.0968555,-0.686964,-0.15883,-0.198976,1.15069,-0.446707,-0.392513,0.611063
23,45,-0.0872665,-0.698132,-0.174533,-0.174533,-0.0968555,-0.686964,-0.15883,-0.198976,1.15069,-0.446707,-0.392513,0.611063
23,45,-0.0872665,-0.698132,-0.174533,-0.174533,-0.0968555,-0.686964,-0.15883,-0.198976,1.15069,-0.446707,-0.392513,0.611063
23,45,-0.0872665,-0.698132,-0.174533,-0.174533,-0.0968555,-0.686964,-0.158891,-0.198957,1.15069,-0.446707,-0.390982,0.610582
23,45,-0.0872665,-0.698132,-0.174533,-0.174533,-0.0968555,-0.686964,-0.158891,-0.198957,1.15069,-0.446707,-0.390982,0.610582
23,45,-0.0872665,-0.698132,-0.174533,-0.174533,-0.0968555,-0.686964,-0.158891,-0.198957,1.15069,-0.446707,-0.390982,0.610582
23,45,-0.0872665,-0.698132,-0.174533,-0.174533,-0.0968555,-0.686964,-0.158891,-0.198957,1.15069,-0.446707,-0.390982,0.610582
23,45,-0.0872665,-0.698132,-0.174533,-0.174533,-0.0968555,-0.686964,-0.158891,-0.198957,1.15069,-0.446707,-0.390982,0.610582
23,45,-0.0872665,-0.698132,-0.174533,-0.174533,-0.0968555,-0.686964,-0.158891,-0.198957,1.15069,-0.446707,-0.390982,0.610582
23,45,-0.0872665,-0.698132,-0.174533,-0.174533,-0.0968555,-0.686964,-0.158891,-0.198957,1.15069,-0.446707,-0.390982,0.610582
23,45,-0.0872665,-0.698132,-0.174533,-0.174533,-0.0968555,-0.686964,-0.158891,-0.198957,1.15069,-0.446707,-0.390982,0.610582
23,45,-0.0872665,-0.698132,-0.174533,-0.174533,-0.0968555,-0.686964,-0.158891,-0.198957,1.15069,-0.446707,-0.390982,0.610582
23,45,-0.0872665,-0.698132,-0.174533,-0.174533,-0.0968555,-0.686964,-0.158891,-0.198957,1.15069,-0.446707,-0.390982,0.610582
23,45,-0.0872665,-0.698132,-0.174533,-0.174533,-0.0968555,-0.686964,-0.158891,-0.198957,1.15069,-0.446707,-0.390982,0.610582
23,45,-0.0872665,-0.698132,-0.174533,-0.174533,-0.0968555,-0.686964,-0.158891,-0.198957,1.15069,-0.446707,-0.390982,0.610582
23,45,-0.0872665,-0.698132,-0.174533,-0.174533,-0.0968555,-0.686964,-0.158891,-0.198957,1.15069,-0.446707,-0.390982,0.610582
23,45,-0.0872665,-0.698132,-0.174533,-0.174533,-0.0968555,-0.686964,-0.158891,-0.198957,1.15069,-0.446707,-0.390982,0.610582
23,45,-0.0872665,-0.698132,-0.174533,-0.174533,-0.0968555,-0.686964,-0.158891,-0.198957,1.15069,-0.446707,-0.390982,0.610582
23,45,-0.0872665,-0.698132,-0.174533,-0.174533,-0.0968555,-0.686964,-0.158891,-0.198957,1.15069,-0.446707,-0.390982,0.610582
23,45,-0.0872665,-0.698132,-0.174533,-0.174533,-0.0968555,-0.686964,-0.158891,-0.198957,1.15069,-0.446707,-0.390982,0.610582
23,45,-0.0872665,-0.698132,-0.174533,-0.174533,-0.0968555,-0.686964,-0.158891,-0.198957,1.15069,-0.446707,-0.390982,0.610582
23,45,-0.0872665,-0.698132,-0.174533,-0.174533,-0.0968555,-0.686964,-0.158891,-0.198957,1.15069,-0.446707,-0.390982,0.610582
23,45,-0.0872665,-0.698132,-0.174533,-0.174533,-0.0968555,-0.686964,-0.158891,-0.198957,1.15069,-0.446707,-0.390982,0.610582
23,45,-0.0872665,-0.698132,-0.174533,-0.174533,-0.0968555,-0.686964,-0.158891,-0.198957,1.15069,-0.446707,-0.390982,0.610582
23,45,-0.0872665,-0.698132,-0.174533,-0.174533,-0.0968555,-0.686964,-0.158891,-0.198957,1.15069,-0.446707,-0.390982,0.610582
23,45,-0.0872665,-0.698132,-0.174533,-0.174533,-0.0968555,-0.686964,-0.158891,-0.198957,1.15069,-0.446707,-0.390982,0.610582
23,45,-0.0872665,-0.698132,-0.174533,-0.174533,-0.0968555,-0.686964,-0.158891,-0.198957,1.15069,-0.446707,-0.390982,0.610582
23,45,-0.0872665,-0.698132,-0.174533,-0.174533,-0.0968555,-0.686964,-0.158891,-0.198957,1.15069,-0.446707,-0.390982,0.610582
23,45,-0.0872665,-0.698132,-0.174533,-0.174533,-0.0968555,-0.686964,-0.158891,-0.198957,1.15069,-0.446707,-0.390982,0.610582
23,45,-0.0872665,-0.698132,-0.174533,-0.174533,-0.0968555,-0.686964,-0.158891,-0.198957,1.15069,-0.446707,-0.390982,0.610582
23,45,-0.0872665,-0.698132,-0.174533,-0.174533,-0.0968555,-0.686964,-0.158891,-0.198957,1.15069,-0.446707,-0.390982,0.610582
23,45,-0.0872665,-0.698132,-0.174533,-0.174533,-0.0968555,-0.686964,-0.158891,-0.198957,1.15069,-0.446707,-0.390982,0.610582
23,45,-0.0872665,-0.698132,-0.174533,-0.174533,-0.0968555,-0.686964,-0.158891,-0.198957,1.15069,-0.446707,-0.390982,0.610582
23,45,-0.0872665,-0.698132,-0.174533,-0.174533,-0.0968555,-0.686964,-0.158891,-0.198957,1.15069,-0.446707,-0.390982,0.610582
23,45,-0.0872665,-0.698132,-0.174533,-0.174533,-0.0968555,-0.686964,-0.158891,-0.198957,1.15069,-0.446707,-0.390982,0.610582
23,45,-0.0872665,-0.698132,-0.174533,-0.174533,-0.0968555,-0.686964,-0.158891,-0.198957,1.15069,-0.446707,-0.390982,0.610582
23,45,-0.0872665,-0.698132,-0.174533,-0.174533,-0.0968555,-0.686964,-0.158891,-0.198957,1.15069,-0.446707,-0.390982,0.610582
23,45,-0.0872665,-0.698132,-0.174533,-0.174533,-0.0968555,-0.686964,-0.158891,-0.198957,1.15069,-0.446707,-0.390982,0.610582
23,45,-0.0872665,-0.698132,-0.174533,-0.174533,-0.0968555,-0.686964,-0.158891,-0.198957,1.15069,-0.446707,-0.390982,0.610582
23,45,-0.0872665,-0.698132,-0.174533,-0.174533,-0.0968555,-0.686964,-0.158891,-0.198957,1.15069,-0.446707,-0.390982,0.610582
23,45,-0.0872665,-0.698132,-0.174533,-0.174533,-0.0968555,-0.686964,-0.158891,-0.198957,1.15069,-0.446707,-0.390982,0.610582
23,45,-0.0872665,-0.698132,-0.174533,-0.174533,-0.0968555,-0.686964,-0.158891,-0.198957,1.15069,-0.446707,-0.390982,0.610582
23,45,-0.0872665,-0.698132,-0.174533,-0.174533,-0.0968555,-0.686964,-0.158891,-0.198957,1.15069,-0.446707,-0.390982,0.610582
23,45,-0.0872665,-0.698132,-0.174533,-0.174533,-0.0968555,-0.686964,-0.158952,-0.198938,1.15069,-0.446707,-0.389523,0.610122
23,45,-0.0872665,-0.698132,-0.174533,-0.174533,-0.0968555,-0.686964,-0.158952,-0.198938,1.15069,-0.446707,-0.389523,0.610122
23,45,-0.0872665,-0.698132,-0.174533,-0.174533,-0.0968555,-0.686964,-0.158952,-0.198938,1.15069,-0.446707,-0.389523,0.610122
23,45,-0.0872665,-0.698132,-0.174533,-0.174533,-0.0968555,-0.686964,-0.158952,-0.198938,1.15069,-0.446707,-0.389523,0.610122
23,45,-0.0872665,-0.698132,-0.174533,-0.174533,-0.0968555,-0.686964,-0.158952,-0.198938,1.15069,-0.446707,-0.389523,0.610122
23,45,-0.0872665,-0.698132,-0.174533,-0.174533,-0.0968555,-0.686964,-0.158952,-0.198938,1.15069,-0.446707,-0.389523,0.610122
23,45,-0.0872665,-0.698132,-0.174533,-0.174533,-0.0968555,-0.686964,-0.158952,-0.198938,1.15069,-0.446707,-0.389523,0.610122
23,45,-0.0872665,-0.698132,-0.174533,-0.174533,-0.0968555,-0.686964,-0.158952,-0.198938,1.15069,-0.446707,-0.389523,0.610122
23,45,-0.0872665,-0.698132,-0.174533,-0.174533,-0.0968555,-0.686964,-0.158952,-0.198938,1.15069,-0.446707,-0.389523,0.610122
23,45,-0.0872665,-0.698132,-0.174533,-0.174533,-0.0968555,-0.686964,-0.158952,-0.198938,1.15069,-0.446707,-0.389523,0.610122
23,45,-0.0872665,-0.698132,-0.174533,-0.174533,-0.0968555,-0.686964,-0.158952,-0.198938,1.15069,-0.446707,-0.389523,0.610122
23,45,-0.0872665,-0.698132,-0.174533,-0.174533,-0.0968555,-0.686964,-0.158952,-0.198938,1.15069,-0.446707,-0.389523,0.610122
23,45,-0.0872665,-0.698132,-0.174533,-0.174533,-0.0968555,-0.686964,-0.159013,-0.198919,1.15069,-0.446707,-0.387999,0.609642
23,45,-0.0872665,-0.698132,-0.174533,-0.174533,-0.0968555,-0.686964,-0.159013,-0.198919,1.15069,-0.446707,-0.387999,0.609642
23,45,-0.0872665,-0.698132,-0.174533,-0.174533,-0.0968555,-0.686964,-0.159013,-0.198919,1.15069,-0.446707,-0.387999,0.609642
23,45,-0.0872665,-0.698132,-0.174533,-0.174533,-0.0968555,-0.686964,-0.159013,-0.198919,1.15069,-0.446707,-0.387999,0.609642
23,45,-0.0872665,-0.698132,-0.174533,-0.174533,-0.0968555,-0.686964,-0.159013,-0.198919,1.15069,-0.446707,-0.387999,0.609642
23,45,-0.0872665,-0.698132,-0.174533,-0.174533,-0.0968555,-0.686964,-0.159013,-0.198919,1.15069,-0.446707,-0.387999,0.609642
23,45,-0.0872665,-0.698132,-0.174533,-0.174533,-0.0968555,-0.686964,-0.159013,-0.198919,1.15069,-0.446707,-0.387999,0.609642
23,45,-0.0872665,-0.698132,-0.174533,-0.174533,-0.0968555,-0.686964,-0.159013,-0.198919,1.15069,-0.446707,-0.387999,0.609642
23,45,-0.0872665,-0.698132,-0.174533,-0.174533,-0.0968555,-0.686964,-0.159013,-0.198919,1.15069,-0.446707,-0.387999,0.609642
23,45,-0.0872665,-0.698132,-0.174533,-0.174533,-0.0968555,-0.686964,-0.159013,-0.198919,1.15069,-0.446707,-0.387999,0.609642
23,45,-0.0872665,-0.698132,-0.174533,-0.174533,-0.0968555,-0.686964,-0.159013,-0.198919,1.15069,-0.446707,-0.387999,0.609642
23,45,-0.0872665,-0.698132,-0.174533,-0.174533,-0.0968555,-0.686964,-0.159013,-0.198919,1.15069,-0.446707,-0.387999,0.609642
23,45,-0.0872665,-0.698132,-0.174533,-0.174533,-0.0968555,-0.686964,-0.159013,-0.198919,1.15069,-0.446707,-0.387999,0.609642
23,45,-0.0872665,-0.698132,-0.174533,-0.174533,-0.0968555,-0.686964,-0.159013,-0.198919,1.15069,-0.446707,-0.387999,0.609642
23,45,-0.0872665,-0.698132,-0.174533,-0.174533,-0.0968555,-0.686964,-0.159013,-0.198919,1.15069,-0.446707,-0.387999,0.609642
23,45,-0.0872665,-0.698132,-0.174533,-0.174533,-0.0968555,-0.686964,-0.159013,-0.198919,1.15069,-0.446707,-0.387999,0.609642
23,45,-0.0872665,-0.698132,-0.174533,-0.174533,-0.0968555,-0.686964,-0.159013,-0.198919,1.15069,-0.446707,-0.387999,0.609642
23,45,-0.0872665,-0.698132,-0.174533,-0.174533,-0.0968555,-0.686964,-0.159013,-0.198919,1.15069,-0.446707,-0.387999,0.609642
23,45,-0.0872665,-0.698132,-0.174533,-0.174533,-0.0968555,-0.686964,-0.159013,-0.198919,1.15069,-0.446707,-0.387999,0.609642
23,45,-0.0872665,-0.698132,-0.174533,-0.174533,-0.0968555,-0.686964,-0.159013,-0.198919,1.15069,-0.446707,-0.387999,0.609642
23,45,-0.0872665,-0.698132,-0.174533,-0.174533,-0.0968555,-0.686964,-0.159013,-0.198919,1.15069,-0.446707,-0.387999,0.609642
23,45,-0.0872665,-0.698132,-0.174533,-0.174533,-0.0968555,-0.686964,-0.159013,-0.198919,1.15069,-0.446707,-0.387999,0.609642
23,45,-0.0872665,-0.698132,-0.174533,-0.174533,-0.0968555,-0.686964,-0.159013,-0.198919,1.15069,-0.446707,-0.387999,0.609642
23,45,-0.0872665,-0.698132,-0.174533,-0.174533,-0.0968555,-0.686964,-0.159013,-0.198919,1.15069,-0.446707,-0.387999,0.609642
23,45,-0.0872665,-0.698132,-0.174533,-0.174533,-0.0968555,-0.686964,-0.159013,-0.198919,1.15069,-0.446707,-0.387999,0.609642
23,45,-0.0872665,-0.698132,-0.174533,-0.174533,-0.0968555,-0.686964,-0.159013,-0.198919,1.15069,-0.446707,-0.387999,0.609642
23,45,-0.0872665,-0.698132,-0.174533,-0.174533,-0.0968555,-0.686964,-0.159013,-0.198919,1.15069,-0.446707,-0.387999,0.609642
23,45,-0.0872665,-0.698132,-0.174533,-0.174533,-0.0968555,-0.686964,-0.159013,-0.198919,1.15069,-0.446707,-0.387999,0.609642
23,45,-0.0872665,-0.698132,-0.174533,-0.174533,-0.0968555,-0.686964,-0.159013,-0.198919,1.15069,-0.446707,-0.387999,0.609642
23,45,-0.0872665,-0.698132,-0.174533,-0.174533,-0.0968555,-0.686964,-0.159013,-0.198919,1.15069,-0.446707,-0.387999,0.609642
23,45,-0.0872665,-0.698132,-0.174533,-0.174533,-0.0968555,-0.686964,-0.159013,-0.198919,1.15069,-0.446707,-0.387999,0.609642
23,45,-0.0872665,-0.698132,-0.174533,-0.174533,-0.0968555,-0.686964,-0.159013,-0.198919,1.15069,-0.446707,-0.387999,0.609642
23,45,-0.0872665,-0.698132,-0.174533,-0.174533,-0.0968555,-0.686964,-0.159013,-0.198919,1.15069,-0.446707,-0.387999,0.609642
23,45,-0.0872665,-0.698132,-0.174533,-0.174533,-0.0968555,-0.686964,-0.159013,-0.198919,1.15069,-0.446707,-0.387999,0.609642
23,45,-0.0872665,-0.698132,-0.174533,-0.174533,-0.0968555,-0.686964,-0.159013,-0.198919,1.15069,-0.446707,-0.387999,0.609642
23,45,-0.0872665,-0.698132,-0.174533,-0.174533,-0.0968555,-0.686964,-0.159013,-0.198919,1.15069,-0.446707,-0.387999,0.609642
23,45,-0.0872665,-0.698132,-0.174533,-0.174533,-0.0968555,-0.686964,-0.159013,-0.198919,1.15069,-0.446707,-0.387999,0.609642
23,45,-0.0872665,-0.698132,-0.174533,-0.174533,-0.0968555,-0.686964,-0.159013,-0.198919,1.15069,-0.446707,-0.387999,0.609642
23,45,-0.0872665,-0.698132,-0.174533,-0.174533,-0.0968555,-0.686964,-0.159013,-0.198919,1.15069,-0.446707,-0.387999,0.609642
23,45,-0.0872665,-0.698132,-0.174533,-0.174533,-0.0968555,-0.686964,-0.159013,-0.198919,1.15069,-0.446707,-0.387999,0.609642
23,45,-0.0872665,-0.698132,-0.174533,-0.174533,-0.0968555,-0.686964,-0.159074,-0.198899,1.15069,-0.446707,-0.386475,0.609163
23,45,-0.0872665,-0.698132,-0.174533,-0.174533,-0.0968555,-0.686964,-0.159074,-0.198899,1.15069,-0.446707,-0.386475,0.609163
23,45,-0.0872665,-0.698132,-0.174533,-0.174533,-0.0968555,-0.686964,-0.159074,-0.198899,1.15069,-0.446707,-0.386475,0.609163
23,45,-0.0872665,-0.698132,-0.174533,-0.174533,-0.0968555,-0.686964,-0.159074,-0.198899,1.15069,-0.446707,-0.386475,0.609163
23,45,-0.0872665,-0.698132,-0.174533,-0.174533,-0.0968555,-0.686964,-0.159074,-0.198899,1.15069,-0.446707,-0.386475,0.609163
23,45,-0.0872665,-0.698132,-0.174533,-0.174533,-0.0968555,-0.686964,-0.159074,-0.198899,1.15069,-0.446707,-0.386475,0.609163
23,45,-0.0872665,-0.698132,-0.174533,-0.174533,-0.0968555,-0.686964,-0.159074,-0.198899,1.15069,-0.446707,-0.386475,0.609163
23,45,-0.0872665,-0.698132,-0.174533,-0.174533,-0.0968555,-0.686964,-0.159074,-0.198899,1.15069,-0.446707,-0.386475,0.609163
23,45,-0.0872665,-0.698132,-0.174533,-0.174533,-0.0968555,-0.686964,-0.159074,-0.198899,1.15069,-0.446707,-0.386475,0.609163
23,45,-0.0872665,-0.698132,-0.174533,-0.174533,-0.0968555,-0.686964,-0.159074,-0.198899,1.15069,-0.446707,-0.386475,0.609163
23,45,-0.0872665,-0.698132,-0.174533,-0.174533,-0.0968555,-0.686964,-0.159074,-0.198899,1.15069,-0.446707,-0.386475,0.609163
23,45,-0.0872665,-0.698132,-0.174533,-0.174533,-0.0968555,-0.686964,-0.159074,-0.198899,1.15069,-0.446707,-0.386475,0.609163
23,45,-0.0872665,-0.698132,-0.174533,-0.174533,-0.0968555,-0.686964,-0.159074,-0.198899,1.15069,-0.446707,-0.386475,0.609163
23,45,-0.0872665,-0.698132,-0.174533,-0.174533,-0.0968555,-0.686964,-0.159007,-0.198857,1.15069,-0.446707,-0.388139,0.608107
23,45,-0.0872665,-0.698132,-0.174533,-0.174533,-0.0968555,-0.686964,-0.159007,-0.198857,1.15069,-0.446707,-0.388139,0.608107
23,45,-0.0872665,-0.698132,-0.174533,-0.174533,-0.0968555,-0.686964,-0.159007,-0.198857,1.15069,-0.446707,-0.388139,0.608107
23,45,-0.0872665,-0.698132,-0.174533,-0.174533,-0.0968555,-0.686964,-0.159007,-0.198857,1.15069,-0.446707,-0.388139,0.608107
23,45,-0.0872665,-0.698132,-0.174533,-0.174533,-0.0968555,-0.686964,-0.159007,-0.198857,1.15069,-0.446707,-0.388139,0.608107
23,45,-0.0872665,-0.698132,-0.174533,-0.174533,-0.0968555,-0.686964,-0.159007,-0.198857,1.15069,-0.446707,-0.388139,0.608107
23,45,-0.0872665,-0.698132,-0.174533,-0.174533,-0.0968555,-0.686964,-0.159007,-0.198857,1.15069,-0.446707,-0.388139,0.608107
23,45,-0.0872665,-0.698132,-0.174533,-0.174533,-0.0968555,-0.686964,-0.159007,-0.198857,1.15069,-0.446707,-0.388139,0.608107
23,45,-0.0872665,-0.698132,-0.174533,-0.174533,-0.0968555,-0.686964,-0.159007,-0.198857,1.15069,-0.446707,-0.388139,0.608107
23,45,-0.0872665,-0.698132,-0.174533,-0.174533,-0.0968555,-0.686964,-0.159007,-0.198857,1.15069,-0.446707,-0.388139,0.608107
23,45,-0.0872665,-0.698132,-0.174533,-0.174533,-0.0968555,-0.686964,-0.159007,-0.198857,1.15069,-0.446707,-0.388139,0.608107
23,45,-0.0872665,-0.698132,-0.174533,-0.174533,-0.0968555,-0.686964,-0.159007,-0.198857,1.15069,-0.446707,-0.388139,0.608107
23,45,-0.0872665,-0.698132,-0.174533,-0.174533,-0.0968555,-0.686964,-0.159007,-0.198857,1.15069,-0.446707,-0.388139,0.608107
23,45,-0.0872665,-0.698132,-0.174533,-0.174533,-0.0968555,-0.686964,-0.159007,-0.198857,1.15069,-0.446707,-0.388139,0.608107
23,45,-0.0872665,-0.698132,-0.174533,-0.174533,-0.0968555,-0.686964,-0.159007,-0.198857,1.15069,-0.446707,-0.388139,0.608107
23,45,-0.0872665,-0.698132,-0.174533,-0.174533,-0.0968555,-0.686964,-0.159007,-0.198857,1.15069,-0.446707,-0.388139,0.608107
23,45,-0.0872665,-0.698132,-0.174533,-0.174533,-0.0968555,-0.686964,-0.159007,-0.198857,1.15069,-0.446707,-0.388139,0.608107
23,45,-0.0872665,-0.698132,-0.174533,-0.174533,-0.0968555,-0.686964,-0.159007,-0.198857,1.15069,-0.446707,-0.388139,0.608107
23,45,-0.0872665,-0.698132,-0.174533,-0.174533,-0.0968555,-0.686964,-0.159007,-0.198857,1.15069,-0.446707,-0.388139,0.608107
23,45,-0.0872665,-0.698132,-0.174533,-0.174533,-0.0968555,-0.686964,-0.159007,-0.198857,1.15069,-0.446707,-0.388139,0.608107
23,45,-0.0872665,-0.698132,-0.174533,-0.174533,-0.0968555,-0.686964,-0.159007,-0.198857,1.15069,-0.446707,-0.388139,0.608107
23,45,-0.0872665,-0.698132,-0.174533,-0.174533,-0.0968555,-0.686964,-0.159007,-0.198857,1.15069,-0.446707,-0.388139,0.608107
23,45,-0.0872665,-0.698132,-0.174533,-0.174533,-0.0968555,-0.686964,-0.159007,-0.198857,1.15069,-0.446707,-0.388139,0.608107
23,45,-0.0872665,-0.698132,-0.174533,-0.174533,-0.0968555,-0.686964,-0.159007,-0.198857,1.15069,-0.446707,-0.388139,0.608107
23,45,-0.0872665,-0.698132,-0.174533,-0.174533,-0.0968555,-0.686964,-0.159007,-0.198857,1.15069,-0.446707,-0.388139,0.608107
23,45,-0.0872665,-0.698132,-0.174533,-0.174533,-0.0968555,-0.686964,-0.159007,-0.198857,1.15069,-0.446707,-0.388139,0.608107
23,45,-0.0872665,-0.698132,-0.174533,-0.174533,-0.0968555,-0.686964,-0.159007,-0.198857,1.15069,-0.446707,-0.388139,0.608107
23,45,-0.0872665,-0.698132,-0.174533,-0.174533,-0.0968555,-0.686964,-0.159007,-0.198857,1.15069,-0.446707,-0.388139,0.608107
23,45,-0.0872665,-0.698132,-0.174533,-0.174533,-0.0968555,-0.686964,-0.159007,-0.198857,1.15069,-0.446707,-0.388139,0.608107
23,45,-0.0872665,-0.698132,-0.174533,-0.174533,-0.0968555,-0.686964,-0.159007,-0.198857,1.15069,-0.446707,-0.388139,0.608107
23,45,-0.0872665,-0.698132,-0.174533,-0.174533,-0.0968555,-0.686964,-0.159007,-0.198857,1.15069,-0.446707,-0.388139,0.608107
23,45,-0.0872665,-0.698132,-0.174533,-0.174533,-0.0968555,-0.686964,-0.159007,-0.198857,1.15069,-0.446707,-0.388139,0.608107
23,45,-0.0872665,-0.698132,-0.174533,-0.174533,-0.0968555,-0.686964,-0.159007,-0.198857,1.15069,-0.446707,-0.388139,0.608107
23,45,-0.0872665,-0.698132,-0.174533,-0.174533,-0.0968555,-0.686964,-0.159007,-0.198857,1.15069,-0.446707,-0.388139,0.608107
23,45,-0.0872665,-0.698132,-0.174533,-0.174533,-0.0968555,-0.686964,-0.159007,-0.198857,1.15069,-0.446707,-0.388139,0.608107
23,45,-0.0872665,-0.698132,-0.174533,-0.174533,-0.0968555,-0.686964,-0.159007,-0.198857,1.15069,-0.446707,-0.388139,0.608107
23,45,-0.0872665,-0.698132,-0.174533,-0.174533,-0.0968555,-0.686964,-0.159007,-0.198857,1.15069,-0.446707,-0.388139,0.608107
23,45,-0.0872665,-0.698132,-0.174533,-0.174533,-0.0968555,-0.686964,-0.159068,-0.198838,1.15069,-0.446707,-0.386615,0.607628
23,45,-0.0872665,-0.698132,-0.174533,-0.174533,-0.0968555,-0.686964,-0.159068,-0.198838,1.15069,-0.446707,-0.386615,0.607628
23,45,-0.0872665,-0.698132,-0.174533,-0.174533,-0.0968555,-0.686964,-0.159068,-0.198838,1.15069,-0.446707,-0.386615,0.607628
23,45,-0.0872665,-0.698132,-0.174533,-0.174533,-0.0968555,-0.686964,-0.159068,-0.198838,1.15069,-0.446707,-0.386615,0.607628
23,45,-0.0872665,-0.698132,-0.174533,-0.174533,-0.0968555,-0.686964,-0.159068,-0.198838,1.15069,-0.446707,-0.386615,0.607628
23,45,-0.0872665,-0.698132,-0.174533,-0.174533,-0.0968555,-0.686964,-0.159068,-0.198838,1.15069,-0.446707,-0.386615,0.607628
23,45,-0.0872665,-0.698132,-0.174533,-0.174533,-0.0968555,-0.686964,-0.159068,-0.198838,1.15069,-0.446707,-0.386615,0.607628
23,45,-0.0872665,-0.698132,-0.174533,-0.174533,-0.0968555,-0.686964,-0.159068,-0.198838,1.15069,-0.446707,-0.386615,0.607628
23,45,-0.0872665,-0.698132,-0.174533,-0.174533,-0.0968555,-0.686964,-0.159068,-0.198838,1.15069,-0.446707,-0.386615,0.607628
23,45,-0.0872665,-0.698132,-0.174533,-0.174533,-0.0968555,-0.686964,-0.159068,-0.198838,1.15069,-0.446707,-0.386615,0.607628
23,45,-0.0872665,-0.698132,-0.174533,-0.174533,-0.0968555,-0.686964,-0.159068,-0.198838,1.15069,-0.446707,-0.386615,0.607628
23,45,-0.0872665,-0.698132,-0.174533,-0.174533,-0.0968555,-0.686964,-0.159068,-0.198838,1.15069,-0.446707,-0.386615,0.607628
23,45,-0.0872665,-0.698132,-0.174533,-0.174533,-0.0968555,-0.686964,-0.159068,-0.198838,1.15069,-0.446707,-0.386615,0.607628
23,45,-0.0872665,-0.698132,-0.174533,-0.174533,-0.0968555,-0.686964,-0.159068,-0.198838,1.15069,-0.446707,-0.386615,0.607628
23,45,-0.0872665,-0.698132,-0.174533,-0.174533,-0.0968555,-0.686964,-0.159068,-0.198838,1.15069,-0.446707,-0.386615,0.607628
23,45,-0.0872665,-0.698132,-0.174533,-0.174533,-0.0968555,-0.686964,-0.159068,-0.198838,1.15069,-0.446707,-0.386615,0.607628
23,45,-0.0872665,-0.698132,-0.174533,-0.174533,-0.0968555,-0.686964,-0.159068,-0.198838,1.15069,-0.446707,-0.386615,0.607628
23,45,-0.0872665,-0.698132,-0.174533,-0.174533,-0.0968555,-0.686964,-0.159068,-0.198838,1.15069,-0.446707,-0.386615,0.607628
23,45,-0.0872665,-0.698132,-0.174533,-0.174533,-0.0968555,-0.686964,-0.159068,-0.198838,1.15069,-0.446707,-0.386615,0.607628
23,45,-0.0872665,-0.698132,-0.174533,-0.174533,-0.0968555,-0.686964,-0.159068,-0.198838,1.15069,-0.446707,-0.386615,0.607628
23,45,-0.0872665,-0.698132,-0.174533,-0.174533,-0.0968555,-0.686964,-0.159068,-0.198838,1.15069,-0.446707,-0.386615,0.607628
23,45,-0.0872665,-0.698132,-0.174533,-0.174533,-0.0968555,-0.686964,-0.159068,-0.198838,1.15069,-0.446707,-0.386615,0.607628
23,45,-0.0872665,-0.698132,-0.174533,-0.174533,-0.0968555,-0.686964,-0.159068,-0.198838,1.15069,-0.446707,-0.386615,0.607628
23,45,-0.0872665,-0.698132,-0.174533,-0.174533,-0.0968555,-0.686964,-0.159068,-0.198838,1.15069,-0.446707,-0.386615,0.607628
23,45,-0.0872665,-0.698132,-0.174533,-0.174533,-0.0968555,-0.686964,-0.159068,-0.198838,1.15069,-0.446707,-0.386615,0.607628
23,45,-0.0872665,-0.698132,-0.174533,-0.174533,-0.0968555,-0.686964,-0.159068,-0.198838,1.15069,-0.446707,-0.386615,0.607628
23,45,-0.0872665,-0.698132,-0.174533,-0.174533,-0.0968555,-0.686964,-0.159068,-0.198838,1.15069,-0.446707,-0.386615,0.607628
23,45,-0.0872665,-0.698132,-0.174533,-0.174533,-0.0968555,-0.686964,-0.159068,-0.198838,1.15069,-0.446707,-0.386615,0.607628
23,45,-0.0872665,-0.698132,-0.174533,-0.174533,-0.0968555,-0.686964,-0.159068,-0.198838,1.15069,-0.446707,-0.386615,0.607628
23,45,-0.0872665,-0.698132,-0.174533,-0.174533,-0.0968555,-0.686964,-0.159068,-0.198838,1.15069,-0.446707,-0.386615,0.607628
23,45,-0.0872665,-0.698132,-0.174533,-0.174533,-0.0968555,-0.686964,-0.159068,-0.198838,1.15069,-0.446707,-0.386615,0.607628
23,45,-0.0872665,-0.698132,-0.174533,-0.174533,-0.0968555,-0.686964,-0.159068,-0.198838,1.15069,-0.446707,-0.386615,0.607628
23,45,-0.0872665,-0.698132,-0.174533,-0.174533,-0.0968555,-0.686964,-0.159068,-0.198838,1.15069,-0.446707,-0.386615,0.607628
23,45,-0.0872665,-0.698132,-0.174533,-0.174533,-0.0968555,-0.686964,-0.159068,-0.198838,1.15069,-0.446707,-0.386615,0.607628
23,45,-0.0872665,-0.698132,-0.174533,-0.174533,-0.0968555,-0.686964,-0.159068,-0.198838,1.15069,-0.446707,-0.386615,0.607628
23,45,-0.0872665,-0.698132,-0.174533,-0.174533,-0.0968555,-0.686964,-0.159068,-0.198838,1.15069,-0.446707,-0.386615,0.607628
23,45,-0.0872665,-0.698132,-0.174533,-0.174533,-0.0968555,-0.686964,-0.159068,-0.198838,1.15069,-0.446707,-0.386615,0.607628
23,45,-0.0872665,-0.698132,-0.174533,-0.174533,-0.0968555,-0.686964,-0.159068,-0.198838,1.15069,-0.446707,-0.386615,0.607628
23,45,-0.0872665,-0.698132,-0.174533,-0.174533,-0.0968555,-0.686964,-0.159068,-0.198838,1.15069,-0.446707,-0.386615,0.607628
23,45,-0.0872665,-0.698132,-0.174533,-0.174533,-0.0968555,-0.686964,-0.159068,-0.198838,1.15069,-0.446707,-0.386615,0.607628
23,45,-0.0872665,-0.698132,-0.174533,-0.174533,-0.0968555,-0.686964,-0.159068,-0.198838,1.15069,-0.446707,-0.386615,0.607628
23,45,-0.0872665,-0.698132,-0.174533,-0.174533,-0.0968555,-0.686964,-0.159068,-0.198838,1.15069,-0.446707,-0.386615,0.607628
23,45,-0.0872665,-0.698132,-0.174533,-0.174533,-0.0968555,-0.686964,-0.159068,-0.198838,1.15069,-0.446707,-0.386615,0.607628
23,45,-0.0872665,-0.698132,-0.174533,-0.174533,-0.0968555,-0.686964,-0.159068,-0.198838,1.15069,-0.446707,-0.386615,0.607628
23,45,-0.0872665,-0.698132,-0.174533,-0.174533,-0.0968555,-0.686964,-0.159068,-0.198838,1.15069,-0.446707,-0.386615,0.607628
23,45,-0.0872665,-0.698132,-0.174533,-0.174533,-0.0968555,-0.686964,-0.159068,-0.198838,1.15069,-0.446707,-0.386615,0.607628
23,45,-0.0872665,-0.698132,-0.174533,-0.174533,-0.0968555,-0.686964,-0.159068,-0.198838,1.15069,-0.446707,-0.386615,0.607628
23,45,-0.0872665,-0.698132,-0.174533,-0.174533,-0.0968555,-0.686964,-0.159068,-0.198838,1.15069,-0.446707,-0.386615,0.607628
23,45,-0.0872665,-0.698132,-0.174533,-0.174533,-0.0968555,-0.686964,-0.159068,-0.198838,1.15069,-0.446707,-0.386615,0.607628
23,45,-0.0872665,-0.698132,-0.174533,-0.174533,-0.0968555,-0.686964,-0.159068,-0.198838,1.15069,-0.446707,-0.386615,0.607628
23,45,-0.0872665,-0.698132,-0.174533,-0.174533,-0.0968555,-0.686964,-0.159068,-0.198838,1.15069,-0.446707,-0.386615,0.607628
23,45,-0.0872665,-0.698132,-0.174533,-0.174533,-0.0968555,-0.686964,-0.159068,-0.198838,1.15069,-0.446707,-0.386615,0.607628
23,45,-0.0872665,-0.698132,-0.174533,-0.174533,-0.0968555,-0.686964,-0.159068,-0.198838,1.15069,-0.446707,-0.386615,0.607628
23,45,-0.0872665,-0.698132,-0.174533,-0.174533,-0.0968555,-0.686964,-0.159068,-0.198838,1.15069,-0.446707,-0.386615,0.607628
23,45,-0.0872665,-0.698132,-0.174533,-0.174533,-0.0968555,-0.686964,-0.159068,-0.198838,1.15069,-0.446707,-0.386615,0.607628
23,45,-0.0872665,-0.698132,-0.174533,-0.174533,-0.0968555,-0.686964,-0.159068,-0.198838,1.15069,-0.446707,-0.386615,0.607628
23,45,-0.0872665,-0.698132,-0.174533,-0.174533,-0.0968555,-0.686964,-0.159068,-0.198838,1.15069,-0.446707,-0.386615,0.607628
23,45,-0.0872665,-0.698132,-0.174533,-0.174533,-0.0968555,-0.686964,-0.159068,-0.198838,1.15069,-0.446707,-0.386615,0.607628
23,45,-0.0872665,-0.698132,-0.174533,-0.174533,-0.0968555,-0.686964,-0.159068,-0.198838,1.15069,-0.446707,-0.386615,0.607628
23,45,-0.0872665,-0.698132,-0.174533,-0.174533,-0.0968555,-0.686964,-0.159068,-0.198838,1.15069,-0.446707,-0.386615,0.607628
23,45,-0.0872665,-0.698132,-0.174533,-0.174533,-0.0968555,-0.686964,-0.159068,-0.198838,1.15069,-0.446707,-0.386615,0.607628
23,45,-0.0872665,-0.698132,-0.174533,-0.174533,-0.0968555,-0.686964,-0.159068,-0.198838,1.15069,-0.446707,-0.386615,0.607628
23,45,-0.0872665,-0.698132,-0.174533,-0.174533,-0.0968555,-0.686964,-0.159068,-0.198838,1.15069,-0.446707,-0.386615,0.607628
23,45,-0.0872665,-0.698132,-0.174533,-0.174533,-0.0968555,-0.686964,-0.159068,-0.198838,1.15069,-0.446707,-0.386615,0.607628
23,45,-0.0872665,-0.698132,-0.174533,-0.174533,-0.0968555,-0.686964,-0.159068,-0.198838,1.15069,-0.446707,-0.386615,0.607628
23,45,-0.0872665,-0.698132,-0.174533,-0.174533,-0.0968555,-0.686964,-0.159068,-0.198838,1.15069,-0.446707,-0.386615,0.607628
23,45,-0.0872665,-0.698132,-0.174533,-0.174533,-0.0968555,-0.686964,-0.159068,-0.198838,1.15069,-0.446707,-0.386615,0.607628
23,45,-0.0872665,-0.698132,-0.174533,-0.174533,-0.0968555,-0.686964,-0.159068,-0.198838,1.15069,-0.446707,-0.386615,0.607628
23,45,-0.0872665,-0.698132,-0.174533,-0.174533,-0.0968555,-0.686964,-0.159068,-0.198838,1.15069,-0.446707,-0.386615,0.607628
23,45,-0.0872665,-0.698132,-0.174533,-0.174533,-0.0968555,-0.686964,-0.159068,-0.198838,1.15069,-0.446707,-0.386615,0.607628
23,45,-0.0872665,-0.698132,-0.174533,-0.174533,-0.0968555,-0.686964,-0.159068,-0.198838,1.15069,-0.446707,-0.386615,0.607628
23,45,-0.0872665,-0.698132,-0.174533,-0.174533,-0.0968555,-0.686964,-0.159068,-0.198838,1.15069,-0.446707,-0.386615,0.607628
23,45,-0.0872665,-0.698132,-0.174533,-0.174533,-0.0968555,-0.686964,-0.159068,-0.198838,1.15069,-0.446707,-0.386615,0.607628
23,45,-0.0872665,-0.698132,-0.174533,-0.174533,-0.0968555,-0.686964,-0.159068,-0.198838,1.15069,-0.446707,-0.386615,0.607628
23,45,-0.0872665,-0.698132,-0.174533,-0.174533,-0.0968555,-0.686964,-0.159068,-0.198838,1.15069,-0.446707,-0.386615,0.607628
23,45,-0.0872665,-0.698132,-0.174533,-0.174533,-0.0968555,-0.686964,-0.159068,-0.198838,1.15069,-0.446707,-0.386615,0.607628
23,45,-0.0872665,-0.698132,-0.174533,-0.174533,-0.0968555,-0.686964,-0.159068,-0.198838,1.15069,-0.446707,-0.386615,0.607628
23,45,-0.0872665,-0.698132,-0.174533,-0.174533,-0.0968555,-0.686964,-0.159068,-0.198838,1.15069,-0.446707,-0.386615,0.607628
23,45,-0.0872665,-0.698132,-0.174533,-0.174533,-0.0968555,-0.686964,-0.159068,-0.198838,1.15069,-0.446707,-0.386615,0.607628
23,45,-0.0872665,-0.698132,-0.174533,-0.174533,-0.0968555,-0.686964,-0.159068,-0.198838,1.15069,-0.446707,-0.386615,0.607628
23,45,-0.0872665,-0.698132,-0.174533,-0.174533,-0.0968555,-0.686964,-0.159068,-0.198838,1.15069,-0.446707,-0.386615,0.607628
23,45,-0.0872665,-0.698132,-0.174533,-0.174533,-0.0968555,-0.686964,-0.159129,-0.198819,1.15069,-0.446707,-0.385091,0.607148
23,45,-0.0872665,-0.698132,-0.174533,-0.174533,-0.0968555,-0.686964,-0.159129,-0.198819,1.15069,-0.446707,-0.385091,0.607148
23,45,-0.0872665,-0.698132,-0.174533,-0.174533,-0.0968555,-0.686964,-0.159129,-0.198819,1.15069,-0.446707,-0.385091,0.607148
23,45,-0.0872665,-0.698132,-0.174533,-0.174533,-0.0968555,-0.686964,-0.159129,-0.198819,1.15069,-0.446707,-0.385091,0.607148
