stim_pw [us],stim_amp [mA],com_elbow_fe [rad],com_forearm_ps [rad],com_wrist_fe [rad],com_wrist_ru [rad],act_elbow_fe [rad],act_forearm_ps [rad],act_wrist_fe [rad],act_wrist_ru [rad],elbow_fe_trq [Nm],forearm_ps_trq [Nm],wrist_fe_trq [Nm],wrist_ru_trq [Nm]
26,45,-0.0872665,-0.698132,-0.174533,-0.174533,-0.093491,-0.691946,-0.157079,-0.198234,0.746946,-0.24741,-0.436355,0.592627
26,45,-0.0872665,-0.698132,-0.174533,-0.174533,-0.093491,-0.691946,-0.157079,-0.198234,0.746946,-0.24741,-0.436355,0.592625
26,45,-0.0872665,-0.698132,-0.174533,-0.174533,-0.093491,-0.691946,-0.157079,-0.198234,0.746946,-0.24741,-0.436356,0.592624
26,45,-0.0872665,-0.698132,-0.174533,-0.174533,-0.093491,-0.691946,-0.157079,-0.198234,0.746946,-0.24741,-0.436356,0.592622
26,45,-0.0872665,-0.698132,-0.174533,-0.174533,-0.093491,-0.691946,-0.157079,-0.198234,0.746946,-0.24741,-0.436356,0.592621
26,45,-0.0872665,-0.698132,-0.174533,-0.174533,-0.093491,-0.691946,-0.157079,-0.198234,0.746946,-0.24741,-0.436356,0.592619
26,45,-0.0872665,-0.698132,-0.174533,-0.174533,-0.093491,-0.691946,-0.157079,-0.198234,0.746946,-0.24741,-0.436356,0.592618
26,45,-0.0872665,-0.698132,-0.174533,-0.174533,-0.093491,-0.691946,-0.157079,-0.198234,0.746946,-0.24741,-0.436356,0.592617
26,45,-0.0872665,-0.698132,-0.174533,-0.174533,-0.093491,-0.691946,-0.157079,-0.198234,0.746946,-0.24741,-0.436356,0.592615
26,45,-0.0872665,-0.698132,-0.174533,-0.174533,-0.093491,-0.691946,-0.157079,-0.198234,0.746946,-0.24741,-0.436356,0.592614
26,45,-0.0872665,-0.698132,-0.174533,-0.174533,-0.093491,-0.691946,-0.157079,-0.198234,0.746946,-0.24741,-0.436356,0.592613
26,45,-0.0872665,-0.698132,-0.174533,-0.174533,-0.093491,-0.691946,-0.157079,-0.198234,0.746946,-0.24741,-0.436356,0.592612
26,45,-0.0872665,-0.698132,-0.174533,-0.174533,-0.093491,-0.691946,-0.157079,-0.198234,0.746946,-0.24741,-0.436356,0.592611
26,45,-0.0872665,-0.698132,-0.174533,-0.174533,-0.093491,-0.691946,-0.157079,-0.198234,0.746946,-0.24741,-0.436356,0.59261
26,45,-0.0872665,-0.698132,-0.174533,-0.174533,-0.093491,-0.691946,-0.157079,-0.198234,0.746946,-0.24741,-0.436356,0.592609
26,45,-0.0872665,-0.698132,-0.174533,-0.174533,-0.093491,-0.691946,-0.157079,-0.198234,0.746946,-0.24741,-0.436356,0.592608
26,45,-0.0872665,-0.698132,-0.174533,-0.174533,-0.093491,-0.691946,-0.157079,-0.198234,0.746946,-0.24741,-0.436356,0.592607
26,45,-0.0872665,-0.698132,-0.174533,-0.174533,-0.093491,-0.691946,-0.157079,-0.198234,0.746946,-0.24741,-0.436356,0.592606
26,45,-0.0872665,-0.698132,-0.174533,-0.174533,-0.093491,-0.691946,-0.157079,-0.198234,0.746946,-0.24741,-0.436356,0.592605
26,45,-0.0872665,-0.698132,-0.174533,-0.174533,-0.093491,-0.691946,-0.157079,-0.198234,0.746946,-0.24741,-0.436356,0.592604
26,45,-0.0872665,-0.698132,-0.174533,-0.174533,-0.093491,-0.691946,-0.157079,-0.198234,0.746946,-0.24741,-0.436356,0.592603
26,45,-0.0872665,-0.698132,-0.174533,-0.174533,-0.093491,-0.691946,-0.157079,-0.198234,0.746946,-0.24741,-0.436357,0.592602
26,45,-0.0872665,-0.698132,-0.174533,-0.174533,-0.093491,-0.691946,-0.157079,-0.198234,0.746946,-0.24741,-0.436357,0.592601
26,45,-0.0872665,-0.698132,-0.174533,-0.174533,-0.093491,-0.691946,-0.157079,-0.198234,0.746946,-0.24741,-0.436357,0.592601
26,45,-0.0872665,-0.698132,-0.174533,-0.174533,-0.093491,-0.691946,-0.157079,-0.198234,0.746946,-0.24741,-0.436357,0.5926
26,45,-0.0872665,-0.698132,-0.174533,-0.174533,-0.093491,-0.691946,-0.157079,-0.198234,0.746946,-0.24741,-0.436357,0.592599
26,45,-0.0872665,-0.698132,-0.174533,-0.174533,-0.093491,-0.691946,-0.157079,-0.198234,0.746946,-0.24741,-0.436357,0.592598
26,45,-0.0872665,-0.698132,-0.174533,-0.174533,-0.093491,-0.691946,-0.157079,-0.198234,0.746946,-0.24741,-0.436357,0.592598
26,45,-0.0872665,-0.698132,-0.174533,-0.174533,-0.093491,-0.691946,-0.157079,-0.198234,0.746946,-0.24741,-0.436357,0.592597
26,45,-0.0872665,-0.698132,-0.174533,-0.174533,-0.093491,-0.691946,-0.157079,-0.198234,0.746946,-0.24741,-0.436357,0.592596
26,45,-0.0872665,-0.698132,-0.174533,-0.174533,-0.093491,-0.691946,-0.157079,-0.198234,0.746946,-0.24741,-0.436357,0.592595
26,45,-0.0872665,-0.698132,-0.174533,-0.174533,-0.093491,-0.691946,-0.157079,-0.198234,0.746946,-0.24741,-0.43636,0.592539
26,45,-0.0872665,-0.698132,-0.174533,-0.174533,-0.093491,-0.691946,-0.157079,-0.198234,0.746946,-0.24741,-0.43636,0.592539
26,45,-0.0872665,-0.698132,-0.174533,-0.174533,-0.093491,-0.691946,-0.157079,-0.198234,0.746946,-0.24741,-0.43636,0.592539
26,45,-0.0872665,-0.698132,-0.174533,-0.174533,-0.093491,-0.691946,-0.157079,-0.198234,0.746946,-0.24741,-0.43636,0.592539
26,45,-0.0872665,-0.698132,-0.174533,-0.174533,-0.093491,-0.691946,-0.157079,-0.198234,0.746946,-0.24741,-0.43636,0.592539
26,45,-0.0872665,-0.698132,-0.174533,-0.174533,-0.093491,-0.691946,-0.157079,-0.198234,0.746946,-0.24741,-0.43636,0.592539
26,45,-0.0872665,-0.698132,-0.174533,-0.174533,-0.093491,-0.691946,-0.157079,-0.198234,0.746946,-0.24741,-0.43636,0.592539
26,45,-0.0872665,-0.698132,-0.174533,-0.174533,-0.093491,-0.691946,-0.157079,-0.198234,0.746946,-0.24741,-0.43636,0.592539
26,45,-0.0872665,-0.698132,-0.174533,-0.174533,-0.093491,-0.691946,-0.157079,-0.198234,0.746946,-0.24741,-0.43636,0.592539
26,45,-0.0872665,-0.698132,-0.174533,-0.174533,-0.093491,-0.691946,-0.157079,-0.198234,0.746946,-0.24741,-0.43636,0.592539
26,45,-0.0872665,-0.698132,-0.174533,-0.174533,-0.093491,-0.691946,-0.157079,-0.198234,0.746946,-0.24741,-0.43636,0.592539
26,45,-0.0872665,-0.698132,-0.174533,-0.174533,-0.093491,-0.691946,-0.157079,-0.198234,0.746946,-0.24741,-0.43636,0.592539
26,45,-0.0872665,-0.698132,-0.174533,-0.174533,-0.093491,-0.691946,-0.157079,-0.198234,0.746946,-0.24741,-0.43636,0.592539
26,45,-0.0872665,-0.698132,-0.174533,-0.174533,-0.093491,-0.691946,-0.157079,-0.198234,0.746946,-0.24741,-0.43636,0.592539
26,45,-0.0872665,-0.698132,-0.174533,-0.174533,-0.093491,-0.691946,-0.157079,-0.198234,0.746946,-0.24741,-0.43636,0.592539
26,45,-0.0872665,-0.698132,-0.174533,-0.174533,-0.093491,-0.691946,-0.157079,-0.198234,0.746946,-0.24741,-0.43636,0.592539
26,45,-0.0872665,-0.698132,-0.174533,-0.174533,-0.093491,-0.691946,-0.157079,-0.198234,0.746946,-0.24741,-0.43636,0.592539
26,45,-0.0872665,-0.698132,-0.174533,-0.174533,-0.093491,-0.691946,-0.157079,-0.198234,0.746946,-0.24741,-0.43636,0.592539
26,45,-0.0872665,-0.698132,-0.174533,-0.174533,-0.093491,-0.691946,-0.157079,-0.198234,0.746946,-0.24741,-0.43636,0.592539
26,45,-0.0872665,-0.698132,-0.174533,-0.174533,-0.093491,-0.691946,-0.157079,-0.198234,0.746946,-0.24741,-0.43636,0.592539
26,45,-0.0872665,-0.698132,-0.174533,-0.174533,-0.093491,-0.691946,-0.157079,-0.198234,0.746946,-0.24741,-0.43636,0.592539
26,45,-0.0872665,-0.698132,-0.174533,-0.174533,-0.093491,-0.691946,-0.157079,-0.198234,0.746946,-0.24741,-0.43636,0.592539
26,45,-0.0872665,-0.698132,-0.174533,-0.174533,-0.093491,-0.691946,-0.157079,-0.198234,0.746946,-0.24741,-0.43636,0.592539
26,45,-0.0872665,-0.698132,-0.174533,-0.174533,-0.093491,-0.691946,-0.157079,-0.198234,0.746946,-0.24741,-0.43636,0.592539
26,45,-0.0872665,-0.698132,-0.174533,-0.174533,-0.093491,-0.691946,-0.157079,-0.198234,0.746946,-0.24741,-0.43636,0.592539
26,45,-0.0872665,-0.698132,-0.174533,-0.174533,-0.093491,-0.691946,-0.157079,-0.198234,0.746946,-0.24741,-0.43636,0.592539
26,45,-0.0872665,-0.698132,-0.174533,-0.174533,-0.093491,-0.691946,-0.157079,-0.198234,0.746946,-0.24741,-0.43636,0.592539
26,45,-0.0872665,-0.698132,-0.174533,-0.174533,-0.093491,-0.691946,-0.157079,-0.198234,0.746946,-0.24741,-0.43636,0.592539
26,45,-0.0872665,-0.698132,-0.174533,-0.174533,-0.093491,-0.691946,-0.157079,-0.198234,0.746946,-0.24741,-0.43636,0.592539
26,45,-0.0872665,-0.698132,-0.174533,-0.174533,-0.093491,-0.691946,-0.157079,-0.198234,0.746946,-0.24741,-0.43636,0.592539
26,45,-0.0872665,-0.698132,-0.174533,-0.174533,-0.093491,-0.691946,-0.157079,-0.198234,0.746946,-0.24741,-0.43636,0.592539
26,45,-0.0872665,-0.698132,-0.174533,-0.174533,-0.093491,-0.691946,-0.157079,-0.198234,0.746946,-0.24741,-0.43636,0.592539
26,45,-0.0872665,-0.698132,-0.174533,-0.174533,-0.093491,-0.691946,-0.157079,-0.198234,0.746946,-0.24741,-0.43636,0.592539
26,45,-0.0872665,-0.698132,-0.174533,-0.174533,-0.093491,-0.691946,-0.157079,-0.198234,0.746946,-0.24741,-0.43636,0.592539
26,45,-0.0872665,-0.698132,-0.174533,-0.174533,-0.093491,-0.691946,-0.157079,-0.198234,0.746946,-0.24741,-0.43636,0.592539
26,45,-0.0872665,-0.698132,-0.174533,-0.174533,-0.093491,-0.691946,-0.157079,-0.198234,0.746946,-0.24741,-0.43636,0.592539
26,45,-0.0872665,-0.698132,-0.174533,-0.174533,-0.093491,-0.691946,-0.157079,-0.198234,0.746946,-0.24741,-0.43636,0.592539
26,45,-0.0872665,-0.698132,-0.174533,-0.174533,-0.093491,-0.691946,-0.157079,-0.198234,0.746946,-0.24741,-0.43636,0.592539
26,45,-0.0872665,-0.698132,-0.174533,-0.174533,-0.093491,-0.691946,-0.157079,-0.198234,0.746946,-0.24741,-0.43636,0.592539
26,45,-0.0872665,-0.698132,-0.174533,-0.174533,-0.093491,-0.691946,-0.157079,-0.198234,0.746946,-0.24741,-0.43636,0.592539
26,45,-0.0872665,-0.698132,-0.174533,-0.174533,-0.093491,-0.691946,-0.157079,-0.198234,0.746946,-0.24741,-0.43636,0.592539
26,45,-0.0872665,-0.698132,-0.174533,-0.174533,-0.093491,-0.691946,-0.157079,-0.198234,0.746946,-0.24741,-0.43636,0.592539
26,45,-0.0872665,-0.698132,-0.174533,-0.174533,-0.093491,-0.691946,-0.157079,-0.198234,0.746946,-0.24741,-0.43636,0.592539
26,45,-0.0872665,-0.698132,-0.174533,-0.174533,-0.093491,-0.691946,-0.157079,-0.198234,0.746946,-0.24741,-0.43636,0.592539
26,45,-0.0872665,-0.698132,-0.174533,-0.174533,-0.093491,-0.691946,-0.157079,-0.198234,0.746946,-0.24741,-0.43636,0.592539
26,45,-0.0872665,-0.698132,-0.174533,-0.174533,-0.093491,-0.691946,-0.157079,-0.198234,0.746946,-0.24741,-0.43636,0.592539
26,45,-0.0872665,-0.698132,-0.174533,-0.174533,-0.093491,-0.691946,-0.157079,-0.198234,0.746946,-0.24741,-0.43636,0.592539
26,45,-0.0872665,-0.698132,-0.174533,-0.174533,-0.093491,-0.691946,-0.157079,-0.198234,0.746946,-0.24741,-0.43636,0.592539
26,45,-0.0872665,-0.698132,-0.174533,-0.174533,-0.093491,-0.691946,-0.157079,-0.198234,0.746946,-0.24741,-0.43636,0.592539
26,45,-0.0872665,-0.698132,-0.174533,-0.174533,-0.093491,-0.691946,-0.157079,-0.198234,0.746946,-0.24741,-0.43636,0.592539
26,45,-0.0872665,-0.698132,-0.174533,-0.174533,-0.093491,-0.691946,-0.157079,-0.198234,0.746946,-0.24741,-0.43636,0.592539
26,45,-0.0872665,-0.698132,-0.174533,-0.174533,-0.093491,-0.691946,-0.157079,-0.198234,0.746946,-0.24741,-0.43636,0.592539
26,45,-0.0872665,-0.698132,-0.174533,-0.174533,-0.093491,-0.691946,-0.157079,-0.198234,0.746946,-0.24741,-0.43636,0.592539
26,45,-0.0872665,-0.698132,-0.174533,-0.174533,-0.093491,-0.691946,-0.157079,-0.198234,0.746946,-0.24741,-0.43636,0.592539
26,45,-0.0872665,-0.698132,-0.174533,-0.174533,-0.093491,-0.691946,-0.157079,-0.198234,0.746946,-0.24741,-0.43636,0.592539
26,45,-0.0872665,-0.698132,-0.174533,-0.174533,-0.093491,-0.691946,-0.157079,-0.198234,0.746946,-0.24741,-0.43636,0.592539
26,45,-0.0872665,-0.698132,-0.174533,-0.174533,-0.093491,-0.691946,-0.157079,-0.198234,0.746946,-0.24741,-0.43636,0.592539
26,45,-0.0872665,-0.698132,-0.174533,-0.174533,-0.093491,-0.691946,-0.157079,-0.198234,0.746946,-0.24741,-0.43636,0.592539
26,45,-0.0872665,-0.698132,-0.174533,-0.174533,-0.093491,-0.691946,-0.157079,-0.198234,0.746946,-0.24741,-0.43636,0.592539
26,45,-0.0872665,-0.698132,-0.174533,-0.174533,-0.093491,-0.691946,-0.157079,-0.198234,0.746946,-0.24741,-0.43636,0.592539
26,45,-0.0872665,-0.698132,-0.174533,-0.174533,-0.093491,-0.691946,-0.157079,-0.198234,0.746946,-0.24741,-0.43636,0.592539
26,45,-0.0872665,-0.698132,-0.174533,-0.174533,-0.093491,-0.691946,-0.157079,-0.198234,0.746946,-0.24741,-0.43636,0.592539
26,45,-0.0872665,-0.698132,-0.174533,-0.174533,-0.093491,-0.691946,-0.157079,-0.198234,0.746946,-0.24741,-0.43636,0.592539
26,45,-0.0872665,-0.698132,-0.174533,-0.174533,-0.093491,-0.691946,-0.157079,-0.198234,0.746946,-0.24741,-0.43636,0.592539
26,45,-0.0872665,-0.698132,-0.174533,-0.174533,-0.093491,-0.691946,-0.157079,-0.198234,0.746946,-0.24741,-0.43636,0.592539
26,45,-0.0872665,-0.698132,-0.174533,-0.174533,-0.093491,-0.691946,-0.157079,-0.198234,0.746946,-0.24741,-0.43636,0.592539
26,45,-0.0872665,-0.698132,-0.174533,-0.174533,-0.093491,-0.691946,-0.157079,-0.198234,0.746946,-0.24741,-0.43636,0.592539
26,45,-0.0872665,-0.698132,-0.174533,-0.174533,-0.093491,-0.691946,-0.157079,-0.198234,0.746946,-0.24741,-0.43636,0.592539
26,45,-0.0872665,-0.698132,-0.174533,-0.174533,-0.093491,-0.691946,-0.157079,-0.198234,0.746946,-0.24741,-0.43636,0.592539
26,45,-0.0872665,-0.698132,-0.174533,-0.174533,-0.093491,-0.691946,-0.157079,-0.198234,0.746946,-0.24741,-0.43636,0.592539
26,45,-0.0872665,-0.698132,-0.174533,-0.174533,-0.093491,-0.691946,-0.157079,-0.198234,0.746946,-0.24741,-0.43636,0.592539
26,45,-0.0872665,-0.698132,-0.174533,-0.174533,-0.093491,-0.691946,-0.157079,-0.198234,0.746946,-0.24741,-0.43636,0.592539
26,45,-0.0872665,-0.698132,-0.174533,-0.174533,-0.093491,-0.691946,-0.157079,-0.198234,0.746946,-0.24741,-0.43636,0.592539
26,45,-0.0872665,-0.698132,-0.174533,-0.174533,-0.093491,-0.691946,-0.157079,-0.198234,0.746946,-0.24741,-0.43636,0.592539
26,45,-0.0872665,-0.698132,-0.174533,-0.174533,-0.093491,-0.691946,-0.157079,-0.198234,0.746946,-0.24741,-0.43636,0.592539
26,45,-0.0872665,-0.698132,-0.174533,-0.174533,-0.093491,-0.691946,-0.157079,-0.198234,0.746946,-0.24741,-0.43636,0.592539
26,45,-0.0872665,-0.698132,-0.174533,-0.174533,-0.093491,-0.691946,-0.157079,-0.198234,0.746946,-0.24741,-0.43636,0.592539
26,45,-0.0872665,-0.698132,-0.174533,-0.174533,-0.093491,-0.691946,-0.157079,-0.198234,0.746946,-0.24741,-0.43636,0.592539
26,45,-0.0872665,-0.698132,-0.174533,-0.174533,-0.093491,-0.691946,-0.157079,-0.198234,0.746946,-0.24741,-0.43636,0.592539
26,45,-0.0872665,-0.698132,-0.174533,-0.174533,-0.093491,-0.691946,-0.157079,-0.198234,0.746946,-0.24741,-0.43636,0.592539
26,45,-0.0872665,-0.698132,-0.174533,-0.174533,-0.093491,-0.691946,-0.157079,-0.198234,0.746946,-0.24741,-0.43636,0.592539
26,45,-0.0872665,-0.698132,-0.174533,-0.174533,-0.093491,-0.691946,-0.157081,-0.198294,0.746946,-0.24741,-0.436289,0.594025
26,45,-0.0872665,-0.698132,-0.174533,-0.174533,-0.093491,-0.691946,-0.157081,-0.198294,0.746946,-0.24741,-0.436289,0.594025
26,45,-0.0872665,-0.698132,-0.174533,-0.174533,-0.093491,-0.691946,-0.157081,-0.198294,0.746946,-0.24741,-0.436289,0.594025
26,45,-0.0872665,-0.698132,-0.174533,-0.174533,-0.093491,-0.691946,-0.157081,-0.198294,0.746946,-0.24741,-0.436289,0.594025
26,45,-0.0872665,-0.698132,-0.174533,-0.174533,-0.093491,-0.691946,-0.157081,-0.198294,0.746946,-0.24741,-0.436289,0.594025
26,45,-0.0872665,-0.698132,-0.174533,-0.174533,-0.093491,-0.691946,-0.157081,-0.198294,0.746946,-0.24741,-0.436289,0.594025
26,45,-0.0872665,-0.698132,-0.174533,-0.174533,-0.093491,-0.691946,-0.157081,-0.198294,0.746946,-0.24741,-0.436289,0.594025
26,45,-0.0872665,-0.698132,-0.174533,-0.174533,-0.093491,-0.691946,-0.157081,-0.198294,0.746946,-0.24741,-0.436289,0.594025
26,45,-0.0872665,-0.698132,-0.174533,-0.174533,-0.093491,-0.691946,-0.157081,-0.198294,0.746946,-0.24741,-0.436289,0.594025
26,45,-0.0872665,-0.698132,-0.174533,-0.174533,-0.093491,-0.691946,-0.157081,-0.198294,0.746946,-0.24741,-0.436289,0.594025
26,45,-0.0872665,-0.698132,-0.174533,-0.174533,-0.093491,-0.691946,-0.157081,-0.198294,0.746946,-0.24741,-0.436289,0.594025
26,45,-0.0872665,-0.698132,-0.174533,-0.174533,-0.093491,-0.691946,-0.157081,-0.198294,0.746946,-0.24741,-0.436289,0.594025
26,45,-0.0872665,-0.698132,-0.174533,-0.174533,-0.093491,-0.691946,-0.157081,-0.198294,0.746946,-0.24741,-0.436289,0.594025
26,45,-0.0872665,-0.698132,-0.174533,-0.174533,-0.093491,-0.691946,-0.157081,-0.198294,0.746946,-0.24741,-0.436289,0.594025
26,45,-0.0872665,-0.698132,-0.174533,-0.174533,-0.093491,-0.691946,-0.157081,-0.198294,0.746946,-0.24741,-0.436289,0.594025
26,45,-0.0872665,-0.698132,-0.174533,-0.174533,-0.093491,-0.691946,-0.157081,-0.198294,0.746946,-0.24741,-0.436289,0.594025
26,45,-0.0872665,-0.698132,-0.174533,-0.174533,-0.093491,-0.691946,-0.157081,-0.198294,0.746946,-0.24741,-0.436289,0.594025
26,45,-0.0872665,-0.698132,-0.174533,-0.174533,-0.093491,-0.691946,-0.157081,-0.198294,0.746946,-0.24741,-0.436289,0.594025
26,45,-0.0872665,-0.698132,-0.174533,-0.174533,-0.093491,-0.691946,-0.157081,-0.198294,0.746946,-0.24741,-0.436289,0.594025
26,45,-0.0872665,-0.698132,-0.174533,-0.174533,-0.093491,-0.691946,-0.157081,-0.198294,0.746946,-0.24741,-0.436289,0.594025
26,45,-0.0872665,-0.698132,-0.174533,-0.174533,-0.093491,-0.691946,-0.157081,-0.198294,0.746946,-0.24741,-0.436289,0.594025
26,45,-0.0872665,-0.698132,-0.174533,-0.174533,-0.093491,-0.691946,-0.157081,-0.198294,0.746946,-0.24741,-0.436289,0.594025
26,45,-0.0872665,-0.698132,-0.174533,-0.174533,-0.093491,-0.691946,-0.157081,-0.198294,0.746946,-0.24741,-0.436289,0.594025
26,45,-0.0872665,-0.698132,-0.174533,-0.174533,-0.093491,-0.691946,-0.157081,-0.198294,0.746946,-0.24741,-0.436289,0.594025
26,45,-0.0872665,-0.698132,-0.174533,-0.174533,-0.093491,-0.691946,-0.157081,-0.198294,0.746946,-0.24741,-0.436289,0.594025
26,45,-0.0872665,-0.698132,-0.174533,-0.174533,-0.093491,-0.691946,-0.157081,-0.198294,0.746946,-0.24741,-0.436289,0.594025
26,45,-0.0872665,-0.698132,-0.174533,-0.174533,-0.093491,-0.691946,-0.157143,-0.198275,0.746946,-0.24741,-0.434761,0.593545
26,45,-0.0872665,-0.698132,-0.174533,-0.174533,-0.093491,-0.691946,-0.157143,-0.198275,0.746946,-0.24741,-0.434761,0.593545
26,45,-0.0872665,-0.698132,-0.174533,-0.174533,-0.093491,-0.691946,-0.157143,-0.198275,0.746946,-0.24741,-0.434761,0.593545
26,45,-0.0872665,-0.698132,-0.174533,-0.174533,-0.093491,-0.691946,-0.157143,-0.198275,0.746946,-0.24741,-0.434761,0.593545
26,45,-0.0872665,-0.698132,-0.174533,-0.174533,-0.093491,-0.691946,-0.157143,-0.198275,0.746946,-0.24741,-0.434761,0.593545
26,45,-0.0872665,-0.698132,-0.174533,-0.174533,-0.093491,-0.691946,-0.157143,-0.198275,0.746946,-0.24741,-0.434761,0.593545
26,45,-0.0872665,-0.698132,-0.174533,-0.174533,-0.093491,-0.691946,-0.157143,-0.198275,0.746946,-0.24741,-0.434761,0.593545
26,45,-0.0872665,-0.698132,-0.174533,-0.174533,-0.093491,-0.691946,-0.157143,-0.198275,0.746946,-0.24741,-0.434761,0.593545
26,45,-0.0872665,-0.698132,-0.174533,-0.174533,-0.093491,-0.691946,-0.157143,-0.198275,0.746946,-0.24741,-0.434761,0.593545
26,45,-0.0872665,-0.698132,-0.174533,-0.174533,-0.093491,-0.691946,-0.157143,-0.198275,0.746946,-0.24741,-0.434761,0.593545
26,45,-0.0872665,-0.698132,-0.174533,-0.174533,-0.093491,-0.691946,-0.157143,-0.198275,0.746946,-0.24741,-0.434761,0.593545
26,45,-0.0872665,-0.698132,-0.174533,-0.174533,-0.093491,-0.691946,-0.157143,-0.198275,0.746946,-0.24741,-0.434761,0.593545
26,45,-0.0872665,-0.698132,-0.174533,-0.174533,-0.093491,-0.691946,-0.157143,-0.198275,0.746946,-0.24741,-0.434761,0.593545
26,45,-0.0872665,-0.698132,-0.174533,-0.174533,-0.093491,-0.691946,-0.157143,-0.198275,0.746946,-0.24741,-0.434761,0.593545
26,45,-0.0872665,-0.698132,-0.174533,-0.174533,-0.093491,-0.691946,-0.157143,-0.198275,0.746946,-0.24741,-0.434761,0.593545
26,45,-0.0872665,-0.698132,-0.174533,-0.174533,-0.093491,-0.691946,-0.157143,-0.198275,0.746946,-0.24741,-0.434761,0.593545
26,45,-0.0872665,-0.698132,-0.174533,-0.174533,-0.093491,-0.691946,-0.157143,-0.198275,0.746946,-0.24741,-0.434761,0.593545
26,45,-0.0872665,-0.698132,-0.174533,-0.174533,-0.093491,-0.691946,-0.157143,-0.198275,0.746946,-0.24741,-0.434761,0.593545
26,45,-0.0872665,-0.698132,-0.174533,-0.174533,-0.093491,-0.691946,-0.157143,-0.198275,0.746946,-0.24741,-0.434761,0.593545
26,45,-0.0872665,-0.698132,-0.174533,-0.174533,-0.093491,-0.691946,-0.157143,-0.198275,0.746946,-0.24741,-0.434761,0.593545
26,45,-0.0872665,-0.698132,-0.174533,-0.174533,-0.093491,-0.691946,-0.157143,-0.198275,0.746946,-0.24741,-0.434761,0.593545
26,45,-0.0872665,-0.698132,-0.174533,-0.174533,-0.093491,-0.691946,-0.157143,-0.198275,0.746946,-0.24741,-0.434761,0.593545
26,45,-0.0872665,-0.698132,-0.174533,-0.174533,-0.093491,-0.691946,-0.157143,-0.198275,0.746946,-0.24741,-0.434761,0.593545
26,45,-0.0872665,-0.698132,-0.174533,-0.174533,-0.093491,-0.691946,-0.157143,-0.198275,0.746946,-0.24741,-0.434761,0.593545
26,45,-0.0872665,-0.698132,-0.174533,-0.174533,-0.093491,-0.691946,-0.157143,-0.198275,0.746946,-0.24741,-0.434761,0.593545
26,45,-0.0872665,-0.698132,-0.174533,-0.174533,-0.093491,-0.691946,-0.157143,-0.198275,0.746946,-0.24741,-0.434761,0.593545
26,45,-0.0872665,-0.698132,-0.174533,-0.174533,-0.093491,-0.691946,-0.157143,-0.198275,0.746946,-0.24741,-0.434761,0.593545
26,45,-0.0872665,-0.698132,-0.174533,-0.174533,-0.093491,-0.691946,-0.157143,-0.198275,0.746946,-0.24741,-0.434761,0.593545
26,45,-0.0872665,-0.698132,-0.174533,-0.174533,-0.093491,-0.691946,-0.157143,-0.198275,0.746946,-0.24741,-0.434761,0.593545
26,45,-0.0872665,-0.698132,-0.174533,-0.174533,-0.093491,-0.691946,-0.157143,-0.198275,0.746946,-0.24741,-0.434761,0.593545
26,45,-0.0872665,-0.698132,-0.174533,-0.174533,-0.093491,-0.691946,-0.157143,-0.198275,0.746946,-0.24741,-0.434761,0.593545
26,45,-0.0872665,-0.698132,-0.174533,-0.174533,-0.093491,-0.691946,-0.157143,-0.198275,0.746946,-0.24741,-0.434761,0.593545
26,45,-0.0872665,-0.698132,-0.174533,-0.174533,-0.093491,-0.691946,-0.157143,-0.198275,0.746946,-0.24741,-0.434761,0.593545
26,45,-0.0872665,-0.698132,-0.174533,-0.174533,-0.093491,-0.691946,-0.157143,-0.198275,0.746946,-0.24741,-0.434761,0.593545
26,45,-0.0872665,-0.698132,-0.174533,-0.174533,-0.093491,-0.691946,-0.157143,-0.198275,0.746946,-0.24741,-0.434761,0.593545
26,45,-0.0872665,-0.698132,-0.174533,-0.174533,-0.093491,-0.691946,-0.157143,-0.198275,0.746946,-0.24741,-0.434761,0.593545
26,45,-0.0872665,-0.698132,-0.174533,-0.174533,-0.093491,-0.691946,-0.157143,-0.198275,0.746946,-0.24741,-0.434761,0.593545
26,45,-0.0872665,-0.698132,-0.174533,-0.174533,-0.093491,-0.691946,-0.157143,-0.198275,0.746946,-0.24741,-0.434761,0.593545
26,45,-0.0872665,-0.698132,-0.174533,-0.174533,-0.093491,-0.691946,-0.157143,-0.198275,0.746946,-0.24741,-0.434761,0.593545
26,45,-0.0872665,-0.698132,-0.174533,-0.174533,-0.093491,-0.691946,-0.157143,-0.198275,0.746946,-0.24741,-0.434761,0.593545
26,45,-0.0872665,-0.698132,-0.174533,-0.174533,-0.093491,-0.691946,-0.157143,-0.198275,0.746946,-0.24741,-0.434761,0.593545
26,45,-0.0872665,-0.698132,-0.174533,-0.174533,-0.093491,-0.691946,-0.157143,-0.198275,0.746946,-0.24741,-0.434761,0.593545
26,45,-0.0872665,-0.698132,-0.174533,-0.174533,-0.093491,-0.691946,-0.157145,-0.198334,0.746946,-0.24741,-0.43469,0.595031
26,45,-0.0872665,-0.698132,-0.174533,-0.174533,-0.093491,-0.691946,-0.157145,-0.198334,0.746946,-0.24741,-0.43469,0.595031
26,45,-0.0872665,-0.698132,-0.174533,-0.174533,-0.093491,-0.691946,-0.157145,-0.198334,0.746946,-0.24741,-0.43469,0.595031
26,45,-0.0872665,-0.698132,-0.174533,-0.174533,-0.093491,-0.691946,-0.157145,-0.198334,0.746946,-0.24741,-0.43469,0.595031
26,45,-0.0872665,-0.698132,-0.174533,-0.174533,-0.093491,-0.691946,-0.157145,-0.198334,0.746946,-0.24741,-0.43469,0.595031
26,45,-0.0872665,-0.698132,-0.174533,-0.174533,-0.093491,-0.691946,-0.157145,-0.198334,0.746946,-0.24741,-0.43469,0.595031
26,45,-0.0872665,-0.698132,-0.174533,-0.174533,-0.093491,-0.691946,-0.157145,-0.198334,0.746946,-0.24741,-0.43469,0.595031
26,45,-0.0872665,-0.698132,-0.174533,-0.174533,-0.093491,-0.691946,-0.157145,-0.198334,0.746946,-0.24741,-0.43469,0.595031
26,45,-0.0872665,-0.698132,-0.174533,-0.174533,-0.093491,-0.691946,-0.157145,-0.198334,0.746946,-0.24741,-0.43469,0.595031
26,45,-0.0872665,-0.698132,-0.174533,-0.174533,-0.093491,-0.691946,-0.157145,-0.198334,0.746946,-0.24741,-0.43469,0.595031
26,45,-0.0872665,-0.698132,-0.174533,-0.174533,-0.093491,-0.691946,-0.157145,-0.198334,0.746946,-0.24741,-0.43469,0.595031
26,45,-0.0872665,-0.698132,-0.174533,-0.174533,-0.093491,-0.691946,-0.157145,-0.198334,0.746946,-0.24741,-0.43469,0.595031
26,45,-0.0872665,-0.698132,-0.174533,-0.174533,-0.093491,-0.691946,-0.157145,-0.198334,0.746946,-0.24741,-0.43469,0.595031
26,45,-0.0872665,-0.698132,-0.174533,-0.174533,-0.093491,-0.691946,-0.157145,-0.198334,0.746946,-0.24741,-0.43469,0.595031
26,45,-0.0872665,-0.698132,-0.174533,-0.174533,-0.093491,-0.691946,-0.157145,-0.198334,0.746946,-0.24741,-0.43469,0.595031
26,45,-0.0872665,-0.698132,-0.174533,-0.174533,-0.093491,-0.691946,-0.157145,-0.198334,0.746946,-0.24741,-0.43469,0.595031
26,45,-0.0872665,-0.698132,-0.174533,-0.174533,-0.093491,-0.691946,-0.157145,-0.198334,0.746946,-0.24741,-0.43469,0.595031
26,45,-0.0872665,-0.698132,-0.174533,-0.174533,-0.093491,-0.691946,-0.157145,-0.198334,0.746946,-0.24741,-0.43469,0.595031
26,45,-0.0872665,-0.698132,-0.174533,-0.174533,-0.093491,-0.691946,-0.157145,-0.198334,0.746946,-0.24741,-0.43469,0.595031
26,45,-0.0872665,-0.698132,-0.174533,-0.174533,-0.093491,-0.691946,-0.157145,-0.198334,0.746946,-0.24741,-0.43469,0.595031
26,45,-0.0872665,-0.698132,-0.174533,-0.174533,-0.093491,-0.691946,-0.157145,-0.198334,0.746946,-0.24741,-0.43469,0.595031
26,45,-0.0872665,-0.698132,-0.174533,-0.174533,-0.093491,-0.691946,-0.157145,-0.198334,0.746946,-0.24741,-0.43469,0.595031
26,45,-0.0872665,-0.698132,-0.174533,-0.174533,-0.093491,-0.691946,-0.157145,-0.198334,0.746946,-0.24741,-0.43469,0.595031
26,45,-0.0872665,-0.698132,-0.174533,-0.174533,-0.093491,-0.691946,-0.157145,-0.198334,0.746946,-0.24741,-0.43469,0.595031
26,45,-0.0872665,-0.698132,-0.174533,-0.174533,-0.093491,-0.691946,-0.157145,-0.198334,0.746946,-0.24741,-0.43469,0.595031
26,45,-0.0872665,-0.698132,-0.174533,-0.174533,-0.093491,-0.691946,-0.157145,-0.198334,0.746946,-0.24741,-0.43469,0.595031
26,45,-0.0872665,-0.698132,-0.174533,-0.174533,-0.093491,-0.691946,-0.157145,-0.198334,0.746946,-0.24741,-0.43469,0.595031
26,45,-0.0872665,-0.698132,-0.174533,-0.174533,-0.093491,-0.691946,-0.157145,-0.198334,0.746946,-0.24741,-0.43469,0.595031
26,45,-0.0872665,-0.698132,-0.174533,-0.174533,-0.093491,-0.691946,-0.157145,-0.198334,0.746946,-0.24741,-0.43469,0.595031
26,45,-0.0872665,-0.698132,-0.174533,-0.174533,-0.093491,-0.691946,-0.157145,-0.198334,0.746946,-0.24741,-0.43469,0.595031
26,45,-0.0872665,-0.698132,-0.174533,-0.174533,-0.093491,-0.691946,-0.157145,-0.198334,0.746946,-0.24741,-0.43469,0.595031
26,45,-0.0872665,-0.698132,-0.174533,-0.174533,-0.093491,-0.691946,-0.157145,-0.198334,0.746946,-0.24741,-0.43469,0.595031
26,45,-0.0872665,-0.698132,-0.174533,-0.174533,-0.093491,-0.691946,-0.157145,-0.198334,0.746946,-0.24741,-0.43469,0.595031
26,45,-0.0872665,-0.698132,-0.174533,-0.174533,-0.093491,-0.691946,-0.157145,-0.198334,0.746946,-0.24741,-0.43469,0.595031
26,45,-0.0872665,-0.698132,-0.174533,-0.174533,-0.093491,-0.691946,-0.157145,-0.198334,0.746946,-0.24741,-0.43469,0.595031
26,45,-0.0872665,-0.698132,-0.174533,-0.174533,-0.093491,-0.691946,-0.157145,-0.198334,0.746946,-0.24741,-0.43469,0.595031
26,45,-0.0872665,-0.698132,-0.174533,-0.174533,-0.093491,-0.691946,-0.157145,-0.198334,0.746946,-0.24741,-0.43469,0.595031
26,45,-0.0872665,-0.698132,-0.174533,-0.174533,-0.093491,-0.691946,-0.157145,-0.198334,0.746946,-0.24741,-0.43469,0.595031
26,45,-0.0872665,-0.698132,-0.174533,-0.174533,-0.093491,-0.691946,-0.157145,-0.198334,0.746946,-0.24741,-0.43469,0.595031
26,45,-0.0872665,-0.698132,-0.174533,-0.174533,-0.093491,-0.691946,-0.157145,-0.198334,0.746946,-0.24741,-0.43469,0.595031
26,45,-0.0872665,-0.698132,-0.174533,-0.174533,-0.093491,-0.691946,-0.157145,-0.198334,0.746946,-0.24741,-0.43469,0.595031
26,45,-0.0872665,-0.698132,-0.174533,-0.174533,-0.093491,-0.691946,-0.157145,-0.198334,0.746946,-0.24741,-0.43469,0.595031
26,45,-0.0872665,-0.698132,-0.174533,-0.174533,-0.093491,-0.691946,-0.157145,-0.198334,0.746946,-0.24741,-0.43469,0.595031
26,45,-0.0872665,-0.698132,-0.174533,-0.174533,-0.093491,-0.691946,-0.157145,-0.198334,0.746946,-0.24741,-0.43469,0.595031
26,45,-0.0872665,-0.698132,-0.174533,-0.174533,-0.093491,-0.691946,-0.157145,-0.198334,0.746946,-0.24741,-0.43469,0.595031
26,45,-0.0872665,-0.698132,-0.174533,-0.174533,-0.093491,-0.691946,-0.157145,-0.198334,0.746946,-0.24741,-0.43469,0.595031
26,45,-0.0872665,-0.698132,-0.174533,-0.174533,-0.093491,-0.691946,-0.157145,-0.198334,0.746946,-0.24741,-0.43469,0.595031
26,45,-0.0872665,-0.698132,-0.174533,-0.174533,-0.093491,-0.691946,-0.157145,-0.198334,0.746946,-0.24741,-0.43469,0.595031
26,45,-0.0872665,-0.698132,-0.174533,-0.174533,-0.093491,-0.691946,-0.157145,-0.198334,0.746946,-0.24741,-0.43469,0.595031
26,45,-0.0872665,-0.698132,-0.174533,-0.174533,-0.093491,-0.691946,-0.157145,-0.198334,0.746946,-0.24741,-0.43469,0.595031
26,45,-0.0872665,-0.698132,-0.174533,-0.174533,-0.093491,-0.691946,-0.157145,-0.198334,0.746946,-0.24741,-0.43469,0.595031
26,45,-0.0872665,-0.698132,-0.174533,-0.174533,-0.093491,-0.691946,-0.157145,-0.198334,0.746946,-0.24741,-0.43469,0.595031
26,45,-0.0872665,-0.698132,-0.174533,-0.174533,-0.093491,-0.691946,-0.157148,-0.198394,0.746946,-0.24741,-0.43462,0.596517
26,45,-0.0872665,-0.698132,-0.174533,-0.174533,-0.093491,-0.691946,-0.157148,-0.198394,0.746946,-0.24741,-0.43462,0.596517
26,45,-0.0872665,-0.698132,-0.174533,-0.174533,-0.093491,-0.691946,-0.157148,-0.198394,0.746946,-0.24741,-0.43462,0.596517
26,45,-0.0872665,-0.698132,-0.174533,-0.174533,-0.093491,-0.691946,-0.157148,-0.198394,0.746946,-0.24741,-0.43462,0.596517
26,45,-0.0872665,-0.698132,-0.174533,-0.174533,-0.093491,-0.691946,-0.157148,-0.198394,0.746946,-0.24741,-0.43462,0.596517
26,45,-0.0872665,-0.698132,-0.174533,-0.174533,-0.093491,-0.691946,-0.157148,-0.198394,0.746946,-0.24741,-0.43462,0.596517
26,45,-0.0872665,-0.698132,-0.174533,-0.174533,-0.093491,-0.691946,-0.157148,-0.198394,0.746946,-0.24741,-0.43462,0.596517
26,45,-0.0872665,-0.698132,-0.174533,-0.174533,-0.093491,-0.691946,-0.157148,-0.198394,0.746946,-0.24741,-0.43462,0.596517
26,45,-0.0872665,-0.698132,-0.174533,-0.174533,-0.093491,-0.691946,-0.157148,-0.198394,0.746946,-0.24741,-0.43462,0.596517
26,45,-0.0872665,-0.698132,-0.174533,-0.174533,-0.093491,-0.691946,-0.157148,-0.198394,0.746946,-0.24741,-0.43462,0.596517
26,45,-0.0872665,-0.698132,-0.174533,-0.174533,-0.093491,-0.691946,-0.157148,-0.198394,0.746946,-0.24741,-0.43462,0.596517
26,45,-0.0872665,-0.698132,-0.174533,-0.174533,-0.093491,-0.691946,-0.157148,-0.198394,0.746946,-0.24741,-0.43462,0.596517
26,45,-0.0872665,-0.698132,-0.174533,-0.174533,-0.093491,-0.691946,-0.157148,-0.198394,0.746946,-0.24741,-0.43462,0.596517
26,45,-0.0872665,-0.698132,-0.174533,-0.174533,-0.093491,-0.691946,-0.157148,-0.198394,0.746946,-0.24741,-0.43462,0.596517
26,45,-0.0872665,-0.698132,-0.174533,-0.174533,-0.093491,-0.691946,-0.157148,-0.198394,0.746946,-0.24741,-0.43462,0.596517
26,45,-0.0872665,-0.698132,-0.174533,-0.174533,-0.093491,-0.691946,-0.157148,-0.198394,0.746946,-0.24741,-0.43462,0.596517
26,45,-0.0872665,-0.698132,-0.174533,-0.174533,-0.093491,-0.691946,-0.157148,-0.198394,0.746946,-0.24741,-0.43462,0.596517
26,45,-0.0872665,-0.698132,-0.174533,-0.174533,-0.093491,-0.691946,-0.157148,-0.198394,0.746946,-0.24741,-0.43462,0.596517
26,45,-0.0872665,-0.698132,-0.174533,-0.174533,-0.093491,-0.691946,-0.157148,-0.198394,0.746946,-0.24741,-0.43462,0.596517
26,45,-0.0872665,-0.698132,-0.174533,-0.174533,-0.093491,-0.691946,-0.157148,-0.198394,0.746946,-0.24741,-0.43462,0.596517
26,45,-0.0872665,-0.698132,-0.174533,-0.174533,-0.093491,-0.691946,-0.157148,-0.198394,0.746946,-0.24741,-0.43462,0.596517
26,45,-0.0872665,-0.698132,-0.174533,-0.174533,-0.093491,-0.691946,-0.157148,-0.198394,0.746946,-0.24741,-0.43462,0.596517
26,45,-0.0872665,-0.698132,-0.174533,-0.174533,-0.093491,-0.691946,-0.157148,-0.198394,0.746946,-0.24741,-0.43462,0.596517
26,45,-0.0872665,-0.698132,-0.174533,-0.174533,-0.093491,-0.691946,-0.157148,-0.198394,0.746946,-0.24741,-0.43462,0.596517
26,45,-0.0872665,-0.698132,-0.174533,-0.174533,-0.093491,-0.691946,-0.157148,-0.198394,0.746946,-0.24741,-0.43462,0.596517
26,45,-0.0872665,-0.698132,-0.174533,-0.174533,-0.093491,-0.691946,-0.157148,-0.198394,0.746946,-0.24741,-0.43462,0.596517
26,45,-0.0872665,-0.698132,-0.174533,-0.174533,-0.093491,-0.691946,-0.157148,-0.198394,0.746946,-0.24741,-0.43462,0.596517
26,45,-0.0872665,-0.698132,-0.174533,-0.174533,-0.093491,-0.691946,-0.157148,-0.198394,0.746946,-0.24741,-0.43462,0.596517
26,45,-0.0872665,-0.698132,-0.174533,-0.174533,-0.093491,-0.691946,-0.157148,-0.198394,0.746946,-0.24741,-0.43462,0.596517
26,45,-0.0872665,-0.698132,-0.174533,-0.174533,-0.093491,-0.691946,-0.157148,-0.198394,0.746946,-0.24741,-0.43462,0.596517
26,45,-0.0872665,-0.698132,-0.174533,-0.174533,-0.093491,-0.691946,-0.157148,-0.198394,0.746946,-0.24741,-0.43462,0.596517
26,45,-0.0872665,-0.698132,-0.174533,-0.174533,-0.093491,-0.691946,-0.157148,-0.198394,0.746946,-0.24741,-0.43462,0.596517
26,45,-0.0872665,-0.698132,-0.174533,-0.174533,-0.093491,-0.691946,-0.157148,-0.198394,0.746946,-0.24741,-0.43462,0.596517
26,45,-0.0872665,-0.698132,-0.174533,-0.174533,-0.093491,-0.691946,-0.157148,-0.198394,0.746946,-0.24741,-0.43462,0.596517
26,45,-0.0872665,-0.698132,-0.174533,-0.174533,-0.093491,-0.691946,-0.157148,-0.198394,0.746946,-0.24741,-0.43462,0.596517
26,45,-0.0872665,-0.698132,-0.174533,-0.174533,-0.093491,-0.691946,-0.157148,-0.198394,0.746946,-0.24741,-0.43462,0.596517
26,45,-0.0872665,-0.698132,-0.174533,-0.174533,-0.093491,-0.691946,-0.157148,-0.198394,0.746946,-0.24741,-0.43462,0.596517
26,45,-0.0872665,-0.698132,-0.174533,-0.174533,-0.093491,-0.691946,-0.157148,-0.198394,0.746946,-0.24741,-0.43462,0.596517
26,45,-0.0872665,-0.698132,-0.174533,-0.174533,-0.093491,-0.691946,-0.157148,-0.198394,0.746946,-0.24741,-0.43462,0.596517
26,45,-0.0872665,-0.698132,-0.174533,-0.174533,-0.093491,-0.691946,-0.157148,-0.198394,0.746946,-0.24741,-0.43462,0.596517
26,45,-0.0872665,-0.698132,-0.174533,-0.174533,-0.093491,-0.691946,-0.157148,-0.198394,0.746946,-0.24741,-0.43462,0.596517
26,45,-0.0872665,-0.698132,-0.174533,-0.174533,-0.093491,-0.691946,-0.157148,-0.198394,0.746946,-0.24741,-0.43462,0.596517
26,45,-0.0872665,-0.698132,-0.174533,-0.174533,-0.093491,-0.691946,-0.157148,-0.198394,0.746946,-0.24741,-0.43462,0.596517
26,45,-0.0872665,-0.698132,-0.174533,-0.174533,-0.093491,-0.691946,-0.157148,-0.198394,0.746946,-0.24741,-0.43462,0.596517
26,45,-0.0872665,-0.698132,-0.174533,-0.174533,-0.093491,-0.691946,-0.157148,-0.198394,0.746946,-0.24741,-0.43462,0.596517
26,45,-0.0872665,-0.698132,-0.174533,-0.174533,-0.093491,-0.691946,-0.157148,-0.198394,0.746946,-0.24741,-0.43462,0.596517
26,45,-0.0872665,-0.698132,-0.174533,-0.174533,-0.093491,-0.691946,-0.157148,-0.198394,0.746946,-0.24741,-0.43462,0.596517
26,45,-0.0872665,-0.698132,-0.174533,-0.174533,-0.093491,-0.691946,-0.157148,-0.198394,0.746946,-0.24741,-0.43462,0.596517
26,45,-0.0872665,-0.698132,-0.174533,-0.174533,-0.093491,-0.691946,-0.157148,-0.198394,0.746946,-0.24741,-0.43462,0.596517
26,45,-0.0872665,-0.698132,-0.174533,-0.174533,-0.093491,-0.691946,-0.157148,-0.198394,0.746946,-0.24741,-0.43462,0.596517
26,45,-0.0872665,-0.698132,-0.174533,-0.174533,-0.093491,-0.691946,-0.157148,-0.198394,0.746946,-0.24741,-0.43462,0.596517
26,45,-0.0872665,-0.698132,-0.174533,-0.174533,-0.093491,-0.691946,-0.157215,-0.198436,0.746946,-0.24741,-0.432949,0.597576
26,45,-0.0872665,-0.698132,-0.174533,-0.174533,-0.093491,-0.691946,-0.157215,-0.198436,0.746946,-0.24741,-0.432949,0.597576
26,45,-0.0872665,-0.698132,-0.174533,-0.174533,-0.093491,-0.691946,-0.157215,-0.198436,0.746946,-0.24741,-0.432949,0.597576
26,45,-0.0872665,-0.698132,-0.174533,-0.174533,-0.093491,-0.691946,-0.157215,-0.198436,0.746946,-0.24741,-0.432949,0.597576
26,45,-0.0872665,-0.698132,-0.174533,-0.174533,-0.093491,-0.691946,-0.157215,-0.198436,0.746946,-0.24741,-0.432949,0.597576
26,45,-0.0872665,-0.698132,-0.174533,-0.174533,-0.093491,-0.691946,-0.157215,-0.198436,0.746946,-0.24741,-0.432949,0.597576
26,45,-0.0872665,-0.698132,-0.174533,-0.174533,-0.093491,-0.691946,-0.157215,-0.198436,0.746946,-0.24741,-0.432949,0.597576
26,45,-0.0872665,-0.698132,-0.174533,-0.174533,-0.093491,-0.691946,-0.157215,-0.198436,0.746946,-0.24741,-0.432949,0.597576
26,45,-0.0872665,-0.698132,-0.174533,-0.174533,-0.093491,-0.691946,-0.157215,-0.198436,0.746946,-0.24741,-0.432949,0.597576
26,45,-0.0872665,-0.698132,-0.174533,-0.174533,-0.093491,-0.691946,-0.157215,-0.198436,0.746946,-0.24741,-0.432949,0.597576
26,45,-0.0872665,-0.698132,-0.174533,-0.174533,-0.093491,-0.691946,-0.157215,-0.198436,0.746946,-0.24741,-0.432949,0.597576
26,45,-0.0872665,-0.698132,-0.174533,-0.174533,-0.093491,-0.691946,-0.157218,-0.198495,0.746946,-0.24741,-0.432879,0.599062
26,45,-0.0872665,-0.698132,-0.174533,-0.174533,-0.093491,-0.691946,-0.157218,-0.198495,0.746946,-0.24741,-0.432879,0.599062
26,45,-0.0872665,-0.698132,-0.174533,-0.174533,-0.093491,-0.691946,-0.157218,-0.198495,0.746946,-0.24741,-0.432879,0.599062
26,45,-0.0872665,-0.698132,-0.174533,-0.174533,-0.093491,-0.691946,-0.157218,-0.198495,0.746946,-0.24741,-0.432879,0.599062
26,45,-0.0872665,-0.698132,-0.174533,-0.174533,-0.093491,-0.691946,-0.157218,-0.198495,0.746946,-0.24741,-0.432879,0.599062
26,45,-0.0872665,-0.698132,-0.174533,-0.174533,-0.093491,-0.691946,-0.157285,-0.198538,0.746946,-0.24741,-0.431208,0.600121
26,45,-0.0872665,-0.698132,-0.174533,-0.174533,-0.093491,-0.691946,-0.157285,-0.198538,0.746946,-0.24741,-0.431208,0.600121
26,45,-0.0872665,-0.698132,-0.174533,-0.174533,-0.093491,-0.691946,-0.157285,-0.198538,0.746946,-0.24741,-0.431208,0.600121
26,45,-0.0872665,-0.698132,-0.174533,-0.174533,-0.093491,-0.691946,-0.157285,-0.198538,0.746946,-0.24741,-0.431208,0.600121
26,45,-0.0872665,-0.698132,-0.174533,-0.174533,-0.093491,-0.691946,-0.157285,-0.198538,0.746946,-0.24741,-0.431208,0.600121
26,45,-0.0872665,-0.698132,-0.174533,-0.174533,-0.093491,-0.691946,-0.157285,-0.198538,0.746946,-0.24741,-0.431208,0.600121
26,45,-0.0872665,-0.698132,-0.174533,-0.174533,-0.093491,-0.691946,-0.157285,-0.198538,0.746946,-0.24741,-0.431208,0.600121
26,45,-0.0872665,-0.698132,-0.174533,-0.174533,-0.093491,-0.691946,-0.157285,-0.198538,0.746946,-0.24741,-0.431208,0.600121
26,45,-0.0872665,-0.698132,-0.174533,-0.174533,-0.093491,-0.691946,-0.157285,-0.198538,0.746946,-0.24741,-0.431208,0.600121
26,45,-0.0872665,-0.698132,-0.174533,-0.174533,-0.093491,-0.691946,-0.157285,-0.198538,0.746946,-0.24741,-0.431208,0.600121
26,45,-0.0872665,-0.698132,-0.174533,-0.174533,-0.093491,-0.691946,-0.157285,-0.198538,0.746946,-0.24741,-0.431208,0.600121
26,45,-0.0872665,-0.698132,-0.174533,-0.174533,-0.093491,-0.691946,-0.157285,-0.198538,0.746946,-0.24741,-0.431208,0.600121
26,45,-0.0872665,-0.698132,-0.174533,-0.174533,-0.093491,-0.691946,-0.157285,-0.198538,0.746946,-0.24741,-0.431208,0.600121
26,45,-0.0872665,-0.698132,-0.174533,-0.174533,-0.093491,-0.691946,-0.157285,-0.198538,0.746946,-0.24741,-0.431208,0.600121
26,45,-0.0872665,-0.698132,-0.174533,-0.174533,-0.093491,-0.691946,-0.157285,-0.198538,0.746946,-0.24741,-0.431208,0.600121
26,45,-0.0872665,-0.698132,-0.174533,-0.174533,-0.093491,-0.691946,-0.157285,-0.198538,0.746946,-0.24741,-0.431208,0.600121
26,45,-0.0872665,-0.698132,-0.174533,-0.174533,-0.093491,-0.691946,-0.157285,-0.198538,0.746946,-0.24741,-0.431208,0.600121
26,45,-0.0872665,-0.698132,-0.174533,-0.174533,-0.093491,-0.691946,-0.157285,-0.198538,0.746946,-0.24741,-0.431208,0.600121
26,45,-0.0872665,-0.698132,-0.174533,-0.174533,-0.093491,-0.691946,-0.157285,-0.198538,0.746946,-0.24741,-0.431208,0.600121
26,45,-0.0872665,-0.698132,-0.174533,-0.174533,-0.093491,-0.691946,-0.157285,-0.198538,0.746946,-0.24741,-0.431208,0.600121
26,45,-0.0872665,-0.698132,-0.174533,-0.174533,-0.093491,-0.691946,-0.157285,-0.198538,0.746946,-0.24741,-0.431208,0.600121
26,45,-0.0872665,-0.698132,-0.174533,-0.174533,-0.093491,-0.691946,-0.157285,-0.198538,0.746946,-0.24741,-0.431208,0.600121
26,45,-0.0872665,-0.698132,-0.174533,-0.174533,-0.093491,-0.691946,-0.157285,-0.198538,0.746946,-0.24741,-0.431208,0.600121
26,45,-0.0872665,-0.698132,-0.174533,-0.174533,-0.093491,-0.691946,-0.157285,-0.198538,0.746946,-0.24741,-0.431208,0.600121
26,45,-0.0872665,-0.698132,-0.174533,-0.174533,-0.093491,-0.691946,-0.157285,-0.198538,0.746946,-0.24741,-0.431208,0.600121
26,45,-0.0872665,-0.698132,-0.174533,-0.174533,-0.093491,-0.691946,-0.157285,-0.198538,0.746946,-0.24741,-0.431208,0.600121
26,45,-0.0872665,-0.698132,-0.174533,-0.174533,-0.093491,-0.691946,-0.157285,-0.198538,0.746946,-0.24741,-0.431208,0.600121
26,45,-0.0872665,-0.698132,-0.174533,-0.174533,-0.093491,-0.691946,-0.157285,-0.198538,0.746946,-0.24741,-0.431208,0.600121
26,45,-0.0872665,-0.698132,-0.174533,-0.174533,-0.093491,-0.691946,-0.157285,-0.198538,0.746946,-0.24741,-0.431208,0.600121
26,45,-0.0872665,-0.698132,-0.174533,-0.174533,-0.093491,-0.691946,-0.157346,-0.198519,0.746946,-0.24741,-0.429679,0.599641
26,45,-0.0872665,-0.698132,-0.174533,-0.174533,-0.093491,-0.691946,-0.157346,-0.198519,0.746946,-0.24741,-0.429679,0.599641
26,45,-0.0872665,-0.698132,-0.174533,-0.174533,-0.093491,-0.691946,-0.157346,-0.198519,0.746946,-0.24741,-0.429679,0.599641
26,45,-0.0872665,-0.698132,-0.174533,-0.174533,-0.093491,-0.691946,-0.157346,-0.198519,0.746946,-0.24741,-0.429679,0.599641
26,45,-0.0872665,-0.698132,-0.174533,-0.174533,-0.093491,-0.691946,-0.157346,-0.198519,0.746946,-0.24741,-0.429679,0.599641
26,45,-0.0872665,-0.698132,-0.174533,-0.174533,-0.093491,-0.691946,-0.157346,-0.198519,0.746946,-0.24741,-0.429679,0.599641
26,45,-0.0872665,-0.698132,-0.174533,-0.174533,-0.093491,-0.691946,-0.157346,-0.198519,0.746946,-0.24741,-0.429679,0.599641
26,45,-0.0872665,-0.698132,-0.174533,-0.174533,-0.093491,-0.691946,-0.157346,-0.198519,0.746946,-0.24741,-0.429679,0.599641
26,45,-0.0872665,-0.698132,-0.174533,-0.174533,-0.093491,-0.691946,-0.157346,-0.198519,0.746946,-0.24741,-0.429679,0.599641
26,45,-0.0872665,-0.698132,-0.174533,-0.174533,-0.093491,-0.691946,-0.157346,-0.198519,0.746946,-0.24741,-0.429679,0.599641
26,45,-0.0872665,-0.698132,-0.174533,-0.174533,-0.093491,-0.691946,-0.157346,-0.198519,0.746946,-0.24741,-0.429679,0.599641
26,45,-0.0872665,-0.698132,-0.174533,-0.174533,-0.093491,-0.691946,-0.157346,-0.198519,0.746946,-0.24741,-0.429679,0.599641
26,45,-0.0872665,-0.698132,-0.174533,-0.174533,-0.093491,-0.691946,-0.157346,-0.198519,0.746946,-0.24741,-0.429679,0.599641
26,45,-0.0872665,-0.698132,-0.174533,-0.174533,-0.093491,-0.691946,-0.157346,-0.198519,0.746946,-0.24741,-0.429679,0.599641
26,45,-0.0872665,-0.698132,-0.174533,-0.174533,-0.093491,-0.691946,-0.157346,-0.198519,0.746946,-0.24741,-0.429679,0.599641
26,45,-0.0872665,-0.698132,-0.174533,-0.174533,-0.093491,-0.691946,-0.157346,-0.198519,0.746946,-0.24741,-0.429679,0.599641
26,45,-0.0872665,-0.698132,-0.174533,-0.174533,-0.093491,-0.691946,-0.157346,-0.198519,0.746946,-0.24741,-0.429679,0.599641
26,45,-0.0872665,-0.698132,-0.174533,-0.174533,-0.093491,-0.691946,-0.157346,-0.198519,0.746946,-0.24741,-0.429679,0.599641
26,45,-0.0872665,-0.698132,-0.174533,-0.174533,-0.093491,-0.691946,-0.157346,-0.198519,0.746946,-0.24741,-0.429679,0.599641
26,45,-0.0872665,-0.698132,-0.174533,-0.174533,-0.093491,-0.691946,-0.157346,-0.198519,0.746946,-0.24741,-0.429679,0.599641
26,45,-0.0872665,-0.698132,-0.174533,-0.174533,-0.093491,-0.691946,-0.157346,-0.198519,0.746946,-0.24741,-0.429679,0.599641
26,45,-0.0872665,-0.698132,-0.174533,-0.174533,-0.093491,-0.691946,-0.157346,-0.198519,0.746946,-0.24741,-0.429679,0.599641
26,45,-0.0872665,-0.698132,-0.174533,-0.174533,-0.093491,-0.691946,-0.157346,-0.198519,0.746946,-0.24741,-0.429679,0.599641
26,45,-0.0872665,-0.698132,-0.174533,-0.174533,-0.093491,-0.691946,-0.157346,-0.198519,0.746946,-0.24741,-0.429679,0.599641
26,45,-0.0872665,-0.698132,-0.174533,-0.174533,-0.093491,-0.691946,-0.157346,-0.198519,0.746946,-0.24741,-0.429679,0.599641
26,45,-0.0872665,-0.698132,-0.174533,-0.174533,-0.093491,-0.691946,-0.157346,-0.198519,0.746946,-0.24741,-0.429679,0.599641
26,45,-0.0872665,-0.698132,-0.174533,-0.174533,-0.093491,-0.691946,-0.157346,-0.198519,0.746946,-0.24741,-0.429679,0.599641
26,45,-0.0872665,-0.698132,-0.174533,-0.174533,-0.093491,-0.691946,-0.157346,-0.198519,0.746946,-0.24741,-0.429679,0.599641
26,45,-0.0872665,-0.698132,-0.174533,-0.174533,-0.093491,-0.691946,-0.157346,-0.198519,0.746946,-0.24741,-0.429679,0.599641
26,45,-0.0872665,-0.698132,-0.174533,-0.174533,-0.093491,-0.691946,-0.157346,-0.198519,0.746946,-0.24741,-0.429679,0.599641
26,45,-0.0872665,-0.698132,-0.174533,-0.174533,-0.093491,-0.691946,-0.157346,-0.198519,0.746946,-0.24741,-0.429679,0.599641
26,45,-0.0872665,-0.698132,-0.174533,-0.174533,-0.093491,-0.691946,-0.157346,-0.198519,0.746946,-0.24741,-0.429679,0.599641
26,45,-0.0872665,-0.698132,-0.174533,-0.174533,-0.093491,-0.691946,-0.157346,-0.198519,0.746946,-0.24741,-0.429679,0.599641
26,45,-0.0872665,-0.698132,-0.174533,-0.174533,-0.093491,-0.691946,-0.157346,-0.198519,0.746946,-0.24741,-0.429679,0.599641
26,45,-0.0872665,-0.698132,-0.174533,-0.174533,-0.093491,-0.691946,-0.157346,-0.198519,0.746946,-0.24741,-0.429679,0.599641
26,45,-0.0872665,-0.698132,-0.174533,-0.174533,-0.093491,-0.691946,-0.157346,-0.198519,0.746946,-0.24741,-0.429679,0.599641
26,45,-0.0872665,-0.698132,-0.174533,-0.174533,-0.093491,-0.691946,-0.157346,-0.198519,0.746946,-0.24741,-0.429679,0.599641
26,45,-0.0872665,-0.698132,-0.174533,-0.174533,-0.093491,-0.691946,-0.157346,-0.198519,0.746946,-0.24741,-0.429679,0.599641
26,45,-0.0872665,-0.698132,-0.174533,-0.174533,-0.093491,-0.691946,-0.157346,-0.198519,0.746946,-0.24741,-0.429679,0.599641
26,45,-0.0872665,-0.698132,-0.174533,-0.174533,-0.093491,-0.691946,-0.157346,-0.198519,0.746946,-0.24741,-0.429679,0.599641
26,45,-0.0872665,-0.698132,-0.174533,-0.174533,-0.093491,-0.691946,-0.157346,-0.198519,0.746946,-0.24741,-0.429679,0.599641
26,45,-0.0872665,-0.698132,-0.174533,-0.174533,-0.093491,-0.691946,-0.157346,-0.198519,0.746946,-0.24741,-0.429679,0.599641
26,45,-0.0872665,-0.698132,-0.174533,-0.174533,-0.093491,-0.691946,-0.157346,-0.198519,0.746946,-0.24741,-0.429679,0.599641
26,45,-0.0872665,-0.698132,-0.174533,-0.174533,-0.093491,-0.691946,-0.157346,-0.198519,0.746946,-0.24741,-0.429679,0.599641
26,45,-0.0872665,-0.698132,-0.174533,-0.174533,-0.093491,-0.691946,-0.157346,-0.198519,0.746946,-0.24741,-0.429679,0.599641
26,45,-0.0872665,-0.698132,-0.174533,-0.174533,-0.093491,-0.691946,-0.157346,-0.198519,0.746946,-0.24741,-0.429679,0.599641
26,45,-0.0872665,-0.698132,-0.174533,-0.174533,-0.093491,-0.691946,-0.157346,-0.198519,0.746946,-0.24741,-0.429679,0.599641
26,45,-0.0872665,-0.698132,-0.174533,-0.174533,-0.093491,-0.691946,-0.157346,-0.198519,0.746946,-0.24741,-0.429679,0.599641
26,45,-0.0872665,-0.698132,-0.174533,-0.174533,-0.093491,-0.691946,-0.157346,-0.198519,0.746946,-0.24741,-0.429679,0.599641
26,45,-0.0872665,-0.698132,-0.174533,-0.174533,-0.093491,-0.691946,-0.157346,-0.198519,0.746946,-0.24741,-0.429679,0.599641
26,45,-0.0872665,-0.698132,-0.174533,-0.174533,-0.093491,-0.691946,-0.157346,-0.198519,0.746946,-0.24741,-0.429679,0.599641
26,45,-0.0872665,-0.698132,-0.174533,-0.174533,-0.093491,-0.691946,-0.157346,-0.198519,0.746946,-0.24741,-0.429679,0.599641
26,45,-0.0872665,-0.698132,-0.174533,-0.174533,-0.093491,-0.691946,-0.157346,-0.198519,0.746946,-0.24741,-0.429679,0.599641
26,45,-0.0872665,-0.698132,-0.174533,-0.174533,-0.093491,-0.691946,-0.157346,-0.198519,0.746946,-0.24741,-0.429679,0.599641
26,45,-0.0872665,-0.698132,-0.174533,-0.174533,-0.093491,-0.691946,-0.157346,-0.198519,0.746946,-0.24741,-0.429679,0.599641
26,45,-0.0872665,-0.698132,-0.174533,-0.174533,-0.093491,-0.691946,-0.157346,-0.198519,0.746946,-0.24741,-0.429679,0.599641
26,45,-0.0872665,-0.698132,-0.174533,-0.174533,-0.093491,-0.691946,-0.157346,-0.198519,0.746946,-0.24741,-0.429679,0.599641
26,45,-0.0872665,-0.698132,-0.174533,-0.174533,-0.093491,-0.691946,-0.157346,-0.198519,0.746946,-0.24741,-0.429679,0.599641
26,45,-0.0872665,-0.698132,-0.174533,-0.174533,-0.093491,-0.691946,-0.157346,-0.198519,0.746946,-0.24741,-0.429679,0.599641
26,45,-0.0872665,-0.698132,-0.174533,-0.174533,-0.093491,-0.691946,-0.157346,-0.198519,0.746946,-0.24741,-0.429679,0.599641
26,45,-0.0872665,-0.698132,-0.174533,-0.174533,-0.093491,-0.691946,-0.157346,-0.198519,0.746946,-0.24741,-0.429679,0.599641
26,45,-0.0872665,-0.698132,-0.174533,-0.174533,-0.093491,-0.691946,-0.157346,-0.198519,0.746946,-0.24741,-0.429679,0.599641
26,45,-0.0872665,-0.698132,-0.174533,-0.174533,-0.093491,-0.691946,-0.157346,-0.198519,0.746946,-0.24741,-0.429679,0.599641
26,45,-0.0872665,-0.698132,-0.174533,-0.174533,-0.093491,-0.691946,-0.157346,-0.198519,0.746946,-0.24741,-0.429679,0.599641
26,45,-0.0872665,-0.698132,-0.174533,-0.174533,-0.093491,-0.691946,-0.157346,-0.198519,0.746946,-0.24741,-0.429679,0.599641
26,45,-0.0872665,-0.698132,-0.174533,-0.174533,-0.093491,-0.691946,-0.157346,-0.198519,0.746946,-0.24741,-0.429679,0.599641
26,45,-0.0872665,-0.698132,-0.174533,-0.174533,-0.093491,-0.691946,-0.157346,-0.198519,0.746946,-0.24741,-0.429679,0.599641
26,45,-0.0872665,-0.698132,-0.174533,-0.174533,-0.093491,-0.691946,-0.157346,-0.198519,0.746946,-0.24741,-0.429679,0.599641
26,45,-0.0872665,-0.698132,-0.174533,-0.174533,-0.093491,-0.691946,-0.157346,-0.198519,0.746946,-0.24741,-0.429679,0.599641
26,45,-0.0872665,-0.698132,-0.174533,-0.174533,-0.093491,-0.691946,-0.157346,-0.198519,0.746946,-0.24741,-0.429679,0.599641
26,45,-0.0872665,-0.698132,-0.174533,-0.174533,-0.093491,-0.691946,-0.157346,-0.198519,0.746946,-0.24741,-0.429679,0.599641
26,45,-0.0872665,-0.698132,-0.174533,-0.174533,-0.093491,-0.691946,-0.157346,-0.198519,0.746946,-0.24741,-0.429679,0.599641
26,45,-0.0872665,-0.698132,-0.174533,-0.174533,-0.093491,-0.691946,-0.157346,-0.198519,0.746946,-0.24741,-0.429679,0.599641
26,45,-0.0872665,-0.698132,-0.174533,-0.174533,-0.093491,-0.691946,-0.157346,-0.198519,0.746946,-0.24741,-0.429679,0.599641
26,45,-0.0872665,-0.698132,-0.174533,-0.174533,-0.093491,-0.691946,-0.157346,-0.198519,0.746946,-0.24741,-0.429679,0.599641
26,45,-0.0872665,-0.698132,-0.174533,-0.174533,-0.093491,-0.691946,-0.157346,-0.198519,0.746946,-0.24741,-0.429679,0.599641
26,45,-0.0872665,-0.698132,-0.174533,-0.174533,-0.093491,-0.691946,-0.157346,-0.198519,0.746946,-0.24741,-0.429679,0.599641
26,45,-0.0872665,-0.698132,-0.174533,-0.174533,-0.093491,-0.691946,-0.157346,-0.198519,0.746946,-0.24741,-0.429679,0.599641
26,45,-0.0872665,-0.698132,-0.174533,-0.174533,-0.093491,-0.691946,-0.157346,-0.198519,0.746946,-0.24741,-0.429679,0.599641
26,45,-0.0872665,-0.698132,-0.174533,-0.174533,-0.093491,-0.691946,-0.157346,-0.198519,0.746946,-0.24741,-0.429679,0.599641
26,45,-0.0872665,-0.698132,-0.174533,-0.174533,-0.093491,-0.691946,-0.157346,-0.198519,0.746946,-0.24741,-0.429679,0.599641
26,45,-0.0872665,-0.698132,-0.174533,-0.174533,-0.093491,-0.691946,-0.157346,-0.198519,0.746946,-0.24741,-0.429679,0.599641
26,45,-0.0872665,-0.698132,-0.174533,-0.174533,-0.093491,-0.691946,-0.157346,-0.198519,0.746946,-0.24741,-0.429679,0.599641
26,45,-0.0872665,-0.698132,-0.174533,-0.174533,-0.093491,-0.691946,-0.157346,-0.198519,0.746946,-0.24741,-0.429679,0.599641
26,45,-0.0872665,-0.698132,-0.174533,-0.174533,-0.093491,-0.691946,-0.157346,-0.198519,0.746946,-0.24741,-0.429679,0.599641
26,45,-0.0872665,-0.698132,-0.174533,-0.174533,-0.093491,-0.691946,-0.157346,-0.198519,0.746946,-0.24741,-0.429679,0.599641
26,45,-0.0872665,-0.698132,-0.174533,-0.174533,-0.093491,-0.691946,-0.157346,-0.198519,0.746946,-0.24741,-0.429679,0.599641
26,45,-0.0872665,-0.698132,-0.174533,-0.174533,-0.093491,-0.691946,-0.157346,-0.198519,0.746946,-0.24741,-0.429679,0.599641
26,45,-0.0872665,-0.698132,-0.174533,-0.174533,-0.093491,-0.691946,-0.157346,-0.198519,0.746946,-0.24741,-0.429679,0.599641
26,45,-0.0872665,-0.698132,-0.174533,-0.174533,-0.093491,-0.691946,-0.157407,-0.198499,0.746946,-0.24741,-0.42815,0.599162
26,45,-0.0872665,-0.698132,-0.174533,-0.174533,-0.093491,-0.691946,-0.157407,-0.198499,0.746946,-0.24741,-0.42815,0.599162
26,45,-0.0872665,-0.698132,-0.174533,-0.174533,-0.093491,-0.691946,-0.157407,-0.198499,0.746946,-0.24741,-0.42815,0.599162
26,45,-0.0872665,-0.698132,-0.174533,-0.174533,-0.093491,-0.691946,-0.157407,-0.198499,0.746946,-0.24741,-0.42815,0.599162
26,45,-0.0872665,-0.698132,-0.174533,-0.174533,-0.093491,-0.691946,-0.157407,-0.198499,0.746946,-0.24741,-0.42815,0.599162
26,45,-0.0872665,-0.698132,-0.174533,-0.174533,-0.093491,-0.691946,-0.157407,-0.198499,0.746946,-0.24741,-0.42815,0.599162
26,45,-0.0872665,-0.698132,-0.174533,-0.174533,-0.093491,-0.691946,-0.157407,-0.198499,0.746946,-0.24741,-0.42815,0.599162
26,45,-0.0872665,-0.698132,-0.174533,-0.174533,-0.093491,-0.691946,-0.157407,-0.198499,0.746946,-0.24741,-0.42815,0.599162
26,45,-0.0872665,-0.698132,-0.174533,-0.174533,-0.093491,-0.691946,-0.157407,-0.198499,0.746946,-0.24741,-0.42815,0.599162
26,45,-0.0872665,-0.698132,-0.174533,-0.174533,-0.093491,-0.691946,-0.157407,-0.198499,0.746946,-0.24741,-0.42815,0.599162
26,45,-0.0872665,-0.698132,-0.174533,-0.174533,-0.093491,-0.691946,-0.157407,-0.198499,0.746946,-0.24741,-0.42815,0.599162
26,45,-0.0872665,-0.698132,-0.174533,-0.174533,-0.093491,-0.691946,-0.157407,-0.198499,0.746946,-0.24741,-0.42815,0.599162
26,45,-0.0872665,-0.698132,-0.174533,-0.174533,-0.093491,-0.691946,-0.157407,-0.198499,0.746946,-0.24741,-0.42815,0.599162
26,45,-0.0872665,-0.698132,-0.174533,-0.174533,-0.093491,-0.691946,-0.157407,-0.198499,0.746946,-0.24741,-0.42815,0.599162
26,45,-0.0872665,-0.698132,-0.174533,-0.174533,-0.093491,-0.691946,-0.157407,-0.198499,0.746946,-0.24741,-0.42815,0.599162
26,45,-0.0872665,-0.698132,-0.174533,-0.174533,-0.093491,-0.691946,-0.157407,-0.198499,0.746946,-0.24741,-0.42815,0.599162
26,45,-0.0872665,-0.698132,-0.174533,-0.174533,-0.093491,-0.691946,-0.157407,-0.198499,0.746946,-0.24741,-0.42815,0.599162
26,45,-0.0872665,-0.698132,-0.174533,-0.174533,-0.093491,-0.691946,-0.157407,-0.198499,0.746946,-0.24741,-0.42815,0.599162
26,45,-0.0872665,-0.698132,-0.174533,-0.174533,-0.093491,-0.691946,-0.157407,-0.198499,0.746946,-0.24741,-0.42815,0.599162
26,45,-0.0872665,-0.698132,-0.174533,-0.174533,-0.093491,-0.691946,-0.157407,-0.198499,0.746946,-0.24741,-0.42815,0.599162
26,45,-0.0872665,-0.698132,-0.174533,-0.174533,-0.093491,-0.691946,-0.157407,-0.198499,0.746946,-0.24741,-0.42815,0.599162
26,45,-0.0872665,-0.698132,-0.174533,-0.174533,-0.093491,-0.691946,-0.157407,-0.198499,0.746946,-0.24741,-0.42815,0.599162
26,45,-0.0872665,-0.698132,-0.174533,-0.174533,-0.093491,-0.691946,-0.157407,-0.198499,0.746946,-0.24741,-0.42815,0.599162
26,45,-0.0872665,-0.698132,-0.174533,-0.174533,-0.093491,-0.691946,-0.157407,-0.198499,0.746946,-0.24741,-0.42815,0.599162
26,45,-0.0872665,-0.698132,-0.174533,-0.174533,-0.093491,-0.691946,-0.157407,-0.198499,0.746946,-0.24741,-0.42815,0.599162
26,45,-0.0872665,-0.698132,-0.174533,-0.174533,-0.093491,-0.691946,-0.157407,-0.198499,0.746946,-0.24741,-0.42815,0.599162
26,45,-0.0872665,-0.698132,-0.174533,-0.174533,-0.093491,-0.691946,-0.157407,-0.198499,0.746946,-0.24741,-0.42815,0.599162
26,45,-0.0872665,-0.698132,-0.174533,-0.174533,-0.093491,-0.691946,-0.157407,-0.198499,0.746946,-0.24741,-0.42815,0.599162
26,45,-0.0872665,-0.698132,-0.174533,-0.174533,-0.093491,-0.691946,-0.157407,-0.198499,0.746946,-0.24741,-0.42815,0.599162
26,45,-0.0872665,-0.698132,-0.174533,-0.174533,-0.093491,-0.691946,-0.157407,-0.198499,0.746946,-0.24741,-0.42815,0.599162
26,45,-0.0872665,-0.698132,-0.174533,-0.174533,-0.093491,-0.691946,-0.157407,-0.198499,0.746946,-0.24741,-0.42815,0.599162
26,45,-0.0872665,-0.698132,-0.174533,-0.174533,-0.093491,-0.691946,-0.157407,-0.198499,0.746946,-0.24741,-0.42815,0.599162
26,45,-0.0872665,-0.698132,-0.174533,-0.174533,-0.093491,-0.691946,-0.157407,-0.198499,0.746946,-0.24741,-0.42815,0.599162
26,45,-0.0872665,-0.698132,-0.174533,-0.174533,-0.093491,-0.691946,-0.157407,-0.198499,0.746946,-0.24741,-0.42815,0.599162
26,45,-0.0872665,-0.698132,-0.174533,-0.174533,-0.093491,-0.691946,-0.157407,-0.198499,0.746946,-0.24741,-0.42815,0.599162
26,45,-0.0872665,-0.698132,-0.174533,-0.174533,-0.093491,-0.691946,-0.157407,-0.198499,0.746946,-0.24741,-0.42815,0.599162
26,45,-0.0872665,-0.698132,-0.174533,-0.174533,-0.093491,-0.691946,-0.157407,-0.198499,0.746946,-0.24741,-0.42815,0.599162
26,45,-0.0872665,-0.698132,-0.174533,-0.174533,-0.093491,-0.691946,-0.157407,-0.198499,0.746946,-0.24741,-0.42815,0.599162
26,45,-0.0872665,-0.698132,-0.174533,-0.174533,-0.093491,-0.691946,-0.157407,-0.198499,0.746946,-0.24741,-0.42815,0.599162
26,45,-0.0872665,-0.698132,-0.174533,-0.174533,-0.093491,-0.691946,-0.157407,-0.198499,0.746946,-0.24741,-0.42815,0.599162
26,45,-0.0872665,-0.698132,-0.174533,-0.174533,-0.093491,-0.691946,-0.157407,-0.198499,0.746946,-0.24741,-0.42815,0.599162
26,45,-0.0872665,-0.698132,-0.174533,-0.174533,-0.093491,-0.691946,-0.157407,-0.198499,0.746946,-0.24741,-0.42815,0.599162
26,45,-0.0872665,-0.698132,-0.174533,-0.174533,-0.093491,-0.691946,-0.157407,-0.198499,0.746946,-0.24741,-0.42815,0.599162
26,45,-0.0872665,-0.698132,-0.174533,-0.174533,-0.093491,-0.691946,-0.157407,-0.198499,0.746946,-0.24741,-0.42815,0.599162
26,45,-0.0872665,-0.698132,-0.174533,-0.174533,-0.093491,-0.691946,-0.157407,-0.198499,0.746946,-0.24741,-0.42815,0.599162
26,45,-0.0872665,-0.698132,-0.174533,-0.174533,-0.093491,-0.691946,-0.157407,-0.198499,0.746946,-0.24741,-0.42815,0.599162
26,45,-0.0872665,-0.698132,-0.174533,-0.174533,-0.093491,-0.691946,-0.157407,-0.198499,0.746946,-0.24741,-0.42815,0.599162
26,45,-0.0872665,-0.698132,-0.174533,-0.174533,-0.093491,-0.691946,-0.157407,-0.198499,0.746946,-0.24741,-0.42815,0.599162
26,45,-0.0872665,-0.698132,-0.174533,-0.174533,-0.093491,-0.691946,-0.157407,-0.198499,0.746946,-0.24741,-0.42815,0.599162
26,45,-0.0872665,-0.698132,-0.174533,-0.174533,-0.093491,-0.691946,-0.157407,-0.198499,0.746946,-0.24741,-0.42815,0.599162
26,45,-0.0872665,-0.698132,-0.174533,-0.174533,-0.093491,-0.691946,-0.157407,-0.198499,0.746946,-0.24741,-0.42815,0.599162
26,45,-0.0872665,-0.698132,-0.174533,-0.174533,-0.093491,-0.691946,-0.157404,-0.19844,0.746946,-0.24741,-0.42822,0.597675
26,45,-0.0872665,-0.698132,-0.174533,-0.174533,-0.093491,-0.691946,-0.157404,-0.19844,0.746946,-0.24741,-0.42822,0.597675
26,45,-0.0872665,-0.698132,-0.174533,-0.174533,-0.093491,-0.691946,-0.157404,-0.19844,0.746946,-0.24741,-0.42822,0.597675
26,45,-0.0872665,-0.698132,-0.174533,-0.174533,-0.093491,-0.691946,-0.157404,-0.19844,0.746946,-0.24741,-0.42822,0.597675
26,45,-0.0872665,-0.698132,-0.174533,-0.174533,-0.093491,-0.691946,-0.157404,-0.19844,0.746946,-0.24741,-0.42822,0.597675
26,45,-0.0872665,-0.698132,-0.174533,-0.174533,-0.093491,-0.691946,-0.157404,-0.19844,0.746946,-0.24741,-0.42822,0.597675
26,45,-0.0872665,-0.698132,-0.174533,-0.174533,-0.093491,-0.691946,-0.157404,-0.19844,0.746946,-0.24741,-0.42822,0.597675
26,45,-0.0872665,-0.698132,-0.174533,-0.174533,-0.093491,-0.691946,-0.157404,-0.19844,0.746946,-0.24741,-0.42822,0.597675
26,45,-0.0872665,-0.698132,-0.174533,-0.174533,-0.093491,-0.691946,-0.157404,-0.19844,0.746946,-0.24741,-0.42822,0.597675
26,45,-0.0872665,-0.698132,-0.174533,-0.174533,-0.093491,-0.691946,-0.157404,-0.19844,0.746946,-0.24741,-0.42822,0.597675
26,45,-0.0872665,-0.698132,-0.174533,-0.174533,-0.093491,-0.691946,-0.157404,-0.19844,0.746946,-0.24741,-0.42822,0.597675
26,45,-0.0872665,-0.698132,-0.174533,-0.174533,-0.093491,-0.691946,-0.157404,-0.19844,0.746946,-0.24741,-0.42822,0.597675
26,45,-0.0872665,-0.698132,-0.174533,-0.174533,-0.093491,-0.691946,-0.157404,-0.19844,0.746946,-0.24741,-0.42822,0.597675
26,45,-0.0872665,-0.698132,-0.174533,-0.174533,-0.093491,-0.691946,-0.157404,-0.19844,0.746946,-0.24741,-0.42822,0.597675
26,45,-0.0872665,-0.698132,-0.174533,-0.174533,-0.093491,-0.691946,-0.157404,-0.19844,0.746946,-0.24741,-0.42822,0.597675
26,45,-0.0872665,-0.698132,-0.174533,-0.174533,-0.093491,-0.691946,-0.157404,-0.19844,0.746946,-0.24741,-0.42822,0.597675
26,45,-0.0872665,-0.698132,-0.174533,-0.174533,-0.093491,-0.691946,-0.157404,-0.19844,0.746946,-0.24741,-0.42822,0.597675
26,45,-0.0872665,-0.698132,-0.174533,-0.174533,-0.093491,-0.691946,-0.157404,-0.19844,0.746946,-0.24741,-0.42822,0.597675
26,45,-0.0872665,-0.698132,-0.174533,-0.174533,-0.093491,-0.691946,-0.157404,-0.19844,0.746946,-0.24741,-0.42822,0.597675
26,45,-0.0872665,-0.698132,-0.174533,-0.174533,-0.093491,-0.691946,-0.157404,-0.19844,0.746946,-0.24741,-0.42822,0.597675
26,45,-0.0872665,-0.698132,-0.174533,-0.174533,-0.093491,-0.691946,-0.157404,-0.19844,0.746946,-0.24741,-0.42822,0.597675
26,45,-0.0872665,-0.698132,-0.174533,-0.174533,-0.093491,-0.691946,-0.157404,-0.19844,0.746946,-0.24741,-0.42822,0.597675
26,45,-0.0872665,-0.698132,-0.174533,-0.174533,-0.093491,-0.691946,-0.157404,-0.19844,0.746946,-0.24741,-0.42822,0.597675
26,45,-0.0872665,-0.698132,-0.174533,-0.174533,-0.093491,-0.691946,-0.157404,-0.19844,0.746946,-0.24741,-0.42822,0.597675
26,45,-0.0872665,-0.698132,-0.174533,-0.174533,-0.093491,-0.691946,-0.157404,-0.19844,0.746946,-0.24741,-0.42822,0.597675
26,45,-0.0872665,-0.698132,-0.174533,-0.174533,-0.093491,-0.691946,-0.157404,-0.19844,0.746946,-0.24741,-0.42822,0.597675
26,45,-0.0872665,-0.698132,-0.174533,-0.174533,-0.093491,-0.691946,-0.157404,-0.19844,0.746946,-0.24741,-0.42822,0.597675
26,45,-0.0872665,-0.698132,-0.174533,-0.174533,-0.093491,-0.691946,-0.157404,-0.19844,0.746946,-0.24741,-0.42822,0.597675
26,45,-0.0872665,-0.698132,-0.174533,-0.174533,-0.093491,-0.691946,-0.157404,-0.19844,0.746946,-0.24741,-0.42822,0.597675
26,45,-0.0872665,-0.698132,-0.174533,-0.174533,-0.093491,-0.691946,-0.157404,-0.19844,0.746946,-0.24741,-0.42822,0.597675
26,45,-0.0872665,-0.698132,-0.174533,-0.174533,-0.093491,-0.691946,-0.157404,-0.19844,0.746946,-0.24741,-0.42822,0.597675
26,45,-0.0872665,-0.698132,-0.174533,-0.174533,-0.093491,-0.691946,-0.157404,-0.19844,0.746946,-0.24741,-0.42822,0.597675
26,45,-0.0872665,-0.698132,-0.174533,-0.174533,-0.093491,-0.691946,-0.157404,-0.19844,0.746946,-0.24741,-0.42822,0.597675
26,45,-0.0872665,-0.698132,-0.174533,-0.174533,-0.093491,-0.691946,-0.157404,-0.19844,0.746946,-0.24741,-0.42822,0.597675
26,45,-0.0872665,-0.698132,-0.174533,-0.174533,-0.093491,-0.691946,-0.157404,-0.19844,0.746946,-0.24741,-0.42822,0.597675
26,45,-0.0872665,-0.698132,-0.174533,-0.174533,-0.093491,-0.691946,-0.157404,-0.19844,0.746946,-0.24741,-0.42822,0.597675
26,45,-0.0872665,-0.698132,-0.174533,-0.174533,-0.093491,-0.691946,-0.157404,-0.19844,0.746946,-0.24741,-0.42822,0.597675
26,45,-0.0872665,-0.698132,-0.174533,-0.174533,-0.093491,-0.691946,-0.157404,-0.19844,0.746946,-0.24741,-0.42822,0.597675
26,45,-0.0872665,-0.698132,-0.174533,-0.174533,-0.093491,-0.691946,-0.157404,-0.19844,0.746946,-0.24741,-0.42822,0.597675
26,45,-0.0872665,-0.698132,-0.174533,-0.174533,-0.093491,-0.691946,-0.157404,-0.19844,0.746946,-0.24741,-0.42822,0.597675
26,45,-0.0872665,-0.698132,-0.174533,-0.174533,-0.093491,-0.691946,-0.157404,-0.19844,0.746946,-0.24741,-0.42822,0.597675
26,45,-0.0872665,-0.698132,-0.174533,-0.174533,-0.093491,-0.691946,-0.157404,-0.19844,0.746946,-0.24741,-0.42822,0.597675
26,45,-0.0872665,-0.698132,-0.174533,-0.174533,-0.093491,-0.691946,-0.157404,-0.19844,0.746946,-0.24741,-0.42822,0.597675
26,45,-0.0872665,-0.698132,-0.174533,-0.174533,-0.093491,-0.691946,-0.157404,-0.19844,0.746946,-0.24741,-0.42822,0.597675
26,45,-0.0872665,-0.698132,-0.174533,-0.174533,-0.093491,-0.691946,-0.157404,-0.19844,0.746946,-0.24741,-0.42822,0.597675
26,45,-0.0872665,-0.698132,-0.174533,-0.174533,-0.093491,-0.691946,-0.157404,-0.19844,0.746946,-0.24741,-0.42822,0.597675
26,45,-0.0872665,-0.698132,-0.174533,-0.174533,-0.093491,-0.691946,-0.157404,-0.19844,0.746946,-0.24741,-0.42822,0.597675
26,45,-0.0872665,-0.698132,-0.174533,-0.174533,-0.093491,-0.691946,-0.157404,-0.19844,0.746946,-0.24741,-0.42822,0.597675
26,45,-0.0872665,-0.698132,-0.174533,-0.174533,-0.093491,-0.691946,-0.157404,-0.19844,0.746946,-0.24741,-0.42822,0.597675
26,45,-0.0872665,-0.698132,-0.174533,-0.174533,-0.093491,-0.691946,-0.157404,-0.19844,0.746946,-0.24741,-0.42822,0.597675
26,45,-0.0872665,-0.698132,-0.174533,-0.174533,-0.093491,-0.691946,-0.157404,-0.19844,0.746946,-0.24741,-0.42822,0.597675
26,45,-0.0872665,-0.698132,-0.174533,-0.174533,-0.093491,-0.691946,-0.157404,-0.19844,0.746946,-0.24741,-0.42822,0.597675
26,45,-0.0872665,-0.698132,-0.174533,-0.174533,-0.093491,-0.691946,-0.157404,-0.19844,0.746946,-0.24741,-0.42822,0.597675
26,45,-0.0872665,-0.698132,-0.174533,-0.174533,-0.093491,-0.691946,-0.157404,-0.19844,0.746946,-0.24741,-0.42822,0.597675
26,45,-0.0872665,-0.698132,-0.174533,-0.174533,-0.093491,-0.691946,-0.157404,-0.19844,0.746946,-0.24741,-0.42822,0.597675
26,45,-0.0872665,-0.698132,-0.174533,-0.174533,-0.093491,-0.691946,-0.157404,-0.19844,0.746946,-0.24741,-0.42822,0.597675
26,45,-0.0872665,-0.698132,-0.174533,-0.174533,-0.093491,-0.691946,-0.157404,-0.19844,0.746946,-0.24741,-0.42822,0.597675
26,45,-0.0872665,-0.698132,-0.174533,-0.174533,-0.093491,-0.691946,-0.157404,-0.19844,0.746946,-0.24741,-0.42822,0.597675
26,45,-0.0872665,-0.698132,-0.174533,-0.174533,-0.093491,-0.691946,-0.157404,-0.19844,0.746946,-0.24741,-0.42822,0.597675
26,45,-0.0872665,-0.698132,-0.174533,-0.174533,-0.093491,-0.691946,-0.157404,-0.19844,0.746946,-0.24741,-0.42822,0.597675
26,45,-0.0872665,-0.698132,-0.174533,-0.174533,-0.093491,-0.691946,-0.157401,-0.19838,0.746946,-0.24741,-0.428291,0.596189
26,45,-0.0872665,-0.698132,-0.174533,-0.174533,-0.093491,-0.691946,-0.157401,-0.19838,0.746946,-0.24741,-0.428291,0.596189
26,45,-0.0872665,-0.698132,-0.174533,-0.174533,-0.093491,-0.691946,-0.157401,-0.19838,0.746946,-0.24741,-0.428291,0.596189
26,45,-0.0872665,-0.698132,-0.174533,-0.174533,-0.093491,-0.691946,-0.157401,-0.19838,0.746946,-0.24741,-0.428291,0.596189
26,45,-0.0872665,-0.698132,-0.174533,-0.174533,-0.093491,-0.691946,-0.157401,-0.19838,0.746946,-0.24741,-0.428291,0.596189
26,45,-0.0872665,-0.698132,-0.174533,-0.174533,-0.093491,-0.691946,-0.157401,-0.19838,0.746946,-0.24741,-0.428291,0.596189
26,45,-0.0872665,-0.698132,-0.174533,-0.174533,-0.093491,-0.691946,-0.157401,-0.19838,0.746946,-0.24741,-0.428291,0.596189
26,45,-0.0872665,-0.698132,-0.174533,-0.174533,-0.093491,-0.691946,-0.157401,-0.19838,0.746946,-0.24741,-0.428291,0.596189
26,45,-0.0872665,-0.698132,-0.174533,-0.174533,-0.093491,-0.691946,-0.157401,-0.19838,0.746946,-0.24741,-0.428291,0.596189
26,45,-0.0872665,-0.698132,-0.174533,-0.174533,-0.093491,-0.691946,-0.157401,-0.19838,0.746946,-0.24741,-0.428291,0.596189
26,45,-0.0872665,-0.698132,-0.174533,-0.174533,-0.093491,-0.691946,-0.157401,-0.19838,0.746946,-0.24741,-0.428291,0.596189
26,45,-0.0872665,-0.698132,-0.174533,-0.174533,-0.093491,-0.691946,-0.157401,-0.19838,0.746946,-0.24741,-0.428291,0.596189
26,45,-0.0872665,-0.698132,-0.174533,-0.174533,-0.093491,-0.691946,-0.157401,-0.19838,0.746946,-0.24741,-0.428291,0.596189
26,45,-0.0872665,-0.698132,-0.174533,-0.174533,-0.093491,-0.691946,-0.157401,-0.19838,0.746946,-0.24741,-0.428291,0.596189
26,45,-0.0872665,-0.698132,-0.174533,-0.174533,-0.093491,-0.691946,-0.157401,-0.19838,0.746946,-0.24741,-0.428291,0.596189
26,45,-0.0872665,-0.698132,-0.174533,-0.174533,-0.093491,-0.691946,-0.157401,-0.19838,0.746946,-0.24741,-0.428291,0.596189
26,45,-0.0872665,-0.698132,-0.174533,-0.174533,-0.093491,-0.691946,-0.157401,-0.19838,0.746946,-0.24741,-0.428291,0.596189
26,45,-0.0872665,-0.698132,-0.174533,-0.174533,-0.093491,-0.691946,-0.157401,-0.19838,0.746946,-0.24741,-0.428291,0.596189
26,45,-0.0872665,-0.698132,-0.174533,-0.174533,-0.093491,-0.691946,-0.157401,-0.19838,0.746946,-0.24741,-0.428291,0.596189
26,45,-0.0872665,-0.698132,-0.174533,-0.174533,-0.093491,-0.691946,-0.157401,-0.19838,0.746946,-0.24741,-0.428291,0.596189
26,45,-0.0872665,-0.698132,-0.174533,-0.174533,-0.093491,-0.691946,-0.157401,-0.19838,0.746946,-0.24741,-0.428291,0.596189
26,45,-0.0872665,-0.698132,-0.174533,-0.174533,-0.093491,-0.691946,-0.157401,-0.19838,0.746946,-0.24741,-0.428291,0.596189
26,45,-0.0872665,-0.698132,-0.174533,-0.174533,-0.093491,-0.691946,-0.157401,-0.19838,0.746946,-0.24741,-0.428291,0.596189
26,45,-0.0872665,-0.698132,-0.174533,-0.174533,-0.093491,-0.691946,-0.157401,-0.19838,0.746946,-0.24741,-0.428291,0.596189
26,45,-0.0872665,-0.698132,-0.174533,-0.174533,-0.093491,-0.691946,-0.157401,-0.19838,0.746946,-0.24741,-0.428291,0.596189
26,45,-0.0872665,-0.698132,-0.174533,-0.174533,-0.093491,-0.691946,-0.157401,-0.19838,0.746946,-0.24741,-0.428291,0.596189
26,45,-0.0872665,-0.698132,-0.174533,-0.174533,-0.093491,-0.691946,-0.157401,-0.19838,0.746946,-0.24741,-0.428291,0.596189
26,45,-0.0872665,-0.698132,-0.174533,-0.174533,-0.093491,-0.691946,-0.157401,-0.19838,0.746946,-0.24741,-0.428291,0.596189
26,45,-0.0872665,-0.698132,-0.174533,-0.174533,-0.093491,-0.691946,-0.157401,-0.19838,0.746946,-0.24741,-0.428291,0.596189
26,45,-0.0872665,-0.698132,-0.174533,-0.174533,-0.093491,-0.691946,-0.157401,-0.19838,0.746946,-0.24741,-0.428291,0.596189
26,45,-0.0872665,-0.698132,-0.174533,-0.174533,-0.093491,-0.691946,-0.157401,-0.19838,0.746946,-0.24741,-0.428291,0.596189
26,45,-0.0872665,-0.698132,-0.174533,-0.174533,-0.093491,-0.691946,-0.157401,-0.19838,0.746946,-0.24741,-0.428291,0.596189
26,45,-0.0872665,-0.698132,-0.174533,-0.174533,-0.093491,-0.691946,-0.157401,-0.19838,0.746946,-0.24741,-0.428291,0.596189
26,45,-0.0872665,-0.698132,-0.174533,-0.174533,-0.093491,-0.691946,-0.157401,-0.19838,0.746946,-0.24741,-0.428291,0.596189
26,45,-0.0872665,-0.698132,-0.174533,-0.174533,-0.093491,-0.691946,-0.157401,-0.19838,0.746946,-0.24741,-0.428291,0.596189
26,45,-0.0872665,-0.698132,-0.174533,-0.174533,-0.093491,-0.691946,-0.157401,-0.19838,0.746946,-0.24741,-0.428291,0.596189
26,45,-0.0872665,-0.698132,-0.174533,-0.174533,-0.093491,-0.691946,-0.157401,-0.19838,0.746946,-0.24741,-0.428291,0.596189
26,45,-0.0872665,-0.698132,-0.174533,-0.174533,-0.093491,-0.691946,-0.157401,-0.19838,0.746946,-0.24741,-0.428291,0.596189
26,45,-0.0872665,-0.698132,-0.174533,-0.174533,-0.093491,-0.691946,-0.157401,-0.19838,0.746946,-0.24741,-0.428291,0.596189
26,45,-0.0872665,-0.698132,-0.174533,-0.174533,-0.093491,-0.691946,-0.157401,-0.19838,0.746946,-0.24741,-0.428291,0.596189
26,45,-0.0872665,-0.698132,-0.174533,-0.174533,-0.093491,-0.691946,-0.157401,-0.19838,0.746946,-0.24741,-0.428291,0.596189
26,45,-0.0872665,-0.698132,-0.174533,-0.174533,-0.093491,-0.691946,-0.157401,-0.19838,0.746946,-0.24741,-0.428291,0.596189
26,45,-0.0872665,-0.698132,-0.174533,-0.174533,-0.093491,-0.691946,-0.157401,-0.19838,0.746946,-0.24741,-0.428291,0.596189
26,45,-0.0872665,-0.698132,-0.174533,-0.174533,-0.093491,-0.691946,-0.157401,-0.19838,0.746946,-0.24741,-0.428291,0.596189
26,45,-0.0872665,-0.698132,-0.174533,-0.174533,-0.093491,-0.691946,-0.157401,-0.19838,0.746946,-0.24741,-0.428291,0.596189
26,45,-0.0872665,-0.698132,-0.174533,-0.174533,-0.093491,-0.691946,-0.157401,-0.19838,0.746946,-0.24741,-0.428291,0.596189
26,45,-0.0872665,-0.698132,-0.174533,-0.174533,-0.093491,-0.691946,-0.157401,-0.19838,0.746946,-0.24741,-0.428291,0.596189
26,45,-0.0872665,-0.698132,-0.174533,-0.174533,-0.093491,-0.691946,-0.157401,-0.19838,0.746946,-0.24741,-0.428291,0.596189
26,45,-0.0872665,-0.698132,-0.174533,-0.174533,-0.093491,-0.691946,-0.157401,-0.19838,0.746946,-0.24741,-0.428291,0.596189
26,45,-0.0872665,-0.698132,-0.174533,-0.174533,-0.093491,-0.691946,-0.157401,-0.19838,0.746946,-0.24741,-0.428291,0.596189
26,45,-0.0872665,-0.698132,-0.174533,-0.174533,-0.093491,-0.691946,-0.157401,-0.19838,0.746946,-0.24741,-0.428291,0.596189
26,45,-0.0872665,-0.698132,-0.174533,-0.174533,-0.093491,-0.691946,-0.157401,-0.19838,0.746946,-0.24741,-0.428291,0.596189
26,45,-0.0872665,-0.698132,-0.174533,-0.174533,-0.093491,-0.691946,-0.157401,-0.19838,0.746946,-0.24741,-0.428291,0.596189
26,45,-0.0872665,-0.698132,-0.174533,-0.174533,-0.093491,-0.691946,-0.157401,-0.19838,0.746946,-0.24741,-0.428291,0.596189
26,45,-0.0872665,-0.698132,-0.174533,-0.174533,-0.093491,-0.691946,-0.157401,-0.19838,0.746946,-0.24741,-0.428291,0.596189
26,45,-0.0872665,-0.698132,-0.174533,-0.174533,-0.093491,-0.691946,-0.157401,-0.19838,0.746946,-0.24741,-0.428291,0.596189
26,45,-0.0872665,-0.698132,-0.174533,-0.174533,-0.093491,-0.691946,-0.157401,-0.19838,0.746946,-0.24741,-0.428291,0.596189
26,45,-0.0872665,-0.698132,-0.174533,-0.174533,-0.093491,-0.691946,-0.157401,-0.19838,0.746946,-0.24741,-0.428291,0.596189
26,45,-0.0872665,-0.698132,-0.174533,-0.174533,-0.093491,-0.691946,-0.157401,-0.19838,0.746946,-0.24741,-0.428291,0.596189
26,45,-0.0872665,-0.698132,-0.174533,-0.174533,-0.093491,-0.691946,-0.157401,-0.19838,0.746946,-0.24741,-0.428291,0.596189
26,45,-0.0872665,-0.698132,-0.174533,-0.174533,-0.093491,-0.691946,-0.157401,-0.19838,0.746946,-0.24741,-0.428291,0.596189
26,45,-0.0872665,-0.698132,-0.174533,-0.174533,-0.093491,-0.691946,-0.157401,-0.19838,0.746946,-0.24741,-0.428291,0.596189
26,45,-0.0872665,-0.698132,-0.174533,-0.174533,-0.093491,-0.691946,-0.157401,-0.19838,0.746946,-0.24741,-0.428291,0.596189
26,45,-0.0872665,-0.698132,-0.174533,-0.174533,-0.093491,-0.691946,-0.157401,-0.19838,0.746946,-0.24741,-0.428291,0.596189
26,45,-0.0872665,-0.698132,-0.174533,-0.174533,-0.093491,-0.691946,-0.157401,-0.19838,0.746946,-0.24741,-0.428291,0.596189
26,45,-0.0872665,-0.698132,-0.174533,-0.174533,-0.093491,-0.691946,-0.157401,-0.19838,0.746946,-0.24741,-0.428291,0.596189
26,45,-0.0872665,-0.698132,-0.174533,-0.174533,-0.093491,-0.691946,-0.157401,-0.19838,0.746946,-0.24741,-0.428291,0.596189
26,45,-0.0872665,-0.698132,-0.174533,-0.174533,-0.093491,-0.691946,-0.157401,-0.19838,0.746946,-0.24741,-0.428291,0.596189
26,45,-0.0872665,-0.698132,-0.174533,-0.174533,-0.093491,-0.691946,-0.157401,-0.19838,0.746946,-0.24741,-0.428291,0.596189
26,45,-0.0872665,-0.698132,-0.174533,-0.174533,-0.093491,-0.691946,-0.157401,-0.19838,0.746946,-0.24741,-0.428291,0.596189
26,45,-0.0872665,-0.698132,-0.174533,-0.174533,-0.093491,-0.691946,-0.157401,-0.19838,0.746946,-0.24741,-0.428291,0.596189
26,45,-0.0872665,-0.698132,-0.174533,-0.174533,-0.093491,-0.691946,-0.157401,-0.19838,0.746946,-0.24741,-0.428291,0.596189
26,45,-0.0872665,-0.698132,-0.174533,-0.174533,-0.093491,-0.691946,-0.157401,-0.19838,0.746946,-0.24741,-0.428291,0.596189
26,45,-0.0872665,-0.698132,-0.174533,-0.174533,-0.093491,-0.691946,-0.157401,-0.19838,0.746946,-0.24741,-0.428291,0.596189
26,45,-0.0872665,-0.698132,-0.174533,-0.174533,-0.093491,-0.691946,-0.157401,-0.19838,0.746946,-0.24741,-0.428291,0.596189
26,45,-0.0872665,-0.698132,-0.174533,-0.174533,-0.093491,-0.691946,-0.157401,-0.19838,0.746946,-0.24741,-0.428291,0.596189
26,45,-0.0872665,-0.698132,-0.174533,-0.174533,-0.093491,-0.691946,-0.157462,-0.198361,0.746946,-0.24741,-0.426762,0.59571
26,45,-0.0872665,-0.698132,-0.174533,-0.174533,-0.093491,-0.691946,-0.157462,-0.198361,0.746946,-0.24741,-0.426762,0.59571
26,45,-0.0872665,-0.698132,-0.174533,-0.174533,-0.093491,-0.691946,-0.157462,-0.198361,0.746946,-0.24741,-0.426762,0.59571
26,45,-0.0872665,-0.698132,-0.174533,-0.174533,-0.093491,-0.691946,-0.157462,-0.198361,0.746946,-0.24741,-0.426762,0.59571
26,45,-0.0872665,-0.698132,-0.174533,-0.174533,-0.093491,-0.691946,-0.157462,-0.198361,0.746946,-0.24741,-0.426762,0.59571
26,45,-0.0872665,-0.698132,-0.174533,-0.174533,-0.093491,-0.691946,-0.157462,-0.198361,0.746946,-0.24741,-0.426762,0.59571
26,45,-0.0872665,-0.698132,-0.174533,-0.174533,-0.093491,-0.691946,-0.157462,-0.198361,0.746946,-0.24741,-0.426762,0.59571
26,45,-0.0872665,-0.698132,-0.174533,-0.174533,-0.093491,-0.691946,-0.157462,-0.198361,0.746946,-0.24741,-0.426762,0.59571
26,45,-0.0872665,-0.698132,-0.174533,-0.174533,-0.093491,-0.691946,-0.157462,-0.198361,0.746946,-0.24741,-0.426762,0.59571
26,45,-0.0872665,-0.698132,-0.174533,-0.174533,-0.093491,-0.691946,-0.157462,-0.198361,0.746946,-0.24741,-0.426762,0.59571
26,45,-0.0872665,-0.698132,-0.174533,-0.174533,-0.093491,-0.691946,-0.157462,-0.198361,0.746946,-0.24741,-0.426762,0.59571
26,45,-0.0872665,-0.698132,-0.174533,-0.174533,-0.093491,-0.691946,-0.157462,-0.198361,0.746946,-0.24741,-0.426762,0.59571
26,45,-0.0872665,-0.698132,-0.174533,-0.174533,-0.093491,-0.691946,-0.157462,-0.198361,0.746946,-0.24741,-0.426762,0.59571
26,45,-0.0872665,-0.698132,-0.174533,-0.174533,-0.093491,-0.691946,-0.157462,-0.198361,0.746946,-0.24741,-0.426762,0.59571
26,45,-0.0872665,-0.698132,-0.174533,-0.174533,-0.093491,-0.691946,-0.157462,-0.198361,0.746946,-0.24741,-0.426762,0.59571
26,45,-0.0872665,-0.698132,-0.174533,-0.174533,-0.093491,-0.691946,-0.157462,-0.198361,0.746946,-0.24741,-0.426762,0.59571
26,45,-0.0872665,-0.698132,-0.174533,-0.174533,-0.093491,-0.691946,-0.157462,-0.198361,0.746946,-0.24741,-0.426762,0.59571
26,45,-0.0872665,-0.698132,-0.174533,-0.174533,-0.093491,-0.691946,-0.157462,-0.198361,0.746946,-0.24741,-0.426762,0.59571
26,45,-0.0872665,-0.698132,-0.174533,-0.174533,-0.093491,-0.691946,-0.157462,-0.198361,0.746946,-0.24741,-0.426762,0.59571
26,45,-0.0872665,-0.698132,-0.174533,-0.174533,-0.093491,-0.691946,-0.157462,-0.198361,0.746946,-0.24741,-0.426762,0.59571
26,45,-0.0872665,-0.698132,-0.174533,-0.174533,-0.093491,-0.691946,-0.157462,-0.198361,0.746946,-0.24741,-0.426762,0.59571
26,45,-0.0872665,-0.698132,-0.174533,-0.174533,-0.093491,-0.691946,-0.157462,-0.198361,0.746946,-0.24741,-0.426762,0.59571
26,45,-0.0872665,-0.698132,-0.174533,-0.174533,-0.093491,-0.691946,-0.157462,-0.198361,0.746946,-0.24741,-0.426762,0.59571
26,45,-0.0872665,-0.698132,-0.174533,-0.174533,-0.093491,-0.691946,-0.157462,-0.198361,0.746946,-0.24741,-0.426762,0.59571
26,45,-0.0872665,-0.698132,-0.174533,-0.174533,-0.093491,-0.691946,-0.157462,-0.198361,0.746946,-0.24741,-0.426762,0.59571
26,45,-0.0872665,-0.698132,-0.174533,-0.174533,-0.093491,-0.691946,-0.157462,-0.198361,0.746946,-0.24741,-0.426762,0.59571
26,45,-0.0872665,-0.698132,-0.174533,-0.174533,-0.093491,-0.691946,-0.157462,-0.198361,0.746946,-0.24741,-0.426762,0.59571
26,45,-0.0872665,-0.698132,-0.174533,-0.174533,-0.093491,-0.691946,-0.157462,-0.198361,0.746946,-0.24741,-0.426762,0.59571
26,45,-0.0872665,-0.698132,-0.174533,-0.174533,-0.093491,-0.691946,-0.157462,-0.198361,0.746946,-0.24741,-0.426762,0.59571
26,45,-0.0872665,-0.698132,-0.174533,-0.174533,-0.093491,-0.691946,-0.157462,-0.198361,0.746946,-0.24741,-0.426762,0.59571
26,45,-0.0872665,-0.698132,-0.174533,-0.174533,-0.093491,-0.691946,-0.157462,-0.198361,0.746946,-0.24741,-0.426762,0.59571
26,45,-0.0872665,-0.698132,-0.174533,-0.174533,-0.093491,-0.691946,-0.157462,-0.198361,0.746946,-0.24741,-0.426762,0.59571
26,45,-0.0872665,-0.698132,-0.174533,-0.174533,-0.093491,-0.691946,-0.157462,-0.198361,0.746946,-0.24741,-0.426762,0.59571
26,45,-0.0872665,-0.698132,-0.174533,-0.174533,-0.093491,-0.691946,-0.157462,-0.198361,0.746946,-0.24741,-0.426762,0.59571
26,45,-0.0872665,-0.698132,-0.174533,-0.174533,-0.093491,-0.691946,-0.157462,-0.198361,0.746946,-0.24741,-0.426762,0.59571
26,45,-0.0872665,-0.698132,-0.174533,-0.174533,-0.093491,-0.691946,-0.157462,-0.198361,0.746946,-0.24741,-0.426762,0.59571
26,45,-0.0872665,-0.698132,-0.174533,-0.174533,-0.093491,-0.691946,-0.157462,-0.198361,0.746946,-0.24741,-0.426762,0.59571
26,45,-0.0872665,-0.698132,-0.174533,-0.174533,-0.093491,-0.691946,-0.157462,-0.198361,0.746946,-0.24741,-0.426762,0.59571
26,45,-0.0872665,-0.698132,-0.174533,-0.174533,-0.093491,-0.691946,-0.157462,-0.198361,0.746946,-0.24741,-0.426762,0.59571
26,45,-0.0872665,-0.698132,-0.174533,-0.174533,-0.093491,-0.691946,-0.157462,-0.198361,0.746946,-0.24741,-0.426762,0.59571
26,45,-0.0872665,-0.698132,-0.174533,-0.174533,-0.093491,-0.691946,-0.157462,-0.198361,0.746946,-0.24741,-0.426762,0.59571
26,45,-0.0872665,-0.698132,-0.174533,-0.174533,-0.093491,-0.691946,-0.157462,-0.198361,0.746946,-0.24741,-0.426762,0.59571
26,45,-0.0872665,-0.698132,-0.174533,-0.174533,-0.093491,-0.691946,-0.157462,-0.198361,0.746946,-0.24741,-0.426762,0.59571
26,45,-0.0872665,-0.698132,-0.174533,-0.174533,-0.093491,-0.691946,-0.157462,-0.198361,0.746946,-0.24741,-0.426762,0.59571
26,45,-0.0872665,-0.698132,-0.174533,-0.174533,-0.093491,-0.691946,-0.157462,-0.198361,0.746946,-0.24741,-0.426762,0.59571
26,45,-0.0872665,-0.698132,-0.174533,-0.174533,-0.093491,-0.691946,-0.157462,-0.198361,0.746946,-0.24741,-0.426762,0.59571
26,45,-0.0872665,-0.698132,-0.174533,-0.174533,-0.093491,-0.691946,-0.157462,-0.198361,0.746946,-0.24741,-0.426762,0.59571
26,45,-0.0872665,-0.698132,-0.174533,-0.174533,-0.093491,-0.691946,-0.157462,-0.198361,0.746946,-0.24741,-0.426762,0.59571
26,45,-0.0872665,-0.698132,-0.174533,-0.174533,-0.093491,-0.691946,-0.157462,-0.198361,0.746946,-0.24741,-0.426762,0.59571
26,45,-0.0872665,-0.698132,-0.174533,-0.174533,-0.093491,-0.691946,-0.157462,-0.198361,0.746946,-0.24741,-0.426762,0.59571
26,45,-0.0872665,-0.698132,-0.174533,-0.174533,-0.093491,-0.691946,-0.157462,-0.198361,0.746946,-0.24741,-0.426762,0.59571
26,45,-0.0872665,-0.698132,-0.174533,-0.174533,-0.093491,-0.691946,-0.157462,-0.198361,0.746946,-0.24741,-0.426762,0.59571
26,45,-0.0872665,-0.698132,-0.174533,-0.174533,-0.093491,-0.691946,-0.157462,-0.198361,0.746946,-0.24741,-0.426762,0.59571
26,45,-0.0872665,-0.698132,-0.174533,-0.174533,-0.093491,-0.691946,-0.157462,-0.198361,0.746946,-0.24741,-0.426762,0.59571
26,45,-0.0872665,-0.698132,-0.174533,-0.174533,-0.093491,-0.691946,-0.157462,-0.198361,0.746946,-0.24741,-0.426762,0.59571
26,45,-0.0872665,-0.698132,-0.174533,-0.174533,-0.093491,-0.691946,-0.157462,-0.198361,0.746946,-0.24741,-0.426762,0.59571
26,45,-0.0872665,-0.698132,-0.174533,-0.174533,-0.093491,-0.691946,-0.157462,-0.198361,0.746946,-0.24741,-0.426762,0.59571
26,45,-0.0872665,-0.698132,-0.174533,-0.174533,-0.093491,-0.691946,-0.157462,-0.198361,0.746946,-0.24741,-0.426762,0.59571
26,45,-0.0872665,-0.698132,-0.174533,-0.174533,-0.093491,-0.691946,-0.157462,-0.198361,0.746946,-0.24741,-0.426762,0.59571
26,45,-0.0872665,-0.698132,-0.174533,-0.174533,-0.093491,-0.691946,-0.157462,-0.198361,0.746946,-0.24741,-0.426762,0.59571
26,45,-0.0872665,-0.698132,-0.174533,-0.174533,-0.093491,-0.691946,-0.157462,-0.198361,0.746946,-0.24741,-0.426762,0.59571
26,45,-0.0872665,-0.698132,-0.174533,-0.174533,-0.093491,-0.691946,-0.157462,-0.198361,0.746946,-0.24741,-0.426762,0.59571
26,45,-0.0872665,-0.698132,-0.174533,-0.174533,-0.093491,-0.691946,-0.157462,-0.198361,0.746946,-0.24741,-0.426762,0.59571
26,45,-0.0872665,-0.698132,-0.174533,-0.174533,-0.093491,-0.691946,-0.157462,-0.198361,0.746946,-0.24741,-0.426762,0.59571
26,45,-0.0872665,-0.698132,-0.174533,-0.174533,-0.093491,-0.691946,-0.157462,-0.198361,0.746946,-0.24741,-0.426762,0.59571
26,45,-0.0872665,-0.698132,-0.174533,-0.174533,-0.093491,-0.691946,-0.157462,-0.198361,0.746946,-0.24741,-0.426762,0.59571
26,45,-0.0872665,-0.698132,-0.174533,-0.174533,-0.093491,-0.691946,-0.157462,-0.198361,0.746946,-0.24741,-0.426762,0.59571
26,45,-0.0872665,-0.698132,-0.174533,-0.174533,-0.093491,-0.691946,-0.157462,-0.198361,0.746946,-0.24741,-0.426762,0.59571
26,45,-0.0872665,-0.698132,-0.174533,-0.174533,-0.093491,-0.691946,-0.157462,-0.198361,0.746946,-0.24741,-0.426762,0.59571
26,45,-0.0872665,-0.698132,-0.174533,-0.174533,-0.093491,-0.691946,-0.157462,-0.198361,0.746946,-0.24741,-0.426762,0.59571
26,45,-0.0872665,-0.698132,-0.174533,-0.174533,-0.093491,-0.691946,-0.157462,-0.198361,0.746946,-0.24741,-0.426762,0.59571
26,45,-0.0872665,-0.698132,-0.174533,-0.174533,-0.093491,-0.691946,-0.157462,-0.198361,0.746946,-0.24741,-0.426762,0.59571
26,45,-0.0872665,-0.698132,-0.174533,-0.174533,-0.093491,-0.691946,-0.157462,-0.198361,0.746946,-0.24741,-0.426762,0.59571
26,45,-0.0872665,-0.698132,-0.174533,-0.174533,-0.093491,-0.691946,-0.157462,-0.198361,0.746946,-0.24741,-0.426762,0.59571
26,45,-0.0872665,-0.698132,-0.174533,-0.174533,-0.093491,-0.691946,-0.157462,-0.198361,0.746946,-0.24741,-0.426762,0.59571
26,45,-0.0872665,-0.698132,-0.174533,-0.174533,-0.093491,-0.691946,-0.157462,-0.198361,0.746946,-0.24741,-0.426762,0.59571
26,45,-0.0872665,-0.698132,-0.174533,-0.174533,-0.093491,-0.691946,-0.157462,-0.198361,0.746946,-0.24741,-0.426762,0.59571
26,45,-0.0872665,-0.698132,-0.174533,-0.174533,-0.093491,-0.691946,-0.157462,-0.198361,0.746946,-0.24741,-0.426762,0.59571
26,45,-0.0872665,-0.698132,-0.174533,-0.174533,-0.093491,-0.691946,-0.157462,-0.198361,0.746946,-0.24741,-0.426762,0.59571
26,45,-0.0872665,-0.698132,-0.174533,-0.174533,-0.093491,-0.691946,-0.157462,-0.198361,0.746946,-0.24741,-0.426762,0.59571
26,45,-0.0872665,-0.698132,-0.174533,-0.174533,-0.093491,-0.691946,-0.157462,-0.198361,0.746946,-0.24741,-0.426762,0.59571
26,45,-0.0872665,-0.698132,-0.174533,-0.174533,-0.093491,-0.691946,-0.157462,-0.198361,0.746946,-0.24741,-0.426762,0.59571
26,45,-0.0872665,-0.698132,-0.174533,-0.174533,-0.093491,-0.691946,-0.157462,-0.198361,0.746946,-0.24741,-0.426762,0.59571
26,45,-0.0872665,-0.698132,-0.174533,-0.174533,-0.093491,-0.691946,-0.157462,-0.198361,0.746946,-0.24741,-0.426762,0.59571
26,45,-0.0872665,-0.698132,-0.174533,-0.174533,-0.093491,-0.691946,-0.15746,-0.198302,0.746946,-0.24741,-0.426833,0.594223
26,45,-0.0872665,-0.698132,-0.174533,-0.174533,-0.093491,-0.691946,-0.15746,-0.198302,0.746946,-0.24741,-0.426833,0.594223
26,45,-0.0872665,-0.698132,-0.174533,-0.174533,-0.093491,-0.691946,-0.15746,-0.198302,0.746946,-0.24741,-0.426833,0.594223
26,45,-0.0872665,-0.698132,-0.174533,-0.174533,-0.093491,-0.691946,-0.15746,-0.198302,0.746946,-0.24741,-0.426833,0.594223
26,45,-0.0872665,-0.698132,-0.174533,-0.174533,-0.093491,-0.691946,-0.15746,-0.198302,0.746946,-0.24741,-0.426833,0.594223
26,45,-0.0872665,-0.698132,-0.174533,-0.174533,-0.093491,-0.691946,-0.15746,-0.198302,0.746946,-0.24741,-0.426833,0.594223
26,45,-0.0872665,-0.698132,-0.174533,-0.174533,-0.093491,-0.691946,-0.15746,-0.198302,0.746946,-0.24741,-0.426833,0.594223
26,45,-0.0872665,-0.698132,-0.174533,-0.174533,-0.093491,-0.691946,-0.15746,-0.198302,0.746946,-0.24741,-0.426833,0.594223
26,45,-0.0872665,-0.698132,-0.174533,-0.174533,-0.093491,-0.691946,-0.15746,-0.198302,0.746946,-0.24741,-0.426833,0.594223
26,45,-0.0872665,-0.698132,-0.174533,-0.174533,-0.093491,-0.691946,-0.15746,-0.198302,0.746946,-0.24741,-0.426833,0.594223
26,45,-0.0872665,-0.698132,-0.174533,-0.174533,-0.093491,-0.691946,-0.15746,-0.198302,0.746946,-0.24741,-0.426833,0.594223
26,45,-0.0872665,-0.698132,-0.174533,-0.174533,-0.093491,-0.691946,-0.15746,-0.198302,0.746946,-0.24741,-0.426833,0.594223
26,45,-0.0872665,-0.698132,-0.174533,-0.174533,-0.093491,-0.691946,-0.15746,-0.198302,0.746946,-0.24741,-0.426833,0.594223
26,45,-0.0872665,-0.698132,-0.174533,-0.174533,-0.093491,-0.691946,-0.15746,-0.198302,0.746946,-0.24741,-0.426833,0.594223
26,45,-0.0872665,-0.698132,-0.174533,-0.174533,-0.093491,-0.691946,-0.15746,-0.198302,0.746946,-0.24741,-0.426833,0.594223
26,45,-0.0872665,-0.698132,-0.174533,-0.174533,-0.093491,-0.691946,-0.15746,-0.198302,0.746946,-0.24741,-0.426833,0.594223
26,45,-0.0872665,-0.698132,-0.174533,-0.174533,-0.093491,-0.691946,-0.15746,-0.198302,0.746946,-0.24741,-0.426833,0.594223
26,45,-0.0872665,-0.698132,-0.174533,-0.174533,-0.093491,-0.691946,-0.15746,-0.198302,0.746946,-0.24741,-0.426833,0.594223
26,45,-0.0872665,-0.698132,-0.174533,-0.174533,-0.093491,-0.691946,-0.15746,-0.198302,0.746946,-0.24741,-0.426833,0.594223
26,45,-0.0872665,-0.698132,-0.174533,-0.174533,-0.093491,-0.691946,-0.15746,-0.198302,0.746946,-0.24741,-0.426833,0.594223
26,45,-0.0872665,-0.698132,-0.174533,-0.174533,-0.093491,-0.691946,-0.15746,-0.198302,0.746946,-0.24741,-0.426833,0.594223
26,45,-0.0872665,-0.698132,-0.174533,-0.174533,-0.093491,-0.691946,-0.15746,-0.198302,0.746946,-0.24741,-0.426833,0.594223
26,45,-0.0872665,-0.698132,-0.174533,-0.174533,-0.093491,-0.691946,-0.15746,-0.198302,0.746946,-0.24741,-0.426833,0.594223
26,45,-0.0872665,-0.698132,-0.174533,-0.174533,-0.093491,-0.691946,-0.157457,-0.198242,0.746946,-0.24741,-0.426903,0.592737
26,45,-0.0872665,-0.698132,-0.174533,-0.174533,-0.093491,-0.691946,-0.157457,-0.198242,0.746946,-0.24741,-0.426903,0.592737
26,45,-0.0872665,-0.698132,-0.174533,-0.174533,-0.093491,-0.691946,-0.157457,-0.198242,0.746946,-0.24741,-0.426903,0.592737
26,45,-0.0872665,-0.698132,-0.174533,-0.174533,-0.093491,-0.691946,-0.157457,-0.198242,0.746946,-0.24741,-0.426903,0.592737
26,45,-0.0872665,-0.698132,-0.174533,-0.174533,-0.093491,-0.691946,-0.157457,-0.198242,0.746946,-0.24741,-0.426903,0.592737
26,45,-0.0872665,-0.698132,-0.174533,-0.174533,-0.093491,-0.691946,-0.157457,-0.198242,0.746946,-0.24741,-0.426903,0.592737
26,45,-0.0872665,-0.698132,-0.174533,-0.174533,-0.093491,-0.691946,-0.157457,-0.198242,0.746946,-0.24741,-0.426903,0.592737
26,45,-0.0872665,-0.698132,-0.174533,-0.174533,-0.093491,-0.691946,-0.157457,-0.198242,0.746946,-0.24741,-0.426903,0.592737
26,45,-0.0872665,-0.698132,-0.174533,-0.174533,-0.093491,-0.691946,-0.157457,-0.198242,0.746946,-0.24741,-0.426903,0.592737
26,45,-0.0872665,-0.698132,-0.174533,-0.174533,-0.093491,-0.691946,-0.157457,-0.198242,0.746946,-0.24741,-0.426903,0.592737
26,45,-0.0872665,-0.698132,-0.174533,-0.174533,-0.093491,-0.691946,-0.157457,-0.198242,0.746946,-0.24741,-0.426903,0.592737
26,45,-0.0872665,-0.698132,-0.174533,-0.174533,-0.093491,-0.691946,-0.157457,-0.198242,0.746946,-0.24741,-0.426903,0.592737
26,45,-0.0872665,-0.698132,-0.174533,-0.174533,-0.093491,-0.691946,-0.157457,-0.198242,0.746946,-0.24741,-0.426903,0.592737
26,45,-0.0872665,-0.698132,-0.174533,-0.174533,-0.093491,-0.691946,-0.157457,-0.198242,0.746946,-0.24741,-0.426903,0.592737
26,45,-0.0872665,-0.698132,-0.174533,-0.174533,-0.093491,-0.691946,-0.157457,-0.198242,0.746946,-0.24741,-0.426903,0.592737
26,45,-0.0872665,-0.698132,-0.174533,-0.174533,-0.093491,-0.691946,-0.157457,-0.198242,0.746946,-0.24741,-0.426903,0.592737
26,45,-0.0872665,-0.698132,-0.174533,-0.174533,-0.093491,-0.691946,-0.157457,-0.198242,0.746946,-0.24741,-0.426903,0.592737
26,45,-0.0872665,-0.698132,-0.174533,-0.174533,-0.093491,-0.691946,-0.157457,-0.198242,0.746946,-0.24741,-0.426903,0.592737
26,45,-0.0872665,-0.698132,-0.174533,-0.174533,-0.093491,-0.691946,-0.157457,-0.198242,0.746946,-0.24741,-0.426903,0.592737
26,45,-0.0872665,-0.698132,-0.174533,-0.174533,-0.093491,-0.691946,-0.157457,-0.198242,0.746946,-0.24741,-0.426903,0.592737
26,45,-0.0872665,-0.698132,-0.174533,-0.174533,-0.093491,-0.691946,-0.15739,-0.1982,0.746946,-0.24741,-0.428574,0.591678
26,45,-0.0872665,-0.698132,-0.174533,-0.174533,-0.093491,-0.691946,-0.15739,-0.1982,0.746946,-0.24741,-0.428574,0.591678
26,45,-0.0872665,-0.698132,-0.174533,-0.174533,-0.093491,-0.691946,-0.15739,-0.1982,0.746946,-0.24741,-0.428574,0.591678
26,45,-0.0872665,-0.698132,-0.174533,-0.174533,-0.093491,-0.691946,-0.15739,-0.1982,0.746946,-0.24741,-0.428574,0.591678
26,45,-0.0872665,-0.698132,-0.174533,-0.174533,-0.093491,-0.691946,-0.15739,-0.1982,0.746946,-0.24741,-0.428574,0.591678
26,45,-0.0872665,-0.698132,-0.174533,-0.174533,-0.093491,-0.691946,-0.15739,-0.1982,0.746946,-0.24741,-0.428574,0.591678
26,45,-0.0872665,-0.698132,-0.174533,-0.174533,-0.093491,-0.691946,-0.15739,-0.1982,0.746946,-0.24741,-0.428574,0.591678
26,45,-0.0872665,-0.698132,-0.174533,-0.174533,-0.093491,-0.691946,-0.15739,-0.1982,0.746946,-0.24741,-0.428574,0.591678
26,45,-0.0872665,-0.698132,-0.174533,-0.174533,-0.093491,-0.691946,-0.15739,-0.1982,0.746946,-0.24741,-0.428574,0.591678
26,45,-0.0872665,-0.698132,-0.174533,-0.174533,-0.093491,-0.691946,-0.15739,-0.1982,0.746946,-0.24741,-0.428574,0.591678
26,45,-0.0872665,-0.698132,-0.174533,-0.174533,-0.093491,-0.691946,-0.15739,-0.1982,0.746946,-0.24741,-0.428574,0.591678
26,45,-0.0872665,-0.698132,-0.174533,-0.174533,-0.093491,-0.691946,-0.15739,-0.1982,0.746946,-0.24741,-0.428574,0.591678
26,45,-0.0872665,-0.698132,-0.174533,-0.174533,-0.093491,-0.691946,-0.15739,-0.1982,0.746946,-0.24741,-0.428574,0.591678
26,45,-0.0872665,-0.698132,-0.174533,-0.174533,-0.093491,-0.691946,-0.15739,-0.1982,0.746946,-0.24741,-0.428574,0.591678
26,45,-0.0872665,-0.698132,-0.174533,-0.174533,-0.093491,-0.691946,-0.15739,-0.1982,0.746946,-0.24741,-0.428574,0.591678
26,45,-0.0872665,-0.698132,-0.174533,-0.174533,-0.093491,-0.691946,-0.157323,-0.198158,0.746946,-0.24741,-0.430245,0.590619
26,45,-0.0872665,-0.698132,-0.174533,-0.174533,-0.093491,-0.691946,-0.157323,-0.198158,0.746946,-0.24741,-0.430245,0.590619
26,45,-0.0872665,-0.698132,-0.174533,-0.174533,-0.093491,-0.691946,-0.157323,-0.198158,0.746946,-0.24741,-0.430245,0.590619
26,45,-0.0872665,-0.698132,-0.174533,-0.174533,-0.093491,-0.691946,-0.157323,-0.198158,0.746946,-0.24741,-0.430245,0.590619
26,45,-0.0872665,-0.698132,-0.174533,-0.174533,-0.093491,-0.691946,-0.157323,-0.198158,0.746946,-0.24741,-0.430245,0.590619
26,45,-0.0872665,-0.698132,-0.174533,-0.174533,-0.093491,-0.691946,-0.157323,-0.198158,0.746946,-0.24741,-0.430245,0.590619
26,45,-0.0872665,-0.698132,-0.174533,-0.174533,-0.093491,-0.691946,-0.157323,-0.198158,0.746946,-0.24741,-0.430245,0.590619
26,45,-0.0872665,-0.698132,-0.174533,-0.174533,-0.093491,-0.691946,-0.157323,-0.198158,0.746946,-0.24741,-0.430245,0.590619
26,45,-0.0872665,-0.698132,-0.174533,-0.174533,-0.093491,-0.691946,-0.157323,-0.198158,0.746946,-0.24741,-0.430245,0.590619
26,45,-0.0872665,-0.698132,-0.174533,-0.174533,-0.093491,-0.691946,-0.157323,-0.198158,0.746946,-0.24741,-0.430245,0.590619
26,45,-0.0872665,-0.698132,-0.174533,-0.174533,-0.093491,-0.691946,-0.157323,-0.198158,0.746946,-0.24741,-0.430245,0.590619
26,45,-0.0872665,-0.698132,-0.174533,-0.174533,-0.093491,-0.691946,-0.157256,-0.198115,0.746946,-0.24741,-0.431915,0.589561
26,45,-0.0872665,-0.698132,-0.174533,-0.174533,-0.093491,-0.691946,-0.157256,-0.198115,0.746946,-0.24741,-0.431915,0.589561
26,45,-0.0872665,-0.698132,-0.174533,-0.174533,-0.093491,-0.691946,-0.157256,-0.198115,0.746946,-0.24741,-0.431915,0.589561
26,45,-0.0872665,-0.698132,-0.174533,-0.174533,-0.093491,-0.691946,-0.157256,-0.198115,0.746946,-0.24741,-0.431915,0.589561
26,45,-0.0872665,-0.698132,-0.174533,-0.174533,-0.093491,-0.691946,-0.157254,-0.198056,0.746946,-0.24741,-0.431985,0.588075
26,45,-0.0872665,-0.698132,-0.174533,-0.174533,-0.093491,-0.691946,-0.157254,-0.198056,0.746946,-0.24741,-0.431985,0.588075
26,45,-0.0872665,-0.698132,-0.174533,-0.174533,-0.093491,-0.691946,-0.157254,-0.198056,0.746946,-0.24741,-0.431985,0.588075
26,45,-0.0872665,-0.698132,-0.174533,-0.174533,-0.093491,-0.691946,-0.157254,-0.198056,0.746946,-0.24741,-0.431985,0.588075
26,45,-0.0872665,-0.698132,-0.174533,-0.174533,-0.093491,-0.691946,-0.157254,-0.198056,0.746946,-0.24741,-0.431985,0.588075
26,45,-0.0872665,-0.698132,-0.174533,-0.174533,-0.093491,-0.691946,-0.157254,-0.198056,0.746946,-0.24741,-0.431985,0.588075
26,45,-0.0872665,-0.698132,-0.174533,-0.174533,-0.093491,-0.691946,-0.157254,-0.198056,0.746946,-0.24741,-0.431985,0.588075
26,45,-0.0872665,-0.698132,-0.174533,-0.174533,-0.093491,-0.691946,-0.157254,-0.198056,0.746946,-0.24741,-0.431985,0.588075
26,45,-0.0872665,-0.698132,-0.174533,-0.174533,-0.093491,-0.691946,-0.157254,-0.198056,0.746946,-0.24741,-0.431985,0.588075
26,45,-0.0872665,-0.698132,-0.174533,-0.174533,-0.093491,-0.691946,-0.157254,-0.198056,0.746946,-0.24741,-0.431985,0.588075
26,45,-0.0872665,-0.698132,-0.174533,-0.174533,-0.093491,-0.691946,-0.157254,-0.198056,0.746946,-0.24741,-0.431985,0.588075
26,45,-0.0872665,-0.698132,-0.174533,-0.174533,-0.093491,-0.691946,-0.157254,-0.198056,0.746946,-0.24741,-0.431985,0.588075
26,45,-0.0872665,-0.698132,-0.174533,-0.174533,-0.093491,-0.691946,-0.157254,-0.198056,0.746946,-0.24741,-0.431985,0.588075
26,45,-0.0872665,-0.698132,-0.174533,-0.174533,-0.093491,-0.691946,-0.157187,-0.198014,0.746946,-0.24741,-0.433655,0.587016
26,45,-0.0872665,-0.698132,-0.174533,-0.174533,-0.093491,-0.691946,-0.157187,-0.198014,0.746946,-0.24741,-0.433655,0.587016
26,45,-0.0872665,-0.698132,-0.174533,-0.174533,-0.093491,-0.691946,-0.157187,-0.198014,0.746946,-0.24741,-0.433655,0.587016
26,45,-0.0872665,-0.698132,-0.174533,-0.174533,-0.093491,-0.691946,-0.157187,-0.198014,0.746946,-0.24741,-0.433655,0.587016
26,45,-0.0872665,-0.698132,-0.174533,-0.174533,-0.093491,-0.691946,-0.157187,-0.198014,0.746946,-0.24741,-0.433655,0.587016
26,45,-0.0872665,-0.698132,-0.174533,-0.174533,-0.093491,-0.691946,-0.157187,-0.198014,0.746946,-0.24741,-0.433655,0.587016
26,45,-0.0872665,-0.698132,-0.174533,-0.174533,-0.093491,-0.691946,-0.157187,-0.198014,0.746946,-0.24741,-0.433655,0.587016
26,45,-0.0872665,-0.698132,-0.174533,-0.174533,-0.093491,-0.691946,-0.157187,-0.198014,0.746946,-0.24741,-0.433655,0.587016
26,45,-0.0872665,-0.698132,-0.174533,-0.174533,-0.093491,-0.691946,-0.157187,-0.198014,0.746946,-0.24741,-0.433655,0.587016
26,45,-0.0872665,-0.698132,-0.174533,-0.174533,-0.093491,-0.691946,-0.157187,-0.198014,0.746946,-0.24741,-0.433655,0.587016
26,45,-0.0872665,-0.698132,-0.174533,-0.174533,-0.093491,-0.691946,-0.157187,-0.198014,0.746946,-0.24741,-0.433655,0.587016
26,45,-0.0872665,-0.698132,-0.174533,-0.174533,-0.093491,-0.691946,-0.157187,-0.198014,0.746946,-0.24741,-0.433655,0.587016
26,45,-0.0872665,-0.698132,-0.174533,-0.174533,-0.093491,-0.691946,-0.157187,-0.198014,0.746946,-0.24741,-0.433655,0.587016
26,45,-0.0872665,-0.698132,-0.174533,-0.174533,-0.093491,-0.691946,-0.157187,-0.198014,0.746946,-0.24741,-0.433655,0.587016
26,45,-0.0872665,-0.698132,-0.174533,-0.174533,-0.093491,-0.691946,-0.157187,-0.198014,0.746946,-0.24741,-0.433655,0.587016
26,45,-0.0872665,-0.698132,-0.174533,-0.174533,-0.093491,-0.691946,-0.157187,-0.198014,0.746946,-0.24741,-0.433655,0.587016
26,45,-0.0872665,-0.698132,-0.174533,-0.174533,-0.093491,-0.691946,-0.157187,-0.198014,0.746946,-0.24741,-0.433655,0.587016
26,45,-0.0872665,-0.698132,-0.174533,-0.174533,-0.093491,-0.691946,-0.157187,-0.198014,0.746946,-0.24741,-0.433655,0.587016
26,45,-0.0872665,-0.698132,-0.174533,-0.174533,-0.093491,-0.691946,-0.157187,-0.198014,0.746946,-0.24741,-0.433655,0.587016
26,45,-0.0872665,-0.698132,-0.174533,-0.174533,-0.093491,-0.691946,-0.157187,-0.198014,0.746946,-0.24741,-0.433655,0.587016
26,45,-0.0872665,-0.698132,-0.174533,-0.174533,-0.093491,-0.691946,-0.157187,-0.198014,0.746946,-0.24741,-0.433655,0.587016
26,45,-0.0872665,-0.698132,-0.174533,-0.174533,-0.093491,-0.691946,-0.157187,-0.198014,0.746946,-0.24741,-0.433655,0.587016
26,45,-0.0872665,-0.698132,-0.174533,-0.174533,-0.093491,-0.691946,-0.157187,-0.198014,0.746946,-0.24741,-0.433655,0.587016
26,45,-0.0872665,-0.698132,-0.174533,-0.174533,-0.093491,-0.691946,-0.157187,-0.198014,0.746946,-0.24741,-0.433655,0.587016
26,45,-0.0872665,-0.698132,-0.174533,-0.174533,-0.093491,-0.691946,-0.157187,-0.198014,0.746946,-0.24741,-0.433655,0.587016
26,45,-0.0872665,-0.698132,-0.174533,-0.174533,-0.093491,-0.691946,-0.157187,-0.198014,0.746946,-0.24741,-0.433655,0.587016
26,45,-0.0872665,-0.698132,-0.174533,-0.174533,-0.093491,-0.691946,-0.157187,-0.198014,0.746946,-0.24741,-0.433655,0.587016
26,45,-0.0872665,-0.698132,-0.174533,-0.174533,-0.093491,-0.691946,-0.157187,-0.198014,0.746946,-0.24741,-0.433655,0.587016
26,45,-0.0872665,-0.698132,-0.174533,-0.174533,-0.093491,-0.691946,-0.157187,-0.198014,0.746946,-0.24741,-0.433655,0.587016
26,45,-0.0872665,-0.698132,-0.174533,-0.174533,-0.093491,-0.691946,-0.157187,-0.198014,0.746946,-0.24741,-0.433655,0.587016
26,45,-0.0872665,-0.698132,-0.174533,-0.174533,-0.093491,-0.691946,-0.157187,-0.198014,0.746946,-0.24741,-0.433655,0.587016
26,45,-0.0872665,-0.698132,-0.174533,-0.174533,-0.093491,-0.691946,-0.157187,-0.198014,0.746946,-0.24741,-0.433655,0.587016
26,45,-0.0872665,-0.698132,-0.174533,-0.174533,-0.093491,-0.691946,-0.157187,-0.198014,0.746946,-0.24741,-0.433655,0.587016
26,45,-0.0872665,-0.698132,-0.174533,-0.174533,-0.093491,-0.691946,-0.157187,-0.198014,0.746946,-0.24741,-0.433655,0.587016
26,45,-0.0872665,-0.698132,-0.174533,-0.174533,-0.093491,-0.691946,-0.157184,-0.197954,0.746946,-0.24741,-0.433726,0.58553
26,45,-0.0872665,-0.698132,-0.174533,-0.174533,-0.093491,-0.691946,-0.157184,-0.197954,0.746946,-0.24741,-0.433726,0.58553
26,45,-0.0872665,-0.698132,-0.174533,-0.174533,-0.093491,-0.691946,-0.157184,-0.197954,0.746946,-0.24741,-0.433726,0.58553
26,45,-0.0872665,-0.698132,-0.174533,-0.174533,-0.093491,-0.691946,-0.157184,-0.197954,0.746946,-0.24741,-0.433726,0.58553
26,45,-0.0872665,-0.698132,-0.174533,-0.174533,-0.093491,-0.691946,-0.157184,-0.197954,0.746946,-0.24741,-0.433726,0.58553
26,45,-0.0872665,-0.698132,-0.174533,-0.174533,-0.093491,-0.691946,-0.157184,-0.197954,0.746946,-0.24741,-0.433726,0.58553
26,45,-0.0872665,-0.698132,-0.174533,-0.174533,-0.093491,-0.691946,-0.157184,-0.197954,0.746946,-0.24741,-0.433726,0.58553
26,45,-0.0872665,-0.698132,-0.174533,-0.174533,-0.093491,-0.691946,-0.157184,-0.197954,0.746946,-0.24741,-0.433726,0.58553
26,45,-0.0872665,-0.698132,-0.174533,-0.174533,-0.093491,-0.691946,-0.157184,-0.197954,0.746946,-0.24741,-0.433726,0.58553
26,45,-0.0872665,-0.698132,-0.174533,-0.174533,-0.093491,-0.691946,-0.157184,-0.197954,0.746946,-0.24741,-0.433726,0.58553
26,45,-0.0872665,-0.698132,-0.174533,-0.174533,-0.093491,-0.691946,-0.157184,-0.197954,0.746946,-0.24741,-0.433726,0.58553
26,45,-0.0872665,-0.698132,-0.174533,-0.174533,-0.093491,-0.691946,-0.157184,-0.197954,0.746946,-0.24741,-0.433726,0.58553
26,45,-0.0872665,-0.698132,-0.174533,-0.174533,-0.093491,-0.691946,-0.157184,-0.197954,0.746946,-0.24741,-0.433726,0.58553
26,45,-0.0872665,-0.698132,-0.174533,-0.174533,-0.093491,-0.691946,-0.157184,-0.197954,0.746946,-0.24741,-0.433726,0.58553
26,45,-0.0872665,-0.698132,-0.174533,-0.174533,-0.093491,-0.691946,-0.157184,-0.197954,0.746946,-0.24741,-0.433726,0.58553
26,45,-0.0872665,-0.698132,-0.174533,-0.174533,-0.093491,-0.691946,-0.157184,-0.197954,0.746946,-0.24741,-0.433726,0.58553
26,45,-0.0872665,-0.698132,-0.174533,-0.174533,-0.093491,-0.691946,-0.157184,-0.197954,0.746946,-0.24741,-0.433726,0.58553
26,45,-0.0872665,-0.698132,-0.174533,-0.174533,-0.093491,-0.691946,-0.157184,-0.197954,0.746946,-0.24741,-0.433726,0.58553
26,45,-0.0872665,-0.698132,-0.174533,-0.174533,-0.093491,-0.691946,-0.157184,-0.197954,0.746946,-0.24741,-0.433726,0.58553
26,45,-0.0872665,-0.698132,-0.174533,-0.174533,-0.093491,-0.691946,-0.157184,-0.197954,0.746946,-0.24741,-0.433726,0.58553
26,45,-0.0872665,-0.698132,-0.174533,-0.174533,-0.093491,-0.691946,-0.157184,-0.197954,0.746946,-0.24741,-0.433726,0.58553
26,45,-0.0872665,-0.698132,-0.174533,-0.174533,-0.093491,-0.691946,-0.157184,-0.197954,0.746946,-0.24741,-0.433726,0.58553
26,45,-0.0872665,-0.698132,-0.174533,-0.174533,-0.093491,-0.691946,-0.157184,-0.197954,0.746946,-0.24741,-0.433726,0.58553
26,45,-0.0872665,-0.698132,-0.174533,-0.174533,-0.093491,-0.691946,-0.157184,-0.197954,0.746946,-0.24741,-0.433726,0.58553
26,45,-0.0872665,-0.698132,-0.174533,-0.174533,-0.093491,-0.691946,-0.157184,-0.197954,0.746946,-0.24741,-0.433726,0.58553
26,45,-0.0872665,-0.698132,-0.174533,-0.174533,-0.093491,-0.691946,-0.157184,-0.197954,0.746946,-0.24741,-0.433726,0.58553
26,45,-0.0872665,-0.698132,-0.174533,-0.174533,-0.093491,-0.691946,-0.157184,-0.197954,0.746946,-0.24741,-0.433726,0.58553
26,45,-0.0872665,-0.698132,-0.174533,-0.174533,-0.093491,-0.691946,-0.157184,-0.197954,0.746946,-0.24741,-0.433726,0.58553
26,45,-0.0872665,-0.698132,-0.174533,-0.174533,-0.093491,-0.691946,-0.157184,-0.197954,0.746946,-0.24741,-0.433726,0.58553
26,45,-0.0872665,-0.698132,-0.174533,-0.174533,-0.093491,-0.691946,-0.157184,-0.197954,0.746946,-0.24741,-0.433726,0.58553
26,45,-0.0872665,-0.698132,-0.174533,-0.174533,-0.093491,-0.691946,-0.157184,-0.197954,0.746946,-0.24741,-0.433726,0.58553
26,45,-0.0872665,-0.698132,-0.174533,-0.174533,-0.093491,-0.691946,-0.157184,-0.197954,0.746946,-0.24741,-0.433726,0.58553
26,45,-0.0872665,-0.698132,-0.174533,-0.174533,-0.093491,-0.691946,-0.157184,-0.197954,0.746946,-0.24741,-0.433726,0.58553
26,45,-0.0872665,-0.698132,-0.174533,-0.174533,-0.093491,-0.691946,-0.157184,-0.197954,0.746946,-0.24741,-0.433726,0.58553
26,45,-0.0872665,-0.698132,-0.174533,-0.174533,-0.093491,-0.691946,-0.157184,-0.197954,0.746946,-0.24741,-0.433726,0.58553
26,45,-0.0872665,-0.698132,-0.174533,-0.174533,-0.093491,-0.691946,-0.157184,-0.197954,0.746946,-0.24741,-0.433726,0.58553
26,45,-0.0872665,-0.698132,-0.174533,-0.174533,-0.093491,-0.691946,-0.157184,-0.197954,0.746946,-0.24741,-0.433726,0.58553
26,45,-0.0872665,-0.698132,-0.174533,-0.174533,-0.093491,-0.691946,-0.157184,-0.197954,0.746946,-0.24741,-0.433726,0.58553
26,45,-0.0872665,-0.698132,-0.174533,-0.174533,-0.093491,-0.691946,-0.157184,-0.197954,0.746946,-0.24741,-0.433726,0.58553
26,45,-0.0872665,-0.698132,-0.174533,-0.174533,-0.093491,-0.691946,-0.157184,-0.197954,0.746946,-0.24741,-0.433726,0.58553
26,45,-0.0872665,-0.698132,-0.174533,-0.174533,-0.093491,-0.691946,-0.157184,-0.197954,0.746946,-0.24741,-0.433726,0.58553
26,45,-0.0872665,-0.698132,-0.174533,-0.174533,-0.093491,-0.691946,-0.157184,-0.197954,0.746946,-0.24741,-0.433726,0.58553
26,45,-0.0872665,-0.698132,-0.174533,-0.174533,-0.093491,-0.691946,-0.157184,-0.197954,0.746946,-0.24741,-0.433726,0.58553
26,45,-0.0872665,-0.698132,-0.174533,-0.174533,-0.093491,-0.691946,-0.157184,-0.197954,0.746946,-0.24741,-0.433726,0.58553
26,45,-0.0872665,-0.698132,-0.174533,-0.174533,-0.093491,-0.691946,-0.157184,-0.197954,0.746946,-0.24741,-0.433726,0.58553
26,45,-0.0872665,-0.698132,-0.174533,-0.174533,-0.093491,-0.691896,-0.157184,-0.197954,0.746946,-0.249444,-0.433726,0.58553
26,45,-0.0872665,-0.698132,-0.174533,-0.174533,-0.093491,-0.691896,-0.157184,-0.197954,0.746946,-0.249444,-0.433726,0.58553
26,45,-0.0872665,-0.698132,-0.174533,-0.174533,-0.093491,-0.691896,-0.157184,-0.197954,0.746946,-0.249444,-0.433726,0.58553
26,45,-0.0872665,-0.698132,-0.174533,-0.174533,-0.093491,-0.691896,-0.157184,-0.197954,0.746946,-0.249444,-0.433726,0.58553
26,45,-0.0872665,-0.698132,-0.174533,-0.174533,-0.093491,-0.691896,-0.157184,-0.197954,0.746946,-0.249444,-0.433726,0.58553
26,45,-0.0872665,-0.698132,-0.174533,-0.174533,-0.093491,-0.691896,-0.157184,-0.197954,0.746946,-0.249444,-0.433726,0.58553
26,45,-0.0872665,-0.698132,-0.174533,-0.174533,-0.093491,-0.691896,-0.157184,-0.197954,0.746946,-0.249444,-0.433726,0.58553
26,45,-0.0872665,-0.698132,-0.174533,-0.174533,-0.093491,-0.691896,-0.157184,-0.197954,0.746946,-0.249444,-0.433726,0.58553
26,45,-0.0872665,-0.698132,-0.174533,-0.174533,-0.093491,-0.691896,-0.157184,-0.197954,0.746946,-0.249444,-0.433726,0.58553
26,45,-0.0872665,-0.698132,-0.174533,-0.174533,-0.093491,-0.691896,-0.157184,-0.197954,0.746946,-0.249444,-0.433726,0.58553
26,45,-0.0872665,-0.698132,-0.174533,-0.174533,-0.093491,-0.691896,-0.157184,-0.197954,0.746946,-0.249444,-0.433726,0.58553
26,45,-0.0872665,-0.698132,-0.174533,-0.174533,-0.093491,-0.691896,-0.157184,-0.197954,0.746946,-0.249444,-0.433726,0.58553
26,45,-0.0872665,-0.698132,-0.174533,-0.174533,-0.093491,-0.691896,-0.157184,-0.197954,0.746946,-0.249444,-0.433726,0.58553
26,45,-0.0872665,-0.698132,-0.174533,-0.174533,-0.093491,-0.691896,-0.157184,-0.197954,0.746946,-0.249444,-0.433726,0.58553
26,45,-0.0872665,-0.698132,-0.174533,-0.174533,-0.093491,-0.691896,-0.157184,-0.197954,0.746946,-0.249444,-0.433726,0.58553
26,45,-0.0872665,-0.698132,-0.174533,-0.174533,-0.093491,-0.691896,-0.157184,-0.197954,0.746946,-0.249444,-0.433726,0.58553
26,45,-0.0872665,-0.698132,-0.174533,-0.174533,-0.093491,-0.691896,-0.157184,-0.197954,0.746946,-0.249444,-0.433726,0.58553
26,45,-0.0872665,-0.698132,-0.174533,-0.174533,-0.093491,-0.691896,-0.157184,-0.197954,0.746946,-0.249444,-0.433726,0.58553
26,45,-0.0872665,-0.698132,-0.174533,-0.174533,-0.093491,-0.691896,-0.157184,-0.197954,0.746946,-0.249444,-0.433726,0.58553
26,45,-0.0872665,-0.698132,-0.174533,-0.174533,-0.093491,-0.691896,-0.157184,-0.197954,0.746946,-0.249444,-0.433726,0.58553
26,45,-0.0872665,-0.698132,-0.174533,-0.174533,-0.093491,-0.691896,-0.157184,-0.197954,0.746946,-0.249444,-0.433726,0.58553
26,45,-0.0872665,-0.698132,-0.174533,-0.174533,-0.093491,-0.691896,-0.157184,-0.197954,0.746946,-0.249444,-0.433726,0.58553
26,45,-0.0872665,-0.698132,-0.174533,-0.174533,-0.093491,-0.691896,-0.157184,-0.197954,0.746946,-0.249444,-0.433726,0.58553
26,45,-0.0872665,-0.698132,-0.174533,-0.174533,-0.093491,-0.691896,-0.157184,-0.197954,0.746946,-0.249444,-0.433726,0.58553
26,45,-0.0872665,-0.698132,-0.174533,-0.174533,-0.093491,-0.691896,-0.157184,-0.197954,0.746946,-0.249444,-0.433726,0.58553
26,45,-0.0872665,-0.698132,-0.174533,-0.174533,-0.093491,-0.691896,-0.157184,-0.197954,0.746946,-0.249444,-0.433726,0.58553
26,45,-0.0872665,-0.698132,-0.174533,-0.174533,-0.093491,-0.691896,-0.157184,-0.197954,0.746946,-0.249444,-0.433726,0.58553
26,45,-0.0872665,-0.698132,-0.174533,-0.174533,-0.093491,-0.691896,-0.157184,-0.197954,0.746946,-0.249444,-0.433726,0.58553
26,45,-0.0872665,-0.698132,-0.174533,-0.174533,-0.093491,-0.691896,-0.157184,-0.197954,0.746946,-0.249444,-0.433726,0.58553
26,45,-0.0872665,-0.698132,-0.174533,-0.174533,-0.093491,-0.691896,-0.157184,-0.197954,0.746946,-0.249444,-0.433726,0.58553
26,45,-0.0872665,-0.698132,-0.174533,-0.174533,-0.093491,-0.691896,-0.157184,-0.197954,0.746946,-0.249444,-0.433726,0.58553
26,45,-0.0872665,-0.698132,-0.174533,-0.174533,-0.093491,-0.691896,-0.157184,-0.197954,0.746946,-0.249444,-0.433726,0.58553
26,45,-0.0872665,-0.698132,-0.174533,-0.174533,-0.093491,-0.691896,-0.157184,-0.197954,0.746946,-0.249444,-0.433726,0.58553
26,45,-0.0872665,-0.698132,-0.174533,-0.174533,-0.093491,-0.691896,-0.157184,-0.197954,0.746946,-0.249444,-0.433726,0.58553
26,45,-0.0872665,-0.698132,-0.174533,-0.174533,-0.093491,-0.691896,-0.157184,-0.197954,0.746946,-0.249444,-0.433726,0.58553
26,45,-0.0872665,-0.698132,-0.174533,-0.174533,-0.093491,-0.691896,-0.157184,-0.197954,0.746946,-0.249444,-0.433726,0.58553
26,45,-0.0872665,-0.698132,-0.174533,-0.174533,-0.093491,-0.691896,-0.157184,-0.197954,0.746946,-0.249444,-0.433726,0.58553
26,45,-0.0872665,-0.698132,-0.174533,-0.174533,-0.093491,-0.691896,-0.157184,-0.197954,0.746946,-0.249444,-0.433726,0.58553
26,45,-0.0872665,-0.698132,-0.174533,-0.174533,-0.093491,-0.691896,-0.157184,-0.197954,0.746946,-0.249444,-0.433726,0.58553
26,45,-0.0872665,-0.698132,-0.174533,-0.174533,-0.093491,-0.691896,-0.157184,-0.197954,0.746946,-0.249444,-0.433726,0.58553
26,45,-0.0872665,-0.698132,-0.174533,-0.174533,-0.093491,-0.691896,-0.157184,-0.197954,0.746946,-0.249444,-0.433726,0.58553
26,45,-0.0872665,-0.698132,-0.174533,-0.174533,-0.093491,-0.691896,-0.157184,-0.197954,0.746946,-0.249444,-0.433726,0.58553
26,45,-0.0872665,-0.698132,-0.174533,-0.174533,-0.093491,-0.691896,-0.157184,-0.197954,0.746946,-0.249444,-0.433726,0.58553
26,45,-0.0872665,-0.698132,-0.174533,-0.174533,-0.093491,-0.691896,-0.157184,-0.197954,0.746946,-0.249444,-0.433726,0.58553
26,45,-0.0872665,-0.698132,-0.174533,-0.174533,-0.093491,-0.691896,-0.157184,-0.197954,0.746946,-0.249444,-0.433726,0.58553
26,45,-0.0872665,-0.698132,-0.174533,-0.174533,-0.093491,-0.691896,-0.157184,-0.197954,0.746946,-0.249444,-0.433726,0.58553
26,45,-0.0872665,-0.698132,-0.174533,-0.174533,-0.093491,-0.691896,-0.157184,-0.197954,0.746946,-0.249444,-0.433726,0.58553
26,45,-0.0872665,-0.698132,-0.174533,-0.174533,-0.093491,-0.691896,-0.157184,-0.197954,0.746946,-0.249444,-0.433726,0.58553
26,45,-0.0872665,-0.698132,-0.174533,-0.174533,-0.093491,-0.691896,-0.157184,-0.197954,0.746946,-0.249444,-0.433726,0.58553
26,45,-0.0872665,-0.698132,-0.174533,-0.174533,-0.093491,-0.691896,-0.157184,-0.197954,0.746946,-0.249444,-0.433726,0.58553
26,45,-0.0872665,-0.698132,-0.174533,-0.174533,-0.093491,-0.691896,-0.157184,-0.197954,0.746946,-0.249444,-0.433726,0.58553
26,45,-0.0872665,-0.698132,-0.174533,-0.174533,-0.093491,-0.691896,-0.157184,-0.197954,0.746946,-0.249444,-0.433726,0.58553
26,45,-0.0872665,-0.698132,-0.174533,-0.174533,-0.093491,-0.691896,-0.157184,-0.197954,0.746946,-0.249444,-0.433726,0.58553
26,45,-0.0872665,-0.698132,-0.174533,-0.174533,-0.093491,-0.691896,-0.157184,-0.197954,0.746946,-0.249444,-0.433726,0.58553
26,45,-0.0872665,-0.698132,-0.174533,-0.174533,-0.093491,-0.691896,-0.157184,-0.197954,0.746946,-0.249444,-0.433726,0.58553
26,45,-0.0872665,-0.698132,-0.174533,-0.174533,-0.093491,-0.691896,-0.157184,-0.197954,0.746946,-0.249444,-0.433726,0.58553
26,45,-0.0872665,-0.698132,-0.174533,-0.174533,-0.093491,-0.691896,-0.157184,-0.197954,0.746946,-0.249444,-0.433726,0.58553
26,45,-0.0872665,-0.698132,-0.174533,-0.174533,-0.093491,-0.691896,-0.157184,-0.197954,0.746946,-0.249444,-0.433726,0.58553
26,45,-0.0872665,-0.698132,-0.174533,-0.174533,-0.093491,-0.691896,-0.157184,-0.197954,0.746946,-0.249444,-0.433726,0.58553
26,45,-0.0872665,-0.698132,-0.174533,-0.174533,-0.093491,-0.691896,-0.157184,-0.197954,0.746946,-0.249444,-0.433726,0.58553
26,45,-0.0872665,-0.698132,-0.174533,-0.174533,-0.093491,-0.691896,-0.157184,-0.197954,0.746946,-0.249444,-0.433726,0.58553
26,45,-0.0872665,-0.698132,-0.174533,-0.174533,-0.093491,-0.691896,-0.157184,-0.197954,0.746946,-0.249444,-0.433726,0.58553
26,45,-0.0872665,-0.698132,-0.174533,-0.174533,-0.093491,-0.691896,-0.157184,-0.197954,0.746946,-0.249444,-0.433726,0.58553
26,45,-0.0872665,-0.698132,-0.174533,-0.174533,-0.093491,-0.691896,-0.157184,-0.197954,0.746946,-0.249444,-0.433726,0.58553
26,45,-0.0872665,-0.698132,-0.174533,-0.174533,-0.093491,-0.691896,-0.157184,-0.197954,0.746946,-0.249444,-0.433726,0.58553
26,45,-0.0872665,-0.698132,-0.174533,-0.174533,-0.093491,-0.691896,-0.157184,-0.197954,0.746946,-0.249444,-0.433726,0.58553
26,45,-0.0872665,-0.698132,-0.174533,-0.174533,-0.093491,-0.691896,-0.157184,-0.197954,0.746946,-0.249444,-0.433726,0.58553
26,45,-0.0872665,-0.698132,-0.174533,-0.174533,-0.093491,-0.691896,-0.157184,-0.197954,0.746946,-0.249444,-0.433726,0.58553
26,45,-0.0872665,-0.698132,-0.174533,-0.174533,-0.093491,-0.691896,-0.157184,-0.197954,0.746946,-0.249444,-0.433726,0.58553
26,45,-0.0872665,-0.698132,-0.174533,-0.174533,-0.093491,-0.691896,-0.157184,-0.197954,0.746946,-0.249444,-0.433726,0.58553
26,45,-0.0872665,-0.698132,-0.174533,-0.174533,-0.093491,-0.691896,-0.157184,-0.197954,0.746946,-0.249444,-0.433726,0.58553
26,45,-0.0872665,-0.698132,-0.174533,-0.174533,-0.093491,-0.691896,-0.157184,-0.197954,0.746946,-0.249444,-0.433726,0.58553
26,45,-0.0872665,-0.698132,-0.174533,-0.174533,-0.093491,-0.691896,-0.157184,-0.197954,0.746946,-0.249444,-0.433726,0.58553
26,45,-0.0872665,-0.698132,-0.174533,-0.174533,-0.093491,-0.691896,-0.157184,-0.197954,0.746946,-0.249444,-0.433726,0.58553
26,45,-0.0872665,-0.698132,-0.174533,-0.174533,-0.093491,-0.691896,-0.157184,-0.197954,0.746946,-0.249444,-0.433726,0.58553
26,45,-0.0872665,-0.698132,-0.174533,-0.174533,-0.093491,-0.691896,-0.157184,-0.197954,0.746946,-0.249444,-0.433726,0.58553
26,45,-0.0872665,-0.698132,-0.174533,-0.174533,-0.093491,-0.691896,-0.157184,-0.197954,0.746946,-0.249444,-0.433726,0.58553
26,45,-0.0872665,-0.698132,-0.174533,-0.174533,-0.093491,-0.691896,-0.157184,-0.197954,0.746946,-0.249444,-0.433726,0.58553
26,45,-0.0872665,-0.698132,-0.174533,-0.174533,-0.093491,-0.691896,-0.157184,-0.197954,0.746946,-0.249444,-0.433726,0.58553
26,45,-0.0872665,-0.698132,-0.174533,-0.174533,-0.093491,-0.691896,-0.157184,-0.197954,0.746946,-0.249444,-0.433726,0.58553
26,45,-0.0872665,-0.698132,-0.174533,-0.174533,-0.093491,-0.691896,-0.157184,-0.197954,0.746946,-0.249444,-0.433726,0.58553
26,45,-0.0872665,-0.698132,-0.174533,-0.174533,-0.093491,-0.691896,-0.157184,-0.197954,0.746946,-0.249444,-0.433726,0.58553
26,45,-0.0872665,-0.698132,-0.174533,-0.174533,-0.093491,-0.691896,-0.157184,-0.197954,0.746946,-0.249444,-0.433726,0.58553
26,45,-0.0872665,-0.698132,-0.174533,-0.174533,-0.093491,-0.691896,-0.157184,-0.197954,0.746946,-0.249444,-0.433726,0.58553
26,45,-0.0872665,-0.698132,-0.174533,-0.174533,-0.093491,-0.691896,-0.157184,-0.197954,0.746946,-0.249444,-0.433726,0.58553
26,45,-0.0872665,-0.698132,-0.174533,-0.174533,-0.093491,-0.691896,-0.157184,-0.197954,0.746946,-0.249444,-0.433726,0.58553
26,45,-0.0872665,-0.698132,-0.174533,-0.174533,-0.093491,-0.691896,-0.157184,-0.197954,0.746946,-0.249444,-0.433726,0.58553
26,45,-0.0872665,-0.698132,-0.174533,-0.174533,-0.093491,-0.691896,-0.157184,-0.197954,0.746946,-0.249444,-0.433726,0.58553
26,45,-0.0872665,-0.698132,-0.174533,-0.174533,-0.093491,-0.691896,-0.157184,-0.197954,0.746946,-0.249444,-0.433726,0.58553
26,45,-0.0872665,-0.698132,-0.174533,-0.174533,-0.093491,-0.691896,-0.157184,-0.197954,0.746946,-0.249444,-0.433726,0.58553
26,45,-0.0872665,-0.698132,-0.174533,-0.174533,-0.093491,-0.691896,-0.157184,-0.197954,0.746946,-0.249444,-0.433726,0.58553
26,45,-0.0872665,-0.698132,-0.174533,-0.174533,-0.093491,-0.691896,-0.157184,-0.197954,0.746946,-0.249444,-0.433726,0.58553
26,45,-0.0872665,-0.698132,-0.174533,-0.174533,-0.093491,-0.691896,-0.157184,-0.197954,0.746946,-0.249444,-0.433726,0.58553
26,45,-0.0872665,-0.698132,-0.174533,-0.174533,-0.093491,-0.691896,-0.157184,-0.197954,0.746946,-0.249444,-0.433726,0.58553
26,45,-0.0872665,-0.698132,-0.174533,-0.174533,-0.093491,-0.691896,-0.157184,-0.197954,0.746946,-0.249444,-0.433726,0.58553
26,45,-0.0872665,-0.698132,-0.174533,-0.174533,-0.093491,-0.691896,-0.157184,-0.197954,0.746946,-0.249444,-0.433726,0.58553
26,45,-0.0872665,-0.698132,-0.174533,-0.174533,-0.093491,-0.691896,-0.157184,-0.197954,0.746946,-0.249444,-0.433726,0.58553
26,45,-0.0872665,-0.698132,-0.174533,-0.174533,-0.093491,-0.691896,-0.157184,-0.197954,0.746946,-0.249444,-0.433726,0.58553
26,45,-0.0872665,-0.698132,-0.174533,-0.174533,-0.093491,-0.691896,-0.157184,-0.197954,0.746946,-0.249444,-0.433726,0.58553
26,45,-0.0872665,-0.698132,-0.174533,-0.174533,-0.093491,-0.691896,-0.157184,-0.197954,0.746946,-0.249444,-0.433726,0.58553
26,45,-0.0872665,-0.698132,-0.174533,-0.174533,-0.093491,-0.691896,-0.157184,-0.197954,0.746946,-0.249444,-0.433726,0.58553
26,45,-0.0872665,-0.698132,-0.174533,-0.174533,-0.093491,-0.691896,-0.157184,-0.197954,0.746946,-0.249444,-0.433726,0.58553
26,45,-0.0872665,-0.698132,-0.174533,-0.174533,-0.093491,-0.691896,-0.157184,-0.197954,0.746946,-0.249444,-0.433726,0.58553
26,45,-0.0872665,-0.698132,-0.174533,-0.174533,-0.093491,-0.691896,-0.157184,-0.197954,0.746946,-0.249444,-0.433726,0.58553
26,45,-0.0872665,-0.698132,-0.174533,-0.174533,-0.093491,-0.691896,-0.157184,-0.197954,0.746946,-0.249444,-0.433726,0.58553
26,45,-0.0872665,-0.698132,-0.174533,-0.174533,-0.093491,-0.691896,-0.157184,-0.197954,0.746946,-0.249444,-0.433726,0.58553
26,45,-0.0872665,-0.698132,-0.174533,-0.174533,-0.093491,-0.691896,-0.157184,-0.197954,0.746946,-0.249444,-0.433726,0.58553
26,45,-0.0872665,-0.698132,-0.174533,-0.174533,-0.093491,-0.691896,-0.157184,-0.197954,0.746946,-0.249444,-0.433726,0.58553
26,45,-0.0872665,-0.698132,-0.174533,-0.174533,-0.093491,-0.691896,-0.157184,-0.197954,0.746946,-0.249444,-0.433726,0.58553
26,45,-0.0872665,-0.698132,-0.174533,-0.174533,-0.093491,-0.691896,-0.157184,-0.197954,0.746946,-0.249444,-0.433726,0.58553
26,45,-0.0872665,-0.698132,-0.174533,-0.174533,-0.093491,-0.691896,-0.157184,-0.197954,0.746946,-0.249444,-0.433726,0.58553
26,45,-0.0872665,-0.698132,-0.174533,-0.174533,-0.093491,-0.691896,-0.157184,-0.197954,0.746946,-0.249444,-0.433726,0.58553
26,45,-0.0872665,-0.698132,-0.174533,-0.174533,-0.093491,-0.691896,-0.157184,-0.197954,0.746946,-0.249444,-0.433726,0.58553
26,45,-0.0872665,-0.698132,-0.174533,-0.174533,-0.093491,-0.691896,-0.157184,-0.197954,0.746946,-0.249444,-0.433726,0.58553
26,45,-0.0872665,-0.698132,-0.174533,-0.174533,-0.093491,-0.691896,-0.157184,-0.197954,0.746946,-0.249444,-0.433726,0.58553
26,45,-0.0872665,-0.698132,-0.174533,-0.174533,-0.093491,-0.691896,-0.157184,-0.197954,0.746946,-0.249444,-0.433726,0.58553
26,45,-0.0872665,-0.698132,-0.174533,-0.174533,-0.093491,-0.691896,-0.157184,-0.197954,0.746946,-0.249444,-0.433726,0.58553
26,45,-0.0872665,-0.698132,-0.174533,-0.174533,-0.093491,-0.691896,-0.157184,-0.197954,0.746946,-0.249444,-0.433726,0.58553
26,45,-0.0872665,-0.698132,-0.174533,-0.174533,-0.093491,-0.691896,-0.157184,-0.197954,0.746946,-0.249444,-0.433726,0.58553
26,45,-0.0872665,-0.698132,-0.174533,-0.174533,-0.093491,-0.691896,-0.157184,-0.197954,0.746946,-0.249444,-0.433726,0.58553
26,45,-0.0872665,-0.698132,-0.174533,-0.174533,-0.093491,-0.691896,-0.157184,-0.197954,0.746946,-0.249444,-0.433726,0.58553
26,45,-0.0872665,-0.698132,-0.174533,-0.174533,-0.093491,-0.691896,-0.157184,-0.197954,0.746946,-0.249444,-0.433726,0.58553
26,45,-0.0872665,-0.698132,-0.174533,-0.174533,-0.093491,-0.691896,-0.157184,-0.197954,0.746946,-0.249444,-0.433726,0.58553
26,45,-0.0872665,-0.698132,-0.174533,-0.174533,-0.093491,-0.691896,-0.157184,-0.197954,0.746946,-0.249444,-0.433726,0.58553
26,45,-0.0872665,-0.698132,-0.174533,-0.174533,-0.093491,-0.691896,-0.157184,-0.197954,0.746946,-0.249444,-0.433726,0.58553
26,45,-0.0872665,-0.698132,-0.174533,-0.174533,-0.093491,-0.691896,-0.157184,-0.197954,0.746946,-0.249444,-0.433726,0.58553
26,45,-0.0872665,-0.698132,-0.174533,-0.174533,-0.093491,-0.691896,-0.157184,-0.197954,0.746946,-0.249444,-0.433726,0.58553
26,45,-0.0872665,-0.698132,-0.174533,-0.174533,-0.093491,-0.691896,-0.157184,-0.197954,0.746946,-0.249444,-0.433726,0.58553
26,45,-0.0872665,-0.698132,-0.174533,-0.174533,-0.093491,-0.691896,-0.157184,-0.197954,0.746946,-0.249444,-0.433726,0.58553
26,45,-0.0872665,-0.698132,-0.174533,-0.174533,-0.093491,-0.691896,-0.157184,-0.197954,0.746946,-0.249444,-0.433726,0.58553
26,45,-0.0872665,-0.698132,-0.174533,-0.174533,-0.093491,-0.691896,-0.157184,-0.197954,0.746946,-0.249444,-0.433726,0.58553
26,45,-0.0872665,-0.698132,-0.174533,-0.174533,-0.093491,-0.691896,-0.157184,-0.197954,0.746946,-0.249444,-0.433726,0.58553
26,45,-0.0872665,-0.698132,-0.174533,-0.174533,-0.093491,-0.691896,-0.157184,-0.197954,0.746946,-0.249444,-0.433726,0.58553
26,45,-0.0872665,-0.698132,-0.174533,-0.174533,-0.093491,-0.691896,-0.157184,-0.197954,0.746946,-0.249444,-0.433726,0.58553
26,45,-0.0872665,-0.698132,-0.174533,-0.174533,-0.093491,-0.691896,-0.157184,-0.197954,0.746946,-0.249444,-0.433726,0.58553
26,45,-0.0872665,-0.698132,-0.174533,-0.174533,-0.093491,-0.691896,-0.157184,-0.197954,0.746946,-0.249444,-0.433726,0.58553
26,45,-0.0872665,-0.698132,-0.174533,-0.174533,-0.093491,-0.691896,-0.157184,-0.197954,0.746946,-0.249444,-0.433726,0.58553
26,45,-0.0872665,-0.698132,-0.174533,-0.174533,-0.093491,-0.691896,-0.157184,-0.197954,0.746946,-0.249444,-0.433726,0.58553
26,45,-0.0872665,-0.698132,-0.174533,-0.174533,-0.093491,-0.691896,-0.157184,-0.197954,0.746946,-0.249444,-0.433726,0.58553
26,45,-0.0872665,-0.698132,-0.174533,-0.174533,-0.093491,-0.691896,-0.157184,-0.197954,0.746946,-0.249444,-0.433726,0.58553
26,45,-0.0872665,-0.698132,-0.174533,-0.174533,-0.093491,-0.691896,-0.157184,-0.197954,0.746946,-0.249444,-0.433726,0.58553
26,45,-0.0872665,-0.698132,-0.174533,-0.174533,-0.093491,-0.691896,-0.157184,-0.197954,0.746946,-0.249444,-0.433726,0.58553
26,45,-0.0872665,-0.698132,-0.174533,-0.174533,-0.093491,-0.691896,-0.157184,-0.197954,0.746946,-0.249444,-0.433726,0.58553
26,45,-0.0872665,-0.698132,-0.174533,-0.174533,-0.093491,-0.691896,-0.157184,-0.197954,0.746946,-0.249444,-0.433726,0.58553
26,45,-0.0872665,-0.698132,-0.174533,-0.174533,-0.093491,-0.691896,-0.157184,-0.197954,0.746946,-0.249444,-0.433726,0.58553
26,45,-0.0872665,-0.698132,-0.174533,-0.174533,-0.093491,-0.691896,-0.157184,-0.197954,0.746946,-0.249444,-0.433726,0.58553
26,45,-0.0872665,-0.698132,-0.174533,-0.174533,-0.093491,-0.691896,-0.157184,-0.197954,0.746946,-0.249444,-0.433726,0.58553
