stim_pw [us],stim_amp [mA],com_elbow_fe [rad],com_forearm_ps [rad],com_wrist_fe [rad],com_wrist_ru [rad],act_elbow_fe [rad],act_forearm_ps [rad],act_wrist_fe [rad],act_wrist_ru [rad],elbow_fe_trq [Nm],forearm_ps_trq [Nm],wrist_fe_trq [Nm],wrist_ru_trq [Nm]
23,45,-0.0872665,-0.698132,-0.174533,-0.174533,-0.0980725,-0.690675,-0.169107,-0.196374,1.29673,-0.298251,-0.135644,0.546024
23,45,-0.0872665,-0.698132,-0.174533,-0.174533,-0.0980725,-0.690675,-0.169107,-0.196374,1.29673,-0.298251,-0.135644,0.546024
23,45,-0.0872665,-0.698132,-0.174533,-0.174533,-0.0980725,-0.690675,-0.169107,-0.196374,1.29673,-0.298251,-0.135644,0.546024
23,45,-0.0872665,-0.698132,-0.174533,-0.174533,-0.0980725,-0.690675,-0.169168,-0.196355,1.29673,-0.298251,-0.134125,0.54555
23,45,-0.0872665,-0.698132,-0.174533,-0.174533,-0.0980725,-0.690675,-0.169168,-0.196355,1.29673,-0.298251,-0.134125,0.54555
23,45,-0.0872665,-0.698132,-0.174533,-0.174533,-0.0980725,-0.690675,-0.169168,-0.196355,1.29673,-0.298251,-0.134125,0.54555
23,45,-0.0872665,-0.698132,-0.174533,-0.174533,-0.0980725,-0.690675,-0.169168,-0.196355,1.29673,-0.298251,-0.134125,0.54555
23,45,-0.0872665,-0.698132,-0.174533,-0.174533,-0.0980725,-0.690675,-0.169168,-0.196355,1.29673,-0.298251,-0.134125,0.54555
23,45,-0.0872665,-0.698132,-0.174533,-0.174533,-0.0980725,-0.690675,-0.169168,-0.196355,1.29673,-0.298251,-0.134125,0.54555
23,45,-0.0872665,-0.698132,-0.174533,-0.174533,-0.0980725,-0.690675,-0.169168,-0.196355,1.29673,-0.298251,-0.134125,0.54555
23,45,-0.0872665,-0.698132,-0.174533,-0.174533,-0.0980725,-0.690675,-0.169168,-0.196355,1.29673,-0.298251,-0.134125,0.54555
23,45,-0.0872665,-0.698132,-0.174533,-0.174533,-0.0980725,-0.690675,-0.169168,-0.196355,1.29673,-0.298251,-0.134125,0.54555
23,45,-0.0872665,-0.698132,-0.174533,-0.174533,-0.0980725,-0.690675,-0.169168,-0.196355,1.29673,-0.298251,-0.134125,0.54555
23,45,-0.0872665,-0.698132,-0.174533,-0.174533,-0.0980725,-0.690675,-0.169168,-0.196355,1.29673,-0.298251,-0.134125,0.54555
23,45,-0.0872665,-0.698132,-0.174533,-0.174533,-0.0980725,-0.690675,-0.169168,-0.196355,1.29673,-0.298251,-0.134125,0.54555
23,45,-0.0872665,-0.698132,-0.174533,-0.174533,-0.0980725,-0.690675,-0.169235,-0.196398,1.29673,-0.298251,-0.132451,0.546616
23,45,-0.0872665,-0.698132,-0.174533,-0.174533,-0.0980725,-0.690675,-0.169235,-0.196398,1.29673,-0.298251,-0.132451,0.546616
23,45,-0.0872665,-0.698132,-0.174533,-0.174533,-0.0980725,-0.690675,-0.169235,-0.196398,1.29673,-0.298251,-0.132451,0.546616
23,45,-0.0872665,-0.698132,-0.174533,-0.174533,-0.0980725,-0.690675,-0.169235,-0.196398,1.29673,-0.298251,-0.132451,0.546616
23,45,-0.0872665,-0.698132,-0.174533,-0.174533,-0.0980725,-0.690675,-0.169235,-0.196398,1.29673,-0.298251,-0.132451,0.546616
23,45,-0.0872665,-0.698132,-0.174533,-0.174533,-0.0980725,-0.690675,-0.169235,-0.196398,1.29673,-0.298251,-0.132451,0.546616
23,45,-0.0872665,-0.698132,-0.174533,-0.174533,-0.0980725,-0.690675,-0.169235,-0.196398,1.29673,-0.298251,-0.132451,0.546616
23,45,-0.0872665,-0.698132,-0.174533,-0.174533,-0.0980725,-0.690675,-0.169235,-0.196398,1.29673,-0.298251,-0.132451,0.546616
23,45,-0.0872665,-0.698132,-0.174533,-0.174533,-0.0980725,-0.690675,-0.169235,-0.196398,1.29673,-0.298251,-0.132451,0.546616
23,45,-0.0872665,-0.698132,-0.174533,-0.174533,-0.0980725,-0.690675,-0.169235,-0.196398,1.29673,-0.298251,-0.132451,0.546616
23,45,-0.0872665,-0.698132,-0.174533,-0.174533,-0.0980725,-0.690675,-0.169235,-0.196398,1.29673,-0.298251,-0.132451,0.546616
23,45,-0.0872665,-0.698132,-0.174533,-0.174533,-0.0980725,-0.690675,-0.169235,-0.196398,1.29673,-0.298251,-0.132451,0.546616
23,45,-0.0872665,-0.698132,-0.174533,-0.174533,-0.0980725,-0.690675,-0.169235,-0.196398,1.29673,-0.298251,-0.132451,0.546616
23,45,-0.0872665,-0.698132,-0.174533,-0.174533,-0.0980725,-0.690675,-0.169235,-0.196398,1.29673,-0.298251,-0.132451,0.546616
23,45,-0.0872665,-0.698132,-0.174533,-0.174533,-0.0980725,-0.690675,-0.169235,-0.196398,1.29673,-0.298251,-0.132451,0.546616
23,45,-0.0872665,-0.698132,-0.174533,-0.174533,-0.0980725,-0.690675,-0.169235,-0.196398,1.29673,-0.298251,-0.132451,0.546616
23,45,-0.0872665,-0.698132,-0.174533,-0.174533,-0.0980725,-0.690675,-0.169235,-0.196398,1.29673,-0.298251,-0.132451,0.546616
23,45,-0.0872665,-0.698132,-0.174533,-0.174533,-0.0980725,-0.690675,-0.169235,-0.196398,1.29673,-0.298251,-0.132451,0.546616
23,45,-0.0872665,-0.698132,-0.174533,-0.174533,-0.0980725,-0.690675,-0.169235,-0.196398,1.29673,-0.298251,-0.132451,0.546616
23,45,-0.0872665,-0.698132,-0.174533,-0.174533,-0.0980725,-0.690675,-0.169235,-0.196398,1.29673,-0.298251,-0.132451,0.546616
23,45,-0.0872665,-0.698132,-0.174533,-0.174533,-0.0980725,-0.690675,-0.169302,-0.19644,1.29673,-0.298251,-0.130777,0.547682
23,45,-0.0872665,-0.698132,-0.174533,-0.174533,-0.0980725,-0.690675,-0.169302,-0.19644,1.29673,-0.298251,-0.130777,0.547682
23,45,-0.0872665,-0.698132,-0.174533,-0.174533,-0.0980725,-0.690675,-0.169302,-0.19644,1.29673,-0.298251,-0.130777,0.547682
23,45,-0.0872665,-0.698132,-0.174533,-0.174533,-0.0980725,-0.690675,-0.169302,-0.19644,1.29673,-0.298251,-0.130777,0.547682
23,45,-0.0872665,-0.698132,-0.174533,-0.174533,-0.0980725,-0.690675,-0.169302,-0.19644,1.29673,-0.298251,-0.130777,0.547682
23,45,-0.0872665,-0.698132,-0.174533,-0.174533,-0.0980725,-0.690675,-0.169302,-0.19644,1.29673,-0.298251,-0.130777,0.547682
23,45,-0.0872665,-0.698132,-0.174533,-0.174533,-0.0980725,-0.690675,-0.169302,-0.19644,1.29673,-0.298251,-0.130777,0.547682
23,45,-0.0872665,-0.698132,-0.174533,-0.174533,-0.0980725,-0.690675,-0.169302,-0.19644,1.29673,-0.298251,-0.130777,0.547682
23,45,-0.0872665,-0.698132,-0.174533,-0.174533,-0.0980725,-0.690675,-0.169302,-0.19644,1.29673,-0.298251,-0.130777,0.547682
23,45,-0.0872665,-0.698132,-0.174533,-0.174533,-0.0980725,-0.690675,-0.169302,-0.19644,1.29673,-0.298251,-0.130777,0.547682
23,45,-0.0872665,-0.698132,-0.174533,-0.174533,-0.0980725,-0.690675,-0.169302,-0.19644,1.29673,-0.298251,-0.130777,0.547682
23,45,-0.0872665,-0.698132,-0.174533,-0.174533,-0.0980725,-0.690675,-0.169369,-0.196483,1.29673,-0.298251,-0.129103,0.548749
23,45,-0.0872665,-0.698132,-0.174533,-0.174533,-0.0980725,-0.690675,-0.169369,-0.196483,1.29673,-0.298251,-0.129103,0.548749
23,45,-0.0872665,-0.698132,-0.174533,-0.174533,-0.0980725,-0.690675,-0.169369,-0.196483,1.29673,-0.298251,-0.129103,0.548749
23,45,-0.0872665,-0.698132,-0.174533,-0.174533,-0.0980725,-0.690675,-0.169369,-0.196483,1.29673,-0.298251,-0.129103,0.548749
23,45,-0.0872665,-0.698132,-0.174533,-0.174533,-0.0980725,-0.690675,-0.169369,-0.196483,1.29673,-0.298251,-0.129103,0.548749
23,45,-0.0872665,-0.698132,-0.174533,-0.174533,-0.0980725,-0.690675,-0.169366,-0.196423,1.29673,-0.298251,-0.129185,0.54726
23,45,-0.0872665,-0.698132,-0.174533,-0.174533,-0.0980725,-0.690675,-0.169366,-0.196423,1.29673,-0.298251,-0.129185,0.54726
23,45,-0.0872665,-0.698132,-0.174533,-0.174533,-0.0980725,-0.690675,-0.169366,-0.196423,1.29673,-0.298251,-0.129185,0.54726
23,45,-0.0872665,-0.698132,-0.174533,-0.174533,-0.0980725,-0.690726,-0.169366,-0.196423,1.29673,-0.296218,-0.129185,0.54726
23,45,-0.0872665,-0.698132,-0.174533,-0.174533,-0.0980725,-0.690726,-0.169366,-0.196423,1.29673,-0.296218,-0.129185,0.54726
23,45,-0.0872665,-0.698132,-0.174533,-0.174533,-0.0980725,-0.690726,-0.169366,-0.196423,1.29673,-0.296218,-0.129185,0.54726
23,45,-0.0872665,-0.698132,-0.174533,-0.174533,-0.0980725,-0.690726,-0.169366,-0.196423,1.29673,-0.296218,-0.129185,0.54726
23,45,-0.0872665,-0.698132,-0.174533,-0.174533,-0.0980725,-0.690726,-0.169366,-0.196423,1.29673,-0.296218,-0.129185,0.54726
23,45,-0.0872665,-0.698132,-0.174533,-0.174533,-0.0980725,-0.690726,-0.169366,-0.196423,1.29673,-0.296218,-0.129185,0.54726
23,45,-0.0872665,-0.698132,-0.174533,-0.174533,-0.0980725,-0.690726,-0.169366,-0.196423,1.29673,-0.296218,-0.129185,0.54726
23,45,-0.0872665,-0.698132,-0.174533,-0.174533,-0.0980725,-0.690726,-0.169366,-0.196423,1.29673,-0.296218,-0.129185,0.54726
23,45,-0.0872665,-0.698132,-0.174533,-0.174533,-0.0980725,-0.690726,-0.169366,-0.196423,1.29673,-0.296218,-0.129185,0.54726
23,45,-0.0872665,-0.698132,-0.174533,-0.174533,-0.0980725,-0.690726,-0.169366,-0.196423,1.29673,-0.296218,-0.129185,0.54726
23,45,-0.0872665,-0.698132,-0.174533,-0.174533,-0.0980725,-0.690726,-0.169366,-0.196423,1.29673,-0.296218,-0.129185,0.54726
23,45,-0.0872665,-0.698132,-0.174533,-0.174533,-0.0980725,-0.690726,-0.169366,-0.196423,1.29673,-0.296218,-0.129185,0.54726
23,45,-0.0872665,-0.698132,-0.174533,-0.174533,-0.0980725,-0.690726,-0.169366,-0.196423,1.29673,-0.296218,-0.129185,0.54726
23,45,-0.0872665,-0.698132,-0.174533,-0.174533,-0.0980725,-0.690726,-0.169366,-0.196423,1.29673,-0.296218,-0.129185,0.54726
23,45,-0.0872665,-0.698132,-0.174533,-0.174533,-0.0980725,-0.690726,-0.169366,-0.196423,1.29673,-0.296218,-0.129185,0.54726
23,45,-0.0872665,-0.698132,-0.174533,-0.174533,-0.0980725,-0.690726,-0.169366,-0.196423,1.29673,-0.296218,-0.129185,0.54726
23,45,-0.0872665,-0.698132,-0.174533,-0.174533,-0.0980725,-0.690726,-0.169366,-0.196423,1.29673,-0.296218,-0.129185,0.54726
23,45,-0.0872665,-0.698132,-0.174533,-0.174533,-0.0980725,-0.690726,-0.169366,-0.196423,1.29673,-0.296218,-0.129185,0.54726
23,45,-0.0872665,-0.698132,-0.174533,-0.174533,-0.0980725,-0.690726,-0.169366,-0.196423,1.29673,-0.296218,-0.129185,0.54726
23,45,-0.0872665,-0.698132,-0.174533,-0.174533,-0.0980725,-0.690726,-0.169366,-0.196423,1.29673,-0.296218,-0.129185,0.54726
23,45,-0.0872665,-0.698132,-0.174533,-0.174533,-0.0980725,-0.690726,-0.169366,-0.196423,1.29673,-0.296218,-0.129185,0.54726
23,45,-0.0872665,-0.698132,-0.174533,-0.174533,-0.0980725,-0.690726,-0.169366,-0.196423,1.29673,-0.296218,-0.129185,0.54726
23,45,-0.0872665,-0.698132,-0.174533,-0.174533,-0.0980725,-0.690726,-0.169433,-0.196466,1.29673,-0.296218,-0.12751,0.548327
23,45,-0.0872665,-0.698132,-0.174533,-0.174533,-0.0980725,-0.690726,-0.169433,-0.196466,1.29673,-0.296218,-0.12751,0.548327
23,45,-0.0872665,-0.698132,-0.174533,-0.174533,-0.0980725,-0.690726,-0.169433,-0.196466,1.29673,-0.296218,-0.12751,0.548327
23,45,-0.0872665,-0.698132,-0.174533,-0.174533,-0.0980725,-0.690726,-0.169433,-0.196466,1.29673,-0.296218,-0.12751,0.548327
23,45,-0.0872665,-0.698132,-0.174533,-0.174533,-0.0980725,-0.690726,-0.169433,-0.196466,1.29673,-0.296218,-0.12751,0.548327
23,45,-0.0872665,-0.698132,-0.174533,-0.174533,-0.0980725,-0.690726,-0.169433,-0.196466,1.29673,-0.296218,-0.12751,0.548327
23,45,-0.0872665,-0.698132,-0.174533,-0.174533,-0.0980725,-0.690726,-0.169433,-0.196466,1.29673,-0.296218,-0.12751,0.548327
23,45,-0.0872665,-0.698132,-0.174533,-0.174533,-0.0980725,-0.690726,-0.169433,-0.196466,1.29673,-0.296218,-0.12751,0.548327
23,45,-0.0872665,-0.698132,-0.174533,-0.174533,-0.0980725,-0.690726,-0.169433,-0.196466,1.29673,-0.296218,-0.12751,0.548327
23,45,-0.0872665,-0.698132,-0.174533,-0.174533,-0.0980725,-0.690726,-0.169433,-0.196466,1.29673,-0.296218,-0.12751,0.548327
23,45,-0.0872665,-0.698132,-0.174533,-0.174533,-0.0980725,-0.690726,-0.169433,-0.196466,1.29673,-0.296218,-0.12751,0.548327
23,45,-0.0872665,-0.698132,-0.174533,-0.174533,-0.0980725,-0.690726,-0.169433,-0.196466,1.29673,-0.296218,-0.12751,0.548327
23,45,-0.0872665,-0.698132,-0.174533,-0.174533,-0.0980725,-0.690726,-0.169433,-0.196466,1.29673,-0.296218,-0.12751,0.548327
23,45,-0.0872665,-0.698132,-0.174533,-0.174533,-0.0980725,-0.690726,-0.169433,-0.196466,1.29673,-0.296218,-0.12751,0.548327
23,45,-0.0872665,-0.698132,-0.174533,-0.174533,-0.0980725,-0.690726,-0.169433,-0.196466,1.29673,-0.296218,-0.12751,0.548327
23,45,-0.0872665,-0.698132,-0.174533,-0.174533,-0.0980725,-0.690726,-0.169433,-0.196466,1.29673,-0.296218,-0.12751,0.548327
23,45,-0.0872665,-0.698132,-0.174533,-0.174533,-0.0980725,-0.690726,-0.169433,-0.196466,1.29673,-0.296218,-0.12751,0.548327
23,45,-0.0872665,-0.698132,-0.174533,-0.174533,-0.0980725,-0.690726,-0.169433,-0.196466,1.29673,-0.296218,-0.12751,0.548327
23,45,-0.0872665,-0.698132,-0.174533,-0.174533,-0.0980725,-0.690726,-0.169433,-0.196466,1.29673,-0.296218,-0.12751,0.548327
23,45,-0.0872665,-0.698132,-0.174533,-0.174533,-0.0980725,-0.690726,-0.169499,-0.196509,1.29673,-0.296218,-0.125769,0.549436
23,45,-0.0872665,-0.698132,-0.174533,-0.174533,-0.0980725,-0.690726,-0.169499,-0.196509,1.29673,-0.296218,-0.125769,0.549436
23,45,-0.0872665,-0.698132,-0.174533,-0.174533,-0.0980725,-0.690726,-0.169499,-0.196509,1.29673,-0.296218,-0.125769,0.549436
23,45,-0.0872665,-0.698132,-0.174533,-0.174533,-0.0980725,-0.690726,-0.169499,-0.196509,1.29673,-0.296218,-0.125769,0.549436
23,45,-0.0872665,-0.698132,-0.174533,-0.174533,-0.0980725,-0.690726,-0.169499,-0.196509,1.29673,-0.296218,-0.125769,0.549436
23,45,-0.0872665,-0.698132,-0.174533,-0.174533,-0.0980725,-0.690726,-0.169499,-0.196509,1.29673,-0.296218,-0.125769,0.549436
23,45,-0.0872665,-0.698132,-0.174533,-0.174533,-0.0980725,-0.690726,-0.169499,-0.196509,1.29673,-0.296218,-0.125769,0.549436
23,45,-0.0872665,-0.698132,-0.174533,-0.174533,-0.0980725,-0.690726,-0.169499,-0.196509,1.29673,-0.296218,-0.125769,0.549436
23,45,-0.0872665,-0.698132,-0.174533,-0.174533,-0.0980725,-0.690726,-0.169499,-0.196509,1.29673,-0.296218,-0.125769,0.549436
23,45,-0.0872665,-0.698132,-0.174533,-0.174533,-0.0980725,-0.690726,-0.169499,-0.196509,1.29673,-0.296218,-0.125769,0.549436
23,45,-0.0872665,-0.698132,-0.174533,-0.174533,-0.0980725,-0.690726,-0.169499,-0.196509,1.29673,-0.296218,-0.125769,0.549436
23,45,-0.0872665,-0.698132,-0.174533,-0.174533,-0.0980725,-0.690726,-0.169499,-0.196509,1.29673,-0.296218,-0.125769,0.549436
23,45,-0.0872665,-0.698132,-0.174533,-0.174533,-0.0980725,-0.690726,-0.169499,-0.196509,1.29673,-0.296218,-0.125769,0.549436
23,45,-0.0872665,-0.698132,-0.174533,-0.174533,-0.0980725,-0.690726,-0.169499,-0.196509,1.29673,-0.296218,-0.125769,0.549436
23,45,-0.0872665,-0.698132,-0.174533,-0.174533,-0.0980725,-0.690726,-0.169499,-0.196509,1.29673,-0.296218,-0.125769,0.549436
23,45,-0.0872665,-0.698132,-0.174533,-0.174533,-0.0980725,-0.690726,-0.169499,-0.196509,1.29673,-0.296218,-0.125769,0.549436
23,45,-0.0872665,-0.698132,-0.174533,-0.174533,-0.0980725,-0.690726,-0.169499,-0.196509,1.29673,-0.296218,-0.125769,0.549436
23,45,-0.0872665,-0.698132,-0.174533,-0.174533,-0.0980725,-0.690726,-0.169499,-0.196509,1.29673,-0.296218,-0.125769,0.549436
23,45,-0.0872665,-0.698132,-0.174533,-0.174533,-0.0980725,-0.690726,-0.169566,-0.196551,1.29673,-0.296218,-0.124093,0.550504
23,45,-0.0872665,-0.698132,-0.174533,-0.174533,-0.0980725,-0.690726,-0.169566,-0.196551,1.29673,-0.296218,-0.124093,0.550504
23,45,-0.0872665,-0.698132,-0.174533,-0.174533,-0.0980725,-0.690726,-0.169566,-0.196551,1.29673,-0.296218,-0.124093,0.550504
23,45,-0.0872665,-0.698132,-0.174533,-0.174533,-0.0980725,-0.690726,-0.169566,-0.196551,1.29673,-0.296218,-0.124093,0.550504
23,45,-0.0872665,-0.698132,-0.174533,-0.174533,-0.0980725,-0.690726,-0.169566,-0.196551,1.29673,-0.296218,-0.124093,0.550504
23,45,-0.0872665,-0.698132,-0.174533,-0.174533,-0.0980725,-0.690726,-0.169566,-0.196551,1.29673,-0.296218,-0.124093,0.550504
23,45,-0.0872665,-0.698132,-0.174533,-0.174533,-0.0980725,-0.690726,-0.169566,-0.196551,1.29673,-0.296218,-0.124093,0.550504
23,45,-0.0872665,-0.698132,-0.174533,-0.174533,-0.0980725,-0.690726,-0.169566,-0.196551,1.29673,-0.296218,-0.124093,0.550504
23,45,-0.0872665,-0.698132,-0.174533,-0.174533,-0.0980725,-0.690726,-0.169566,-0.196551,1.29673,-0.296218,-0.124093,0.550504
23,45,-0.0872665,-0.698132,-0.174533,-0.174533,-0.0980725,-0.690726,-0.169566,-0.196551,1.29673,-0.296218,-0.124093,0.550504
23,45,-0.0872665,-0.698132,-0.174533,-0.174533,-0.0980725,-0.690726,-0.169566,-0.196551,1.29673,-0.296218,-0.124093,0.550504
23,45,-0.0872665,-0.698132,-0.174533,-0.174533,-0.0980725,-0.690726,-0.169566,-0.196551,1.29673,-0.296218,-0.124093,0.550504
23,45,-0.0872665,-0.698132,-0.174533,-0.174533,-0.0980725,-0.690726,-0.169566,-0.196551,1.29673,-0.296218,-0.124093,0.550504
23,45,-0.0872665,-0.698132,-0.174533,-0.174533,-0.0980725,-0.690726,-0.169566,-0.196551,1.29673,-0.296218,-0.124093,0.550504
23,45,-0.0872665,-0.698132,-0.174533,-0.174533,-0.0980725,-0.690726,-0.169566,-0.196551,1.29673,-0.296218,-0.124093,0.550504
23,45,-0.0872665,-0.698132,-0.174533,-0.174533,-0.0980725,-0.690726,-0.169627,-0.196532,1.29673,-0.296218,-0.122573,0.55003
23,45,-0.0872665,-0.698132,-0.174533,-0.174533,-0.0980725,-0.690726,-0.169627,-0.196532,1.29673,-0.296218,-0.122573,0.55003
23,45,-0.0872665,-0.698132,-0.174533,-0.174533,-0.0980725,-0.690726,-0.169627,-0.196532,1.29673,-0.296218,-0.122573,0.55003
23,45,-0.0872665,-0.698132,-0.174533,-0.174533,-0.0980725,-0.690726,-0.169627,-0.196532,1.29673,-0.296218,-0.122573,0.55003
23,45,-0.0872665,-0.698132,-0.174533,-0.174533,-0.0980725,-0.690726,-0.169627,-0.196532,1.29673,-0.296218,-0.122573,0.55003
23,45,-0.0872665,-0.698132,-0.174533,-0.174533,-0.0980725,-0.690726,-0.169627,-0.196532,1.29673,-0.296218,-0.122573,0.55003
23,45,-0.0872665,-0.698132,-0.174533,-0.174533,-0.0980725,-0.690726,-0.169627,-0.196532,1.29673,-0.296218,-0.122573,0.55003
23,45,-0.0872665,-0.698132,-0.174533,-0.174533,-0.0980725,-0.690726,-0.169627,-0.196532,1.29673,-0.296218,-0.122573,0.55003
23,45,-0.0872665,-0.698132,-0.174533,-0.174533,-0.0980725,-0.690726,-0.169627,-0.196532,1.29673,-0.296218,-0.122573,0.55003
23,45,-0.0872665,-0.698132,-0.174533,-0.174533,-0.0980725,-0.690726,-0.169627,-0.196532,1.29673,-0.296218,-0.122573,0.55003
23,45,-0.0872665,-0.698132,-0.174533,-0.174533,-0.0980725,-0.690726,-0.169627,-0.196532,1.29673,-0.296218,-0.122573,0.55003
23,45,-0.0872665,-0.698132,-0.174533,-0.174533,-0.0980725,-0.690726,-0.169627,-0.196532,1.29673,-0.296218,-0.122573,0.55003
23,45,-0.0872665,-0.698132,-0.174533,-0.174533,-0.0980725,-0.690726,-0.169627,-0.196532,1.29673,-0.296218,-0.122573,0.55003
23,45,-0.0872665,-0.698132,-0.174533,-0.174533,-0.0980725,-0.690726,-0.169627,-0.196532,1.29673,-0.296218,-0.122573,0.55003
23,45,-0.0872665,-0.698132,-0.174533,-0.174533,-0.0980725,-0.690726,-0.169627,-0.196532,1.29673,-0.296218,-0.122573,0.55003
23,45,-0.0872665,-0.698132,-0.174533,-0.174533,-0.0980725,-0.690726,-0.169627,-0.196532,1.29673,-0.296218,-0.122573,0.55003
23,45,-0.0872665,-0.698132,-0.174533,-0.174533,-0.0980725,-0.690726,-0.169627,-0.196532,1.29673,-0.296218,-0.122573,0.55003
23,45,-0.0872665,-0.698132,-0.174533,-0.174533,-0.0980725,-0.690726,-0.169627,-0.196532,1.29673,-0.296218,-0.122573,0.55003
23,45,-0.0872665,-0.698132,-0.174533,-0.174533,-0.0980725,-0.690726,-0.169627,-0.196532,1.29673,-0.296218,-0.122573,0.55003
23,45,-0.0872665,-0.698132,-0.174533,-0.174533,-0.0980725,-0.690726,-0.169627,-0.196532,1.29673,-0.296218,-0.122573,0.55003
23,45,-0.0872665,-0.698132,-0.174533,-0.174533,-0.0980725,-0.690726,-0.169624,-0.196473,1.29673,-0.296218,-0.122655,0.548541
23,45,-0.0872665,-0.698132,-0.174533,-0.174533,-0.0980725,-0.690726,-0.169624,-0.196473,1.29673,-0.296218,-0.122655,0.548541
23,45,-0.0872665,-0.698132,-0.174533,-0.174533,-0.0980725,-0.690726,-0.169624,-0.196473,1.29673,-0.296218,-0.122655,0.548541
23,45,-0.0872665,-0.698132,-0.174533,-0.174533,-0.0980725,-0.690726,-0.169624,-0.196473,1.29673,-0.296218,-0.122655,0.548541
23,45,-0.0872665,-0.698132,-0.174533,-0.174533,-0.0980725,-0.690726,-0.169624,-0.196473,1.29673,-0.296218,-0.122655,0.548541
23,45,-0.0872665,-0.698132,-0.174533,-0.174533,-0.0980725,-0.690726,-0.169624,-0.196473,1.29673,-0.296218,-0.122655,0.548541
23,45,-0.0872665,-0.698132,-0.174533,-0.174533,-0.0980725,-0.690726,-0.169624,-0.196473,1.29673,-0.296218,-0.122655,0.548541
23,45,-0.0872665,-0.698132,-0.174533,-0.174533,-0.0980725,-0.690726,-0.169624,-0.196473,1.29673,-0.296218,-0.122655,0.548541
23,45,-0.0872665,-0.698132,-0.174533,-0.174533,-0.0980725,-0.690726,-0.169624,-0.196473,1.29673,-0.296218,-0.122655,0.548541
23,45,-0.0872665,-0.698132,-0.174533,-0.174533,-0.0980725,-0.690726,-0.169624,-0.196473,1.29673,-0.296218,-0.122655,0.548541
23,45,-0.0872665,-0.698132,-0.174533,-0.174533,-0.0980725,-0.690726,-0.169624,-0.196473,1.29673,-0.296218,-0.122655,0.548541
23,45,-0.0872665,-0.698132,-0.174533,-0.174533,-0.0980725,-0.690726,-0.169624,-0.196473,1.29673,-0.296218,-0.122655,0.548541
23,45,-0.0872665,-0.698132,-0.174533,-0.174533,-0.0980725,-0.690726,-0.169624,-0.196473,1.29673,-0.296218,-0.122655,0.548541
23,45,-0.0872665,-0.698132,-0.174533,-0.174533,-0.0980725,-0.690726,-0.169624,-0.196473,1.29673,-0.296218,-0.122655,0.548541
23,45,-0.0872665,-0.698132,-0.174533,-0.174533,-0.0980725,-0.690726,-0.169624,-0.196473,1.29673,-0.296218,-0.122655,0.548541
23,45,-0.0872665,-0.698132,-0.174533,-0.174533,-0.0980725,-0.690726,-0.169624,-0.196473,1.29673,-0.296218,-0.122655,0.548541
23,45,-0.0872665,-0.698132,-0.174533,-0.174533,-0.0980725,-0.690726,-0.169624,-0.196473,1.29673,-0.296218,-0.122655,0.548541
23,45,-0.0872665,-0.698132,-0.174533,-0.174533,-0.0980725,-0.690726,-0.169624,-0.196473,1.29673,-0.296218,-0.122655,0.548541
23,45,-0.0872665,-0.698132,-0.174533,-0.174533,-0.0980725,-0.690726,-0.169624,-0.196473,1.29673,-0.296218,-0.122655,0.548541
23,45,-0.0872665,-0.698132,-0.174533,-0.174533,-0.0980725,-0.690726,-0.169624,-0.196473,1.29673,-0.296218,-0.122655,0.548541
23,45,-0.0872665,-0.698132,-0.174533,-0.174533,-0.0980725,-0.690726,-0.169624,-0.196473,1.29673,-0.296218,-0.122655,0.548541
23,45,-0.0872665,-0.698132,-0.174533,-0.174533,-0.0980725,-0.690726,-0.169691,-0.196516,1.29673,-0.296218,-0.121049,0.549565
23,45,-0.0872665,-0.698132,-0.174533,-0.174533,-0.0980725,-0.690726,-0.169691,-0.196516,1.29673,-0.296218,-0.121049,0.549565
23,45,-0.0872665,-0.698132,-0.174533,-0.174533,-0.0980725,-0.690726,-0.169691,-0.196516,1.29673,-0.296218,-0.121049,0.549565
23,45,-0.0872665,-0.698132,-0.174533,-0.174533,-0.0980725,-0.690726,-0.169691,-0.196516,1.29673,-0.296218,-0.121049,0.549565
23,45,-0.0872665,-0.698132,-0.174533,-0.174533,-0.0980725,-0.690726,-0.169691,-0.196516,1.29673,-0.296218,-0.121049,0.549565
23,45,-0.0872665,-0.698132,-0.174533,-0.174533,-0.0980725,-0.690726,-0.169691,-0.196516,1.29673,-0.296218,-0.121049,0.549565
23,45,-0.0872665,-0.698132,-0.174533,-0.174533,-0.0980725,-0.690726,-0.169691,-0.196516,1.29673,-0.296218,-0.121049,0.549565
23,45,-0.0872665,-0.698132,-0.174533,-0.174533,-0.0980725,-0.690726,-0.169691,-0.196516,1.29673,-0.296218,-0.121049,0.549565
23,45,-0.0872665,-0.698132,-0.174533,-0.174533,-0.0980725,-0.690726,-0.169691,-0.196516,1.29673,-0.296218,-0.121049,0.549565
23,45,-0.0872665,-0.698132,-0.174533,-0.174533,-0.0980725,-0.690726,-0.169691,-0.196516,1.29673,-0.296218,-0.121049,0.549565
23,45,-0.0872665,-0.698132,-0.174533,-0.174533,-0.0980725,-0.690726,-0.169691,-0.196516,1.29673,-0.296218,-0.121049,0.549565
23,45,-0.0872665,-0.698132,-0.174533,-0.174533,-0.0980725,-0.690726,-0.169758,-0.196558,1.29673,-0.296218,-0.119374,0.550632
23,45,-0.0872665,-0.698132,-0.174533,-0.174533,-0.0980725,-0.690726,-0.169758,-0.196558,1.29673,-0.296218,-0.119374,0.550632
23,45,-0.0872665,-0.698132,-0.174533,-0.174533,-0.0980725,-0.690726,-0.169758,-0.196558,1.29673,-0.296218,-0.119374,0.550632
23,45,-0.0872665,-0.698132,-0.174533,-0.174533,-0.0980725,-0.690726,-0.169758,-0.196558,1.29673,-0.296218,-0.119374,0.550632
23,45,-0.0872665,-0.698132,-0.174533,-0.174533,-0.0980725,-0.690726,-0.169758,-0.196558,1.29673,-0.296218,-0.119374,0.550632
23,45,-0.0872665,-0.698132,-0.174533,-0.174533,-0.0980725,-0.690726,-0.169758,-0.196558,1.29673,-0.296218,-0.119374,0.550632
23,45,-0.0872665,-0.698132,-0.174533,-0.174533,-0.0980725,-0.690726,-0.169758,-0.196558,1.29673,-0.296218,-0.119374,0.550632
23,45,-0.0872665,-0.698132,-0.174533,-0.174533,-0.0980725,-0.690726,-0.169825,-0.196601,1.29673,-0.296218,-0.117699,0.551699
23,45,-0.0872665,-0.698132,-0.174533,-0.174533,-0.0980725,-0.690726,-0.169825,-0.196601,1.29673,-0.296218,-0.117699,0.551699
23,45,-0.0872665,-0.698132,-0.174533,-0.174533,-0.0980725,-0.690726,-0.169825,-0.196601,1.29673,-0.296218,-0.117699,0.551699
23,45,-0.0872665,-0.698132,-0.174533,-0.174533,-0.0980725,-0.690726,-0.169825,-0.196601,1.29673,-0.296218,-0.117699,0.551699
23,45,-0.0872665,-0.698132,-0.174533,-0.174533,-0.0980725,-0.690726,-0.169825,-0.196601,1.29673,-0.296218,-0.117699,0.551699
23,45,-0.0872665,-0.698132,-0.174533,-0.174533,-0.0980725,-0.690726,-0.169892,-0.196644,1.29673,-0.296218,-0.115955,0.552809
23,45,-0.0872665,-0.698132,-0.174533,-0.174533,-0.0980725,-0.690726,-0.169892,-0.196644,1.29673,-0.296218,-0.115955,0.552809
23,45,-0.0872665,-0.698132,-0.174533,-0.174533,-0.0980725,-0.690726,-0.169892,-0.196644,1.29673,-0.296218,-0.115955,0.552809
23,45,-0.0872665,-0.698132,-0.174533,-0.174533,-0.0980725,-0.690726,-0.169892,-0.196644,1.29673,-0.296218,-0.115955,0.552809
23,45,-0.0872665,-0.698132,-0.174533,-0.174533,-0.0980725,-0.690726,-0.169892,-0.196644,1.29673,-0.296218,-0.115955,0.552809
23,45,-0.0872665,-0.698132,-0.174533,-0.174533,-0.0980725,-0.690726,-0.169892,-0.196644,1.29673,-0.296218,-0.115955,0.552809
23,45,-0.0872665,-0.698132,-0.174533,-0.174533,-0.0980725,-0.690726,-0.169892,-0.196644,1.29673,-0.296218,-0.115955,0.552809
23,45,-0.0872665,-0.698132,-0.174533,-0.174533,-0.0980725,-0.690726,-0.169959,-0.196686,1.29673,-0.296218,-0.114164,0.55395
23,45,-0.0872665,-0.698132,-0.174533,-0.174533,-0.0980725,-0.690726,-0.169959,-0.196686,1.29673,-0.296218,-0.114164,0.55395
23,45,-0.0872665,-0.698132,-0.174533,-0.174533,-0.0980725,-0.690726,-0.169959,-0.196686,1.29673,-0.296218,-0.114164,0.55395
23,45,-0.0872665,-0.698132,-0.174533,-0.174533,-0.0980725,-0.690726,-0.169959,-0.196686,1.29673,-0.296218,-0.114164,0.55395
23,45,-0.0872665,-0.698132,-0.174533,-0.174533,-0.0980725,-0.690726,-0.169959,-0.196686,1.29673,-0.296218,-0.114164,0.55395
23,45,-0.0872665,-0.698132,-0.174533,-0.174533,-0.0980725,-0.690726,-0.170026,-0.196729,1.29673,-0.296218,-0.11245,0.555042
23,45,-0.0872665,-0.698132,-0.174533,-0.174533,-0.0980725,-0.690726,-0.170026,-0.196729,1.29673,-0.296218,-0.11245,0.555042
23,45,-0.0872665,-0.698132,-0.174533,-0.174533,-0.0980725,-0.690726,-0.170026,-0.196729,1.29673,-0.296218,-0.11245,0.555042
23,45,-0.0872665,-0.698132,-0.174533,-0.174533,-0.0980725,-0.690726,-0.170026,-0.196729,1.29673,-0.296218,-0.11245,0.555042
23,45,-0.0872665,-0.698132,-0.174533,-0.174533,-0.0980725,-0.690726,-0.170026,-0.196729,1.29673,-0.296218,-0.11245,0.555042
23,45,-0.0872665,-0.698132,-0.174533,-0.174533,-0.0980725,-0.690726,-0.170026,-0.196729,1.29673,-0.296218,-0.11245,0.555042
23,45,-0.0872665,-0.698132,-0.174533,-0.174533,-0.0980725,-0.690726,-0.170026,-0.196729,1.29673,-0.296218,-0.11245,0.555042
23,45,-0.0872665,-0.698132,-0.174533,-0.174533,-0.0980725,-0.690726,-0.170026,-0.196729,1.29673,-0.296218,-0.11245,0.555042
23,45,-0.0872665,-0.698132,-0.174533,-0.174533,-0.0980725,-0.690726,-0.170026,-0.196729,1.29673,-0.296218,-0.11245,0.555042
23,45,-0.0872665,-0.698132,-0.174533,-0.174533,-0.0980725,-0.690726,-0.170026,-0.196729,1.29673,-0.296218,-0.11245,0.555042
23,45,-0.0872665,-0.698132,-0.174533,-0.174533,-0.0980725,-0.690726,-0.170026,-0.196729,1.29673,-0.296218,-0.11245,0.555042
23,45,-0.0872665,-0.698132,-0.174533,-0.174533,-0.0980725,-0.690726,-0.170026,-0.196729,1.29673,-0.296218,-0.11245,0.555042
23,45,-0.0872665,-0.698132,-0.174533,-0.174533,-0.0980725,-0.690726,-0.170093,-0.196772,1.29673,-0.296218,-0.110813,0.556084
23,45,-0.0872665,-0.698132,-0.174533,-0.174533,-0.0980725,-0.690726,-0.170093,-0.196772,1.29673,-0.296218,-0.110813,0.556084
23,45,-0.0872665,-0.698132,-0.174533,-0.174533,-0.0980725,-0.690726,-0.170093,-0.196772,1.29673,-0.296218,-0.110813,0.556084
23,45,-0.0872665,-0.698132,-0.174533,-0.174533,-0.0980725,-0.690726,-0.170093,-0.196772,1.29673,-0.296218,-0.110813,0.556084
23,45,-0.0872665,-0.698132,-0.174533,-0.174533,-0.0980725,-0.690726,-0.170093,-0.196772,1.29673,-0.296218,-0.110813,0.556084
23,45,-0.0872665,-0.698132,-0.174533,-0.174533,-0.0980725,-0.690726,-0.170093,-0.196772,1.29673,-0.296218,-0.110813,0.556084
23,45,-0.0872665,-0.698132,-0.174533,-0.174533,-0.0980725,-0.690726,-0.170093,-0.196772,1.29673,-0.296218,-0.110813,0.556084
23,45,-0.0872665,-0.698132,-0.174533,-0.174533,-0.0980725,-0.690726,-0.170093,-0.196772,1.29673,-0.296218,-0.110813,0.556084
23,45,-0.0872665,-0.698132,-0.174533,-0.174533,-0.0980725,-0.690726,-0.170093,-0.196772,1.29673,-0.296218,-0.110813,0.556084
23,45,-0.0872665,-0.698132,-0.174533,-0.174533,-0.0980725,-0.690726,-0.170093,-0.196772,1.29673,-0.296218,-0.110813,0.556084
23,45,-0.0872665,-0.698132,-0.174533,-0.174533,-0.0980725,-0.690726,-0.170093,-0.196772,1.29673,-0.296218,-0.110813,0.556084
23,45,-0.0872665,-0.698132,-0.174533,-0.174533,-0.0980725,-0.690726,-0.170093,-0.196772,1.29673,-0.296218,-0.110813,0.556084
23,45,-0.0872665,-0.698132,-0.174533,-0.174533,-0.0980725,-0.690726,-0.170093,-0.196772,1.29673,-0.296218,-0.110813,0.556084
23,45,-0.0872665,-0.698132,-0.174533,-0.174533,-0.0980725,-0.690726,-0.170093,-0.196772,1.29673,-0.296218,-0.110813,0.556084
23,45,-0.0872665,-0.698132,-0.174533,-0.174533,-0.0980725,-0.690726,-0.170093,-0.196772,1.29673,-0.296218,-0.110813,0.556084
23,45,-0.0872665,-0.698132,-0.174533,-0.174533,-0.0980725,-0.690726,-0.170093,-0.196772,1.29673,-0.296218,-0.110813,0.556084
23,45,-0.0872665,-0.698132,-0.174533,-0.174533,-0.0980725,-0.690726,-0.170093,-0.196772,1.29673,-0.296218,-0.110813,0.556084
23,45,-0.0872665,-0.698132,-0.174533,-0.174533,-0.0980725,-0.690777,-0.170093,-0.196772,1.29673,-0.294184,-0.110813,0.556084
23,45,-0.0872665,-0.698132,-0.174533,-0.174533,-0.0980725,-0.690777,-0.17009,-0.196712,1.29673,-0.294184,-0.110896,0.554596
23,45,-0.0872665,-0.698132,-0.174533,-0.174533,-0.0980725,-0.690777,-0.17009,-0.196712,1.29673,-0.294184,-0.110896,0.554596
23,45,-0.0872665,-0.698132,-0.174533,-0.174533,-0.0980725,-0.690777,-0.17009,-0.196712,1.29673,-0.294184,-0.110896,0.554596
23,45,-0.0872665,-0.698132,-0.174533,-0.174533,-0.0980725,-0.690777,-0.17009,-0.196712,1.29673,-0.294184,-0.110896,0.554596
23,45,-0.0872665,-0.698132,-0.174533,-0.174533,-0.0980725,-0.690777,-0.17009,-0.196712,1.29673,-0.294184,-0.110896,0.554596
23,45,-0.0872665,-0.698132,-0.174533,-0.174533,-0.0980725,-0.690777,-0.17009,-0.196712,1.29673,-0.294184,-0.110896,0.554596
23,45,-0.0872665,-0.698132,-0.174533,-0.174533,-0.0980725,-0.690777,-0.17009,-0.196712,1.29673,-0.294184,-0.110896,0.554596
23,45,-0.0872665,-0.698132,-0.174533,-0.174533,-0.0980725,-0.690777,-0.17009,-0.196712,1.29673,-0.294184,-0.110896,0.554596
23,45,-0.0872665,-0.698132,-0.174533,-0.174533,-0.0980725,-0.690777,-0.17009,-0.196712,1.29673,-0.294184,-0.110896,0.554596
23,45,-0.0872665,-0.698132,-0.174533,-0.174533,-0.0980725,-0.690777,-0.17009,-0.196712,1.29673,-0.294184,-0.110896,0.554596
23,45,-0.0872665,-0.698132,-0.174533,-0.174533,-0.0980725,-0.690777,-0.17009,-0.196712,1.29673,-0.294184,-0.110896,0.554596
23,45,-0.0872665,-0.698132,-0.174533,-0.174533,-0.0980725,-0.690777,-0.17009,-0.196712,1.29673,-0.294184,-0.110896,0.554596
23,45,-0.0872665,-0.698132,-0.174533,-0.174533,-0.0980725,-0.690777,-0.17009,-0.196712,1.29673,-0.294184,-0.110901,0.554593
23,45,-0.0872665,-0.698132,-0.174533,-0.174533,-0.0980725,-0.690777,-0.17009,-0.196712,1.29673,-0.294184,-0.110906,0.554589
23,45,-0.0872665,-0.698132,-0.174533,-0.174533,-0.0980725,-0.690777,-0.17009,-0.196712,1.29673,-0.294184,-0.110912,0.554586
23,45,-0.0872665,-0.698132,-0.174533,-0.174533,-0.0980725,-0.690777,-0.17009,-0.196712,1.29673,-0.294184,-0.110917,0.554582
23,45,-0.0872665,-0.698132,-0.174533,-0.174533,-0.0980725,-0.690777,-0.17009,-0.196712,1.29673,-0.294184,-0.110922,0.554579
23,45,-0.0872665,-0.698132,-0.174533,-0.174533,-0.0980725,-0.690777,-0.17009,-0.196712,1.29673,-0.294184,-0.110926,0.554577
23,45,-0.0872665,-0.698132,-0.174533,-0.174533,-0.0980725,-0.690777,-0.17009,-0.196712,1.29673,-0.294184,-0.11093,0.554574
23,45,-0.0872665,-0.698132,-0.174533,-0.174533,-0.0980725,-0.690777,-0.17009,-0.196712,1.29673,-0.294184,-0.110934,0.554571
23,45,-0.0872665,-0.698132,-0.174533,-0.174533,-0.0980725,-0.690777,-0.17009,-0.196712,1.29673,-0.294184,-0.110938,0.554569
23,45,-0.0872665,-0.698132,-0.174533,-0.174533,-0.0980725,-0.690777,-0.17009,-0.196712,1.29673,-0.294184,-0.110942,0.554567
23,45,-0.0872665,-0.698132,-0.174533,-0.174533,-0.0980725,-0.690777,-0.17009,-0.196712,1.29673,-0.294184,-0.110945,0.554565
23,45,-0.0872665,-0.698132,-0.174533,-0.174533,-0.0980725,-0.690777,-0.17009,-0.196712,1.29673,-0.294184,-0.110948,0.554562
23,45,-0.0872665,-0.698132,-0.174533,-0.174533,-0.0980725,-0.690777,-0.170157,-0.196755,1.29673,-0.294184,-0.109321,0.555599
23,45,-0.0872665,-0.698132,-0.174533,-0.174533,-0.0980725,-0.690777,-0.170157,-0.196755,1.29673,-0.294184,-0.109321,0.555599
23,45,-0.0872665,-0.698132,-0.174533,-0.174533,-0.0980725,-0.690777,-0.170157,-0.196755,1.29673,-0.294184,-0.109321,0.555599
23,45,-0.0872665,-0.698132,-0.174533,-0.174533,-0.0980725,-0.690777,-0.170157,-0.196755,1.29673,-0.294184,-0.109321,0.555599
23,45,-0.0872665,-0.698132,-0.174533,-0.174533,-0.0980725,-0.690777,-0.170157,-0.196755,1.29673,-0.294184,-0.109321,0.555599
23,45,-0.0872665,-0.698132,-0.174533,-0.174533,-0.0980725,-0.690777,-0.170157,-0.196755,1.29673,-0.294184,-0.109321,0.555599
23,45,-0.0872665,-0.698132,-0.174533,-0.174533,-0.0980725,-0.690777,-0.170157,-0.196755,1.29673,-0.294184,-0.109321,0.555599
23,45,-0.0872665,-0.698132,-0.174533,-0.174533,-0.0980725,-0.690777,-0.170157,-0.196755,1.29673,-0.294184,-0.109321,0.555599
23,45,-0.0872665,-0.698132,-0.174533,-0.174533,-0.0980725,-0.690777,-0.170157,-0.196755,1.29673,-0.294184,-0.109321,0.555599
23,45,-0.0872665,-0.698132,-0.174533,-0.174533,-0.0980725,-0.690777,-0.170157,-0.196755,1.29673,-0.294184,-0.109321,0.555599
23,45,-0.0872665,-0.698132,-0.174533,-0.174533,-0.0980725,-0.690777,-0.170157,-0.196755,1.29673,-0.294184,-0.109321,0.555599
23,45,-0.0872665,-0.698132,-0.174533,-0.174533,-0.0980725,-0.690777,-0.170157,-0.196755,1.29673,-0.294184,-0.109321,0.555599
23,45,-0.0872665,-0.698132,-0.174533,-0.174533,-0.0980725,-0.690777,-0.170157,-0.196755,1.29673,-0.294184,-0.109321,0.555599
23,45,-0.0872665,-0.698132,-0.174533,-0.174533,-0.0980725,-0.690777,-0.170157,-0.196755,1.29673,-0.294184,-0.109321,0.555599
23,45,-0.0872665,-0.698132,-0.174533,-0.174533,-0.0980725,-0.690777,-0.170157,-0.196755,1.29673,-0.294184,-0.109321,0.555599
23,45,-0.0872665,-0.698132,-0.174533,-0.174533,-0.0980725,-0.690777,-0.170157,-0.196755,1.29673,-0.294184,-0.109321,0.555599
23,45,-0.0872665,-0.698132,-0.174533,-0.174533,-0.0980725,-0.690777,-0.170157,-0.196755,1.29673,-0.294184,-0.109321,0.555599
23,45,-0.0872665,-0.698132,-0.174533,-0.174533,-0.0980725,-0.690777,-0.170157,-0.196755,1.29673,-0.294184,-0.109321,0.555599
23,45,-0.0872665,-0.698132,-0.174533,-0.174533,-0.0980725,-0.690777,-0.170157,-0.196755,1.29673,-0.294184,-0.109321,0.555599
23,45,-0.0872665,-0.698132,-0.174533,-0.174533,-0.0980725,-0.690777,-0.170157,-0.196755,1.29673,-0.294184,-0.109321,0.555599
23,45,-0.0872665,-0.698132,-0.174533,-0.174533,-0.0980725,-0.690777,-0.170157,-0.196755,1.29673,-0.294184,-0.109321,0.555599
23,45,-0.0872665,-0.698132,-0.174533,-0.174533,-0.0980725,-0.690777,-0.170157,-0.196755,1.29673,-0.294184,-0.109321,0.555599
23,45,-0.0872665,-0.698132,-0.174533,-0.174533,-0.0980725,-0.690777,-0.170157,-0.196755,1.29673,-0.294184,-0.109321,0.555599
23,45,-0.0872665,-0.698132,-0.174533,-0.174533,-0.0980725,-0.690777,-0.170157,-0.196755,1.29673,-0.294184,-0.109321,0.555599
23,45,-0.0872665,-0.698132,-0.174533,-0.174533,-0.0980725,-0.690777,-0.170157,-0.196755,1.29673,-0.294184,-0.109321,0.555599
23,45,-0.0872665,-0.698132,-0.174533,-0.174533,-0.0980725,-0.690777,-0.170157,-0.196755,1.29673,-0.294184,-0.109321,0.555599
23,45,-0.0872665,-0.698132,-0.174533,-0.174533,-0.0980725,-0.690777,-0.170157,-0.196755,1.29673,-0.294184,-0.109321,0.555599
23,45,-0.0872665,-0.698132,-0.174533,-0.174533,-0.0980725,-0.690777,-0.170157,-0.196755,1.29673,-0.294184,-0.109321,0.555599
23,45,-0.0872665,-0.698132,-0.174533,-0.174533,-0.0980725,-0.690777,-0.170157,-0.196755,1.29673,-0.294184,-0.109321,0.555599
23,45,-0.0872665,-0.698132,-0.174533,-0.174533,-0.0980725,-0.690777,-0.170157,-0.196755,1.29673,-0.294184,-0.109321,0.555599
23,45,-0.0872665,-0.698132,-0.174533,-0.174533,-0.0980725,-0.690777,-0.170157,-0.196755,1.29673,-0.294184,-0.109321,0.555599
23,45,-0.0872665,-0.698132,-0.174533,-0.174533,-0.0980725,-0.690777,-0.170157,-0.196755,1.29673,-0.294184,-0.109321,0.555599
23,45,-0.0872665,-0.698132,-0.174533,-0.174533,-0.0980725,-0.690777,-0.170157,-0.196755,1.29673,-0.294184,-0.109321,0.555599
23,45,-0.0872665,-0.698132,-0.174533,-0.174533,-0.0980725,-0.690777,-0.170157,-0.196755,1.29673,-0.294184,-0.109321,0.555599
23,45,-0.0872665,-0.698132,-0.174533,-0.174533,-0.0980725,-0.690777,-0.170157,-0.196755,1.29673,-0.294184,-0.109321,0.555599
23,45,-0.0872665,-0.698132,-0.174533,-0.174533,-0.0980725,-0.690777,-0.170157,-0.196755,1.29673,-0.294184,-0.109321,0.555599
23,45,-0.0872665,-0.698132,-0.174533,-0.174533,-0.0980725,-0.690777,-0.170157,-0.196755,1.29673,-0.294184,-0.109321,0.555599
23,45,-0.0872665,-0.698132,-0.174533,-0.174533,-0.0980725,-0.690777,-0.170157,-0.196755,1.29673,-0.294184,-0.109321,0.555599
23,45,-0.0872665,-0.698132,-0.174533,-0.174533,-0.0980725,-0.690777,-0.170157,-0.196755,1.29673,-0.294184,-0.109321,0.555599
23,45,-0.0872665,-0.698132,-0.174533,-0.174533,-0.0980725,-0.690777,-0.170157,-0.196755,1.29673,-0.294184,-0.109321,0.555599
23,45,-0.0872665,-0.698132,-0.174533,-0.174533,-0.0980725,-0.690777,-0.170224,-0.196798,1.29673,-0.294184,-0.107726,0.556615
23,45,-0.0872665,-0.698132,-0.174533,-0.174533,-0.0980725,-0.690777,-0.170224,-0.196798,1.29673,-0.294184,-0.107726,0.556615
23,45,-0.0872665,-0.698132,-0.174533,-0.174533,-0.0980725,-0.690777,-0.170224,-0.196798,1.29673,-0.294184,-0.107726,0.556615
23,45,-0.0872665,-0.698132,-0.174533,-0.174533,-0.0980725,-0.690777,-0.170224,-0.196798,1.29673,-0.294184,-0.107726,0.556615
23,45,-0.0872665,-0.698132,-0.174533,-0.174533,-0.0980725,-0.690777,-0.170224,-0.196798,1.29673,-0.294184,-0.107726,0.556615
23,45,-0.0872665,-0.698132,-0.174533,-0.174533,-0.0980725,-0.690777,-0.170224,-0.196798,1.29673,-0.294184,-0.107726,0.556615
23,45,-0.0872665,-0.698132,-0.174533,-0.174533,-0.0980725,-0.690777,-0.170224,-0.196798,1.29673,-0.294184,-0.107726,0.556615
23,45,-0.0872665,-0.698132,-0.174533,-0.174533,-0.0980725,-0.690777,-0.170224,-0.196798,1.29673,-0.294184,-0.107726,0.556615
23,45,-0.0872665,-0.698132,-0.174533,-0.174533,-0.0980725,-0.690777,-0.170224,-0.196798,1.29673,-0.294184,-0.107726,0.556615
23,45,-0.0872665,-0.698132,-0.174533,-0.174533,-0.0980725,-0.690777,-0.170224,-0.196798,1.29673,-0.294184,-0.107726,0.556615
23,45,-0.0872665,-0.698132,-0.174533,-0.174533,-0.0980725,-0.690777,-0.170224,-0.196798,1.29673,-0.294184,-0.107726,0.556615
23,45,-0.0872665,-0.698132,-0.174533,-0.174533,-0.0980725,-0.690777,-0.170224,-0.196798,1.29673,-0.294184,-0.107726,0.556615
23,45,-0.0872665,-0.698132,-0.174533,-0.174533,-0.0980725,-0.690777,-0.170224,-0.196798,1.29673,-0.294184,-0.107726,0.556615
23,45,-0.0872665,-0.698132,-0.174533,-0.174533,-0.0980725,-0.690777,-0.170224,-0.196798,1.29673,-0.294184,-0.107726,0.556615
23,45,-0.0872665,-0.698132,-0.174533,-0.174533,-0.0980725,-0.690777,-0.170224,-0.196798,1.29673,-0.294184,-0.107726,0.556615
23,45,-0.0872665,-0.698132,-0.174533,-0.174533,-0.0980725,-0.690777,-0.170224,-0.196798,1.29673,-0.294184,-0.107726,0.556615
23,45,-0.0872665,-0.698132,-0.174533,-0.174533,-0.0980725,-0.690777,-0.170224,-0.196798,1.29673,-0.294184,-0.107726,0.556615
23,45,-0.0872665,-0.698132,-0.174533,-0.174533,-0.0980725,-0.690777,-0.170224,-0.196798,1.29673,-0.294184,-0.107726,0.556615
23,45,-0.0872665,-0.698132,-0.174533,-0.174533,-0.0980725,-0.690777,-0.170224,-0.196798,1.29673,-0.294184,-0.107726,0.556615
23,45,-0.0872665,-0.698132,-0.174533,-0.174533,-0.0980725,-0.690777,-0.170224,-0.196798,1.29673,-0.294184,-0.107726,0.556615
23,45,-0.0872665,-0.698132,-0.174533,-0.174533,-0.0980725,-0.690777,-0.170224,-0.196798,1.29673,-0.294184,-0.107726,0.556615
23,45,-0.0872665,-0.698132,-0.174533,-0.174533,-0.0980725,-0.690777,-0.170224,-0.196798,1.29673,-0.294184,-0.107726,0.556615
23,45,-0.0872665,-0.698132,-0.174533,-0.174533,-0.0980725,-0.690777,-0.170224,-0.196798,1.29673,-0.294184,-0.107726,0.556615
23,45,-0.0872665,-0.698132,-0.174533,-0.174533,-0.0980725,-0.690777,-0.170224,-0.196798,1.29673,-0.294184,-0.107726,0.556615
23,45,-0.0872665,-0.698132,-0.174533,-0.174533,-0.0980725,-0.690777,-0.170224,-0.196798,1.29673,-0.294184,-0.107726,0.556615
23,45,-0.0872665,-0.698132,-0.174533,-0.174533,-0.0980725,-0.690777,-0.170224,-0.196798,1.29673,-0.294184,-0.107726,0.556615
23,45,-0.0872665,-0.698132,-0.174533,-0.174533,-0.0980725,-0.690777,-0.170224,-0.196798,1.29673,-0.294184,-0.107726,0.556615
23,45,-0.0872665,-0.698132,-0.174533,-0.174533,-0.0980725,-0.690777,-0.170224,-0.196798,1.29673,-0.294184,-0.107726,0.556615
23,45,-0.0872665,-0.698132,-0.174533,-0.174533,-0.0980725,-0.690777,-0.170224,-0.196798,1.29673,-0.294184,-0.107726,0.556615
23,45,-0.0872665,-0.698132,-0.174533,-0.174533,-0.0980725,-0.690777,-0.170224,-0.196798,1.29673,-0.294184,-0.107726,0.556615
23,45,-0.0872665,-0.698132,-0.174533,-0.174533,-0.0980725,-0.690777,-0.170224,-0.196798,1.29673,-0.294184,-0.107726,0.556615
23,45,-0.0872665,-0.698132,-0.174533,-0.174533,-0.0980725,-0.690777,-0.170224,-0.196798,1.29673,-0.294184,-0.107726,0.556615
23,45,-0.0872665,-0.698132,-0.174533,-0.174533,-0.0980725,-0.690777,-0.170224,-0.196798,1.29673,-0.294184,-0.107726,0.556615
23,45,-0.0872665,-0.698132,-0.174533,-0.174533,-0.0980725,-0.690777,-0.170224,-0.196798,1.29673,-0.294184,-0.107726,0.556615
23,45,-0.0872665,-0.698132,-0.174533,-0.174533,-0.0980725,-0.690777,-0.170224,-0.196798,1.29673,-0.294184,-0.107726,0.556615
23,45,-0.0872665,-0.698132,-0.174533,-0.174533,-0.0980725,-0.690777,-0.170224,-0.196798,1.29673,-0.294184,-0.107726,0.556615
23,45,-0.0872665,-0.698132,-0.174533,-0.174533,-0.0980725,-0.690777,-0.170224,-0.196798,1.29673,-0.294184,-0.107726,0.556615
23,45,-0.0872665,-0.698132,-0.174533,-0.174533,-0.0980725,-0.690777,-0.170224,-0.196798,1.29673,-0.294184,-0.107726,0.556615
23,45,-0.0872665,-0.698132,-0.174533,-0.174533,-0.0980725,-0.690777,-0.170224,-0.196798,1.29673,-0.294184,-0.107726,0.556615
23,45,-0.0872665,-0.698132,-0.174533,-0.174533,-0.0980725,-0.690777,-0.170224,-0.196798,1.29673,-0.294184,-0.107726,0.556615
23,45,-0.0872665,-0.698132,-0.174533,-0.174533,-0.0980725,-0.690777,-0.170224,-0.196798,1.29673,-0.294184,-0.107726,0.556615
23,45,-0.0872665,-0.698132,-0.174533,-0.174533,-0.0980725,-0.690777,-0.170221,-0.196738,1.29673,-0.294184,-0.107809,0.555126
23,45,-0.0872665,-0.698132,-0.174533,-0.174533,-0.0980725,-0.690777,-0.170221,-0.196738,1.29673,-0.294184,-0.107809,0.555126
23,45,-0.0872665,-0.698132,-0.174533,-0.174533,-0.0980725,-0.690777,-0.170221,-0.196738,1.29673,-0.294184,-0.107809,0.555126
23,45,-0.0872665,-0.698132,-0.174533,-0.174533,-0.0980725,-0.690777,-0.170221,-0.196738,1.29673,-0.294184,-0.107809,0.555126
23,45,-0.0872665,-0.698132,-0.174533,-0.174533,-0.0980725,-0.690777,-0.170221,-0.196738,1.29673,-0.294184,-0.107809,0.555126
23,45,-0.0872665,-0.698132,-0.174533,-0.174533,-0.0980725,-0.690777,-0.170221,-0.196738,1.29673,-0.294184,-0.107809,0.555126
23,45,-0.0872665,-0.698132,-0.174533,-0.174533,-0.0980725,-0.690777,-0.170221,-0.196738,1.29673,-0.294184,-0.107809,0.555126
23,45,-0.0872665,-0.698132,-0.174533,-0.174533,-0.0980725,-0.690777,-0.170221,-0.196738,1.29673,-0.294184,-0.107809,0.555126
23,45,-0.0872665,-0.698132,-0.174533,-0.174533,-0.0980725,-0.690777,-0.170221,-0.196738,1.29673,-0.294184,-0.107809,0.555126
23,45,-0.0872665,-0.698132,-0.174533,-0.174533,-0.0980725,-0.690777,-0.170221,-0.196738,1.29673,-0.294184,-0.107809,0.555126
23,45,-0.0872665,-0.698132,-0.174533,-0.174533,-0.0980725,-0.690777,-0.170221,-0.196738,1.29673,-0.294184,-0.107809,0.555126
23,45,-0.0872665,-0.698132,-0.174533,-0.174533,-0.0980725,-0.690777,-0.170221,-0.196738,1.29673,-0.294184,-0.107809,0.555126
23,45,-0.0872665,-0.698132,-0.174533,-0.174533,-0.0980725,-0.690777,-0.170221,-0.196738,1.29673,-0.294184,-0.107809,0.555126
23,45,-0.0872665,-0.698132,-0.174533,-0.174533,-0.0980725,-0.690777,-0.170288,-0.196781,1.29673,-0.294184,-0.106132,0.556194
23,45,-0.0872665,-0.698132,-0.174533,-0.174533,-0.0980725,-0.690777,-0.170288,-0.196781,1.29673,-0.294184,-0.106132,0.556194
23,45,-0.0872665,-0.698132,-0.174533,-0.174533,-0.0980725,-0.690777,-0.170288,-0.196781,1.29673,-0.294184,-0.106132,0.556194
23,45,-0.0872665,-0.698132,-0.174533,-0.174533,-0.0980725,-0.690777,-0.170288,-0.196781,1.29673,-0.294184,-0.106132,0.556194
23,45,-0.0872665,-0.698132,-0.174533,-0.174533,-0.0980725,-0.690777,-0.170288,-0.196781,1.29673,-0.294184,-0.106132,0.556194
23,45,-0.0872665,-0.698132,-0.174533,-0.174533,-0.0980725,-0.690777,-0.170288,-0.196781,1.29673,-0.294184,-0.106132,0.556194
23,45,-0.0872665,-0.698132,-0.174533,-0.174533,-0.0980725,-0.690777,-0.170288,-0.196781,1.29673,-0.294184,-0.106132,0.556194
23,45,-0.0872665,-0.698132,-0.174533,-0.174533,-0.0980725,-0.690777,-0.170288,-0.196781,1.29673,-0.294184,-0.106132,0.556194
23,45,-0.0872665,-0.698132,-0.174533,-0.174533,-0.0980725,-0.690777,-0.170288,-0.196781,1.29673,-0.294184,-0.106132,0.556194
23,45,-0.0872665,-0.698132,-0.174533,-0.174533,-0.0980725,-0.690777,-0.170288,-0.196781,1.29673,-0.294184,-0.106132,0.556194
23,45,-0.0872665,-0.698132,-0.174533,-0.174533,-0.0980725,-0.690777,-0.170288,-0.196781,1.29673,-0.294184,-0.106132,0.556194
23,45,-0.0872665,-0.698132,-0.174533,-0.174533,-0.0980725,-0.690777,-0.170288,-0.196781,1.29673,-0.294184,-0.106132,0.556194
23,45,-0.0872665,-0.698132,-0.174533,-0.174533,-0.0980725,-0.690777,-0.170288,-0.196781,1.29673,-0.294184,-0.106132,0.556194
23,45,-0.0872665,-0.698132,-0.174533,-0.174533,-0.0980725,-0.690777,-0.170288,-0.196781,1.29673,-0.294184,-0.106132,0.556194
23,45,-0.0872665,-0.698132,-0.174533,-0.174533,-0.0980725,-0.690777,-0.170288,-0.196781,1.29673,-0.294184,-0.106132,0.556194
23,45,-0.0872665,-0.698132,-0.174533,-0.174533,-0.0980725,-0.690777,-0.170288,-0.196781,1.29673,-0.294184,-0.106132,0.556194
23,45,-0.0872665,-0.698132,-0.174533,-0.174533,-0.0980725,-0.690777,-0.170288,-0.196781,1.29673,-0.294184,-0.106132,0.556194
23,45,-0.0872665,-0.698132,-0.174533,-0.174533,-0.0980725,-0.690777,-0.170288,-0.196781,1.29673,-0.294184,-0.106132,0.556194
23,45,-0.0872665,-0.698132,-0.174533,-0.174533,-0.0980725,-0.690777,-0.170288,-0.196781,1.29673,-0.294184,-0.106132,0.556194
23,45,-0.0872665,-0.698132,-0.174533,-0.174533,-0.0980725,-0.690777,-0.170288,-0.196781,1.29673,-0.294184,-0.106132,0.556194
23,45,-0.0872665,-0.698132,-0.174533,-0.174533,-0.0980725,-0.690777,-0.170288,-0.196781,1.29673,-0.294184,-0.106132,0.556194
23,45,-0.0872665,-0.698132,-0.174533,-0.174533,-0.0980725,-0.690777,-0.170288,-0.196781,1.29673,-0.294184,-0.106132,0.556194
23,45,-0.0872665,-0.698132,-0.174533,-0.174533,-0.0980725,-0.690777,-0.170288,-0.196781,1.29673,-0.294184,-0.106132,0.556194
23,45,-0.0872665,-0.698132,-0.174533,-0.174533,-0.0980725,-0.690777,-0.170288,-0.196781,1.29673,-0.294184,-0.106132,0.556194
23,45,-0.0872665,-0.698132,-0.174533,-0.174533,-0.0980725,-0.690777,-0.170288,-0.196781,1.29673,-0.294184,-0.106132,0.556194
23,45,-0.0872665,-0.698132,-0.174533,-0.174533,-0.0980725,-0.690777,-0.170288,-0.196781,1.29673,-0.294184,-0.106132,0.556194
23,45,-0.0872665,-0.698132,-0.174533,-0.174533,-0.0980725,-0.690777,-0.170288,-0.196781,1.29673,-0.294184,-0.106132,0.556194
23,45,-0.0872665,-0.698132,-0.174533,-0.174533,-0.0980725,-0.690777,-0.170288,-0.196781,1.29673,-0.294184,-0.106132,0.556194
23,45,-0.0872665,-0.698132,-0.174533,-0.174533,-0.0980725,-0.690777,-0.170288,-0.196781,1.29673,-0.294184,-0.106132,0.556194
23,45,-0.0872665,-0.698132,-0.174533,-0.174533,-0.0980725,-0.690777,-0.170288,-0.196781,1.29673,-0.294184,-0.106132,0.556194
23,45,-0.0872665,-0.698132,-0.174533,-0.174533,-0.0980725,-0.690777,-0.170288,-0.196781,1.29673,-0.294184,-0.106132,0.556194
23,45,-0.0872665,-0.698132,-0.174533,-0.174533,-0.0980725,-0.690777,-0.170288,-0.196781,1.29673,-0.294184,-0.106132,0.556194
23,45,-0.0872665,-0.698132,-0.174533,-0.174533,-0.0980725,-0.690777,-0.170288,-0.196781,1.29673,-0.294184,-0.106132,0.556194
23,45,-0.0872665,-0.698132,-0.174533,-0.174533,-0.0980725,-0.690777,-0.170288,-0.196781,1.29673,-0.294184,-0.106132,0.556194
23,45,-0.0872665,-0.698132,-0.174533,-0.174533,-0.0980725,-0.690777,-0.170288,-0.196781,1.29673,-0.294184,-0.106132,0.556194
23,45,-0.0872665,-0.698132,-0.174533,-0.174533,-0.0980725,-0.690777,-0.170288,-0.196781,1.29673,-0.294184,-0.106132,0.556194
23,45,-0.0872665,-0.698132,-0.174533,-0.174533,-0.0980725,-0.690777,-0.170288,-0.196781,1.29673,-0.294184,-0.106132,0.556194
23,45,-0.0872665,-0.698132,-0.174533,-0.174533,-0.0980725,-0.690777,-0.170288,-0.196781,1.29673,-0.294184,-0.106132,0.556194
23,45,-0.0872665,-0.698132,-0.174533,-0.174533,-0.0980725,-0.690777,-0.170288,-0.196781,1.29673,-0.294184,-0.106132,0.556194
23,45,-0.0872665,-0.698132,-0.174533,-0.174533,-0.0980725,-0.690777,-0.170288,-0.196781,1.29673,-0.294184,-0.106132,0.556194
23,45,-0.0872665,-0.698132,-0.174533,-0.174533,-0.0980725,-0.690777,-0.170288,-0.196781,1.29673,-0.294184,-0.106132,0.556194
23,45,-0.0872665,-0.698132,-0.174533,-0.174533,-0.0980725,-0.690777,-0.170288,-0.196781,1.29673,-0.294184,-0.106132,0.556194
23,45,-0.0872665,-0.698132,-0.174533,-0.174533,-0.0980725,-0.690777,-0.170288,-0.196781,1.29673,-0.294184,-0.106132,0.556194
23,45,-0.0872665,-0.698132,-0.174533,-0.174533,-0.0980725,-0.690777,-0.170288,-0.196781,1.29673,-0.294184,-0.106132,0.556194
23,45,-0.0872665,-0.698132,-0.174533,-0.174533,-0.0980725,-0.690777,-0.170288,-0.196781,1.29673,-0.294184,-0.106132,0.556194
23,45,-0.0872665,-0.698132,-0.174533,-0.174533,-0.0980725,-0.690777,-0.170288,-0.196781,1.29673,-0.294184,-0.106132,0.556194
23,45,-0.0872665,-0.698132,-0.174533,-0.174533,-0.0980725,-0.690777,-0.170288,-0.196781,1.29673,-0.294184,-0.106132,0.556194
23,45,-0.0872665,-0.698132,-0.174533,-0.174533,-0.0980725,-0.690777,-0.170288,-0.196781,1.29673,-0.294184,-0.106132,0.556194
23,45,-0.0872665,-0.698132,-0.174533,-0.174533,-0.0980725,-0.690777,-0.170288,-0.196781,1.29673,-0.294184,-0.106132,0.556194
23,45,-0.0872665,-0.698132,-0.174533,-0.174533,-0.0980725,-0.690777,-0.170288,-0.196781,1.29673,-0.294184,-0.106132,0.556194
23,45,-0.0872665,-0.698132,-0.174533,-0.174533,-0.0980725,-0.690777,-0.170288,-0.196781,1.29673,-0.294184,-0.106132,0.556194
23,45,-0.0872665,-0.698132,-0.174533,-0.174533,-0.0980725,-0.690777,-0.170288,-0.196781,1.29673,-0.294184,-0.106132,0.556194
23,45,-0.0872665,-0.698132,-0.174533,-0.174533,-0.0980725,-0.690777,-0.170288,-0.196781,1.29673,-0.294184,-0.106132,0.556194
23,45,-0.0872665,-0.698132,-0.174533,-0.174533,-0.0980725,-0.690777,-0.170288,-0.196781,1.29673,-0.294184,-0.106132,0.556194
23,45,-0.0872665,-0.698132,-0.174533,-0.174533,-0.0980725,-0.690777,-0.170288,-0.196781,1.29673,-0.294184,-0.106132,0.556194
23,45,-0.0872665,-0.698132,-0.174533,-0.174533,-0.0980725,-0.690777,-0.170288,-0.196781,1.29673,-0.294184,-0.106132,0.556194
23,45,-0.0872665,-0.698132,-0.174533,-0.174533,-0.0980725,-0.690777,-0.170288,-0.196781,1.29673,-0.294184,-0.106132,0.556194
23,45,-0.0872665,-0.698132,-0.174533,-0.174533,-0.0980725,-0.690777,-0.170288,-0.196781,1.29673,-0.294184,-0.106132,0.556194
23,45,-0.0872665,-0.698132,-0.174533,-0.174533,-0.0980725,-0.690777,-0.170288,-0.196781,1.29673,-0.294184,-0.106132,0.556194
23,45,-0.0872665,-0.698132,-0.174533,-0.174533,-0.0980725,-0.690777,-0.170288,-0.196781,1.29673,-0.294184,-0.106132,0.556194
23,45,-0.0872665,-0.698132,-0.174533,-0.174533,-0.0980725,-0.690777,-0.170288,-0.196781,1.29673,-0.294184,-0.106132,0.556194
23,45,-0.0872665,-0.698132,-0.174533,-0.174533,-0.0980725,-0.690777,-0.170288,-0.196781,1.29673,-0.294184,-0.106132,0.556194
23,45,-0.0872665,-0.698132,-0.174533,-0.174533,-0.0980725,-0.690777,-0.170288,-0.196781,1.29673,-0.294184,-0.106132,0.556194
23,45,-0.0872665,-0.698132,-0.174533,-0.174533,-0.0980725,-0.690777,-0.170288,-0.196781,1.29673,-0.294184,-0.106132,0.556194
23,45,-0.0872665,-0.698132,-0.174533,-0.174533,-0.0980725,-0.690777,-0.170288,-0.196781,1.29673,-0.294184,-0.106132,0.556194
23,45,-0.0872665,-0.698132,-0.174533,-0.174533,-0.0980725,-0.690777,-0.170288,-0.196781,1.29673,-0.294184,-0.106132,0.556194
23,45,-0.0872665,-0.698132,-0.174533,-0.174533,-0.0980725,-0.690777,-0.170288,-0.196781,1.29673,-0.294184,-0.106132,0.556194
23,45,-0.0872665,-0.698132,-0.174533,-0.174533,-0.0980725,-0.690777,-0.170288,-0.196781,1.29673,-0.294184,-0.106132,0.556194
23,45,-0.0872665,-0.698132,-0.174533,-0.174533,-0.0980725,-0.690777,-0.170288,-0.196781,1.29673,-0.294184,-0.106132,0.556194
23,45,-0.0872665,-0.698132,-0.174533,-0.174533,-0.0980725,-0.690777,-0.170288,-0.196781,1.29673,-0.294184,-0.106132,0.556194
23,45,-0.0872665,-0.698132,-0.174533,-0.174533,-0.0980725,-0.690777,-0.170288,-0.196781,1.29673,-0.294184,-0.106132,0.556194
23,45,-0.0872665,-0.698132,-0.174533,-0.174533,-0.0980725,-0.690777,-0.170288,-0.196781,1.29673,-0.294184,-0.106132,0.556194
23,45,-0.0872665,-0.698132,-0.174533,-0.174533,-0.0980725,-0.690777,-0.170288,-0.196781,1.29673,-0.294184,-0.106132,0.556194
23,45,-0.0872665,-0.698132,-0.174533,-0.174533,-0.0980725,-0.690777,-0.170288,-0.196781,1.29673,-0.294184,-0.106132,0.556194
23,45,-0.0872665,-0.698132,-0.174533,-0.174533,-0.0980725,-0.690777,-0.170288,-0.196781,1.29673,-0.294184,-0.106132,0.556194
23,45,-0.0872665,-0.698132,-0.174533,-0.174533,-0.0980725,-0.690777,-0.170288,-0.196781,1.29673,-0.294184,-0.106132,0.556194
23,45,-0.0872665,-0.698132,-0.174533,-0.174533,-0.0980725,-0.690777,-0.170288,-0.196781,1.29673,-0.294184,-0.106132,0.556194
23,45,-0.0872665,-0.698132,-0.174533,-0.174533,-0.0980725,-0.690777,-0.170288,-0.196781,1.29673,-0.294184,-0.106132,0.556194
23,45,-0.0872665,-0.698132,-0.174533,-0.174533,-0.0980725,-0.690777,-0.170288,-0.196781,1.29673,-0.294184,-0.106132,0.556194
23,45,-0.0872665,-0.698132,-0.174533,-0.174533,-0.0980725,-0.690777,-0.170288,-0.196781,1.29673,-0.294184,-0.106132,0.556194
23,45,-0.0872665,-0.698132,-0.174533,-0.174533,-0.0980725,-0.690777,-0.170288,-0.196781,1.29673,-0.294184,-0.106132,0.556194
23,45,-0.0872665,-0.698132,-0.174533,-0.174533,-0.0980725,-0.690777,-0.170288,-0.196781,1.29673,-0.294184,-0.106132,0.556194
23,45,-0.0872665,-0.698132,-0.174533,-0.174533,-0.0980725,-0.690777,-0.170288,-0.196781,1.29673,-0.294184,-0.106132,0.556194
23,45,-0.0872665,-0.698132,-0.174533,-0.174533,-0.0980725,-0.690777,-0.170288,-0.196781,1.29673,-0.294184,-0.106132,0.556194
23,45,-0.0872665,-0.698132,-0.174533,-0.174533,-0.0980725,-0.690777,-0.170288,-0.196781,1.29673,-0.294184,-0.106132,0.556194
23,45,-0.0872665,-0.698132,-0.174533,-0.174533,-0.0980725,-0.690777,-0.170288,-0.196781,1.29673,-0.294184,-0.106132,0.556194
23,45,-0.0872665,-0.698132,-0.174533,-0.174533,-0.0980725,-0.690777,-0.170288,-0.196781,1.29673,-0.294184,-0.106132,0.556194
23,45,-0.0872665,-0.698132,-0.174533,-0.174533,-0.0980725,-0.690777,-0.170288,-0.196781,1.29673,-0.294184,-0.106132,0.556194
23,45,-0.0872665,-0.698132,-0.174533,-0.174533,-0.0980725,-0.690777,-0.170288,-0.196781,1.29673,-0.294184,-0.106132,0.556194
23,45,-0.0872665,-0.698132,-0.174533,-0.174533,-0.0980725,-0.690777,-0.170288,-0.196781,1.29673,-0.294184,-0.106132,0.556194
23,45,-0.0872665,-0.698132,-0.174533,-0.174533,-0.0980725,-0.690777,-0.170288,-0.196781,1.29673,-0.294184,-0.106132,0.556194
23,45,-0.0872665,-0.698132,-0.174533,-0.174533,-0.0980725,-0.690777,-0.170288,-0.196781,1.29673,-0.294184,-0.106132,0.556194
23,45,-0.0872665,-0.698132,-0.174533,-0.174533,-0.0980725,-0.690777,-0.170288,-0.196781,1.29673,-0.294184,-0.106132,0.556194
23,45,-0.0872665,-0.698132,-0.174533,-0.174533,-0.0980725,-0.690777,-0.170288,-0.196781,1.29673,-0.294184,-0.106132,0.556194
23,45,-0.0872665,-0.698132,-0.174533,-0.174533,-0.0980725,-0.690777,-0.170288,-0.196781,1.29673,-0.294184,-0.106132,0.556194
23,45,-0.0872665,-0.698132,-0.174533,-0.174533,-0.0980725,-0.690828,-0.170288,-0.196781,1.29673,-0.29215,-0.106132,0.556194
23,45,-0.0872665,-0.698132,-0.174533,-0.174533,-0.0980725,-0.690828,-0.170288,-0.196781,1.29673,-0.29215,-0.106132,0.556194
23,45,-0.0872665,-0.698132,-0.174533,-0.174533,-0.0980725,-0.690828,-0.170288,-0.196781,1.29673,-0.29215,-0.106132,0.556194
23,45,-0.0872665,-0.698132,-0.174533,-0.174533,-0.0980725,-0.690828,-0.170288,-0.196781,1.29673,-0.29215,-0.106132,0.556194
23,45,-0.0872665,-0.698132,-0.174533,-0.174533,-0.0980725,-0.690828,-0.170288,-0.196781,1.29673,-0.29215,-0.106132,0.556194
23,45,-0.0872665,-0.698132,-0.174533,-0.174533,-0.0980725,-0.690828,-0.170288,-0.196781,1.29673,-0.29215,-0.106132,0.556194
23,45,-0.0872665,-0.698132,-0.174533,-0.174533,-0.0980725,-0.690828,-0.170288,-0.196781,1.29673,-0.29215,-0.106132,0.556194
23,45,-0.0872665,-0.698132,-0.174533,-0.174533,-0.0980725,-0.690828,-0.170284,-0.196721,1.29673,-0.29215,-0.106215,0.554705
23,45,-0.0872665,-0.698132,-0.174533,-0.174533,-0.0980725,-0.690828,-0.170284,-0.196721,1.29673,-0.29215,-0.106215,0.554705
23,45,-0.0872665,-0.698132,-0.174533,-0.174533,-0.0980725,-0.690828,-0.170351,-0.196764,1.29673,-0.29215,-0.104539,0.555773
23,45,-0.0872665,-0.698132,-0.174533,-0.174533,-0.0980725,-0.690828,-0.170351,-0.196764,1.29673,-0.29215,-0.104539,0.555773
23,45,-0.0872665,-0.698132,-0.174533,-0.174533,-0.0980725,-0.690828,-0.170351,-0.196764,1.29673,-0.29215,-0.104539,0.555773
23,45,-0.0872665,-0.698132,-0.174533,-0.174533,-0.0980725,-0.690828,-0.170351,-0.196764,1.29673,-0.29215,-0.104539,0.555773
23,45,-0.0872665,-0.698132,-0.174533,-0.174533,-0.0980725,-0.690828,-0.170351,-0.196764,1.29673,-0.29215,-0.104539,0.555773
23,45,-0.0872665,-0.698132,-0.174533,-0.174533,-0.0980725,-0.690828,-0.170351,-0.196764,1.29673,-0.29215,-0.104539,0.555773
23,45,-0.0872665,-0.698132,-0.174533,-0.174533,-0.0980725,-0.690828,-0.170351,-0.196764,1.29673,-0.29215,-0.104539,0.555773
23,45,-0.0872665,-0.698132,-0.174533,-0.174533,-0.0980725,-0.690828,-0.170351,-0.196764,1.29673,-0.29215,-0.104539,0.555773
23,45,-0.0872665,-0.698132,-0.174533,-0.174533,-0.0980725,-0.690828,-0.170351,-0.196764,1.29673,-0.29215,-0.104539,0.555773
23,45,-0.0872665,-0.698132,-0.174533,-0.174533,-0.0980725,-0.690828,-0.170351,-0.196764,1.29673,-0.29215,-0.104539,0.555773
23,45,-0.0872665,-0.698132,-0.174533,-0.174533,-0.0980725,-0.690828,-0.170351,-0.196764,1.29673,-0.29215,-0.104539,0.555773
23,45,-0.0872665,-0.698132,-0.174533,-0.174533,-0.0980725,-0.690828,-0.170351,-0.196764,1.29673,-0.29215,-0.104539,0.555773
23,45,-0.0872665,-0.698132,-0.174533,-0.174533,-0.0980725,-0.690828,-0.170351,-0.196764,1.29673,-0.29215,-0.104539,0.555773
23,45,-0.0872665,-0.698132,-0.174533,-0.174533,-0.0980725,-0.690828,-0.170351,-0.196764,1.29673,-0.29215,-0.104539,0.555773
23,45,-0.0872665,-0.698132,-0.174533,-0.174533,-0.0980725,-0.690828,-0.170351,-0.196764,1.29673,-0.29215,-0.104539,0.555773
23,45,-0.0872665,-0.698132,-0.174533,-0.174533,-0.0980725,-0.690828,-0.170351,-0.196764,1.29673,-0.29215,-0.104539,0.555773
23,45,-0.0872665,-0.698132,-0.174533,-0.174533,-0.0980725,-0.690828,-0.170351,-0.196764,1.29673,-0.29215,-0.104539,0.555773
23,45,-0.0872665,-0.698132,-0.174533,-0.174533,-0.0980725,-0.690828,-0.170351,-0.196764,1.29673,-0.29215,-0.104539,0.555773
23,45,-0.0872665,-0.698132,-0.174533,-0.174533,-0.0980725,-0.690828,-0.170351,-0.196764,1.29673,-0.29215,-0.104539,0.555773
23,45,-0.0872665,-0.698132,-0.174533,-0.174533,-0.0980725,-0.690828,-0.170351,-0.196764,1.29673,-0.29215,-0.104539,0.555773
23,45,-0.0872665,-0.698132,-0.174533,-0.174533,-0.0980725,-0.690828,-0.170351,-0.196764,1.29673,-0.29215,-0.104539,0.555773
23,45,-0.0872665,-0.698132,-0.174533,-0.174533,-0.0980725,-0.690828,-0.170351,-0.196764,1.29673,-0.29215,-0.104539,0.555773
23,45,-0.0872665,-0.698132,-0.174533,-0.174533,-0.0980725,-0.690828,-0.170351,-0.196764,1.29673,-0.29215,-0.104539,0.555773
23,45,-0.0872665,-0.698132,-0.174533,-0.174533,-0.0980725,-0.690828,-0.170351,-0.196764,1.29673,-0.29215,-0.104539,0.555773
23,45,-0.0872665,-0.698132,-0.174533,-0.174533,-0.0980725,-0.690828,-0.170351,-0.196764,1.29673,-0.29215,-0.104539,0.555773
23,45,-0.0872665,-0.698132,-0.174533,-0.174533,-0.0980725,-0.690828,-0.170351,-0.196764,1.29673,-0.29215,-0.104539,0.555773
23,45,-0.0872665,-0.698132,-0.174533,-0.174533,-0.0980725,-0.690828,-0.170351,-0.196764,1.29673,-0.29215,-0.104539,0.555773
23,45,-0.0872665,-0.698132,-0.174533,-0.174533,-0.0980725,-0.690828,-0.170351,-0.196764,1.29673,-0.29215,-0.104539,0.555773
23,45,-0.0872665,-0.698132,-0.174533,-0.174533,-0.0980725,-0.690828,-0.170351,-0.196764,1.29673,-0.29215,-0.104539,0.555773
23,45,-0.0872665,-0.698132,-0.174533,-0.174533,-0.0980725,-0.690828,-0.170351,-0.196764,1.29673,-0.29215,-0.104539,0.555773
23,45,-0.0872665,-0.698132,-0.174533,-0.174533,-0.0980725,-0.690828,-0.170351,-0.196764,1.29673,-0.29215,-0.104539,0.555773
23,45,-0.0872665,-0.698132,-0.174533,-0.174533,-0.0980725,-0.690828,-0.170351,-0.196764,1.29673,-0.29215,-0.104539,0.555773
23,45,-0.0872665,-0.698132,-0.174533,-0.174533,-0.0980725,-0.690828,-0.170351,-0.196764,1.29673,-0.29215,-0.104539,0.555773
23,45,-0.0872665,-0.698132,-0.174533,-0.174533,-0.0980725,-0.690828,-0.170351,-0.196764,1.29673,-0.29215,-0.104539,0.555773
23,45,-0.0872665,-0.698132,-0.174533,-0.174533,-0.0980725,-0.690828,-0.170351,-0.196764,1.29673,-0.29215,-0.104539,0.555773
23,45,-0.0872665,-0.698132,-0.174533,-0.174533,-0.0980725,-0.690828,-0.170418,-0.196807,1.29673,-0.29215,-0.102862,0.556841
23,45,-0.0872665,-0.698132,-0.174533,-0.174533,-0.0980725,-0.690828,-0.170418,-0.196807,1.29673,-0.29215,-0.102862,0.556841
23,45,-0.0872665,-0.698132,-0.174533,-0.174533,-0.0980725,-0.690828,-0.170418,-0.196807,1.29673,-0.29215,-0.102862,0.556841
23,45,-0.0872665,-0.698132,-0.174533,-0.174533,-0.0980725,-0.690828,-0.170418,-0.196807,1.29673,-0.29215,-0.102862,0.556841
23,45,-0.0872665,-0.698132,-0.174533,-0.174533,-0.0980725,-0.690828,-0.170418,-0.196807,1.29673,-0.29215,-0.102862,0.556841
23,45,-0.0872665,-0.698132,-0.174533,-0.174533,-0.0980725,-0.690828,-0.170418,-0.196807,1.29673,-0.29215,-0.102862,0.556841
23,45,-0.0872665,-0.698132,-0.174533,-0.174533,-0.0980725,-0.690828,-0.170418,-0.196807,1.29673,-0.29215,-0.102862,0.556841
23,45,-0.0872665,-0.698132,-0.174533,-0.174533,-0.0980725,-0.690828,-0.170418,-0.196807,1.29673,-0.29215,-0.102862,0.556841
23,45,-0.0872665,-0.698132,-0.174533,-0.174533,-0.0980725,-0.690828,-0.170418,-0.196807,1.29673,-0.29215,-0.102862,0.556841
23,45,-0.0872665,-0.698132,-0.174533,-0.174533,-0.0980725,-0.690828,-0.170418,-0.196807,1.29673,-0.29215,-0.102862,0.556841
23,45,-0.0872665,-0.698132,-0.174533,-0.174533,-0.0980725,-0.690828,-0.170418,-0.196807,1.29673,-0.29215,-0.102862,0.556841
23,45,-0.0872665,-0.698132,-0.174533,-0.174533,-0.0980725,-0.690828,-0.170418,-0.196807,1.29673,-0.29215,-0.102862,0.556841
23,45,-0.0872665,-0.698132,-0.174533,-0.174533,-0.0980725,-0.690828,-0.170418,-0.196807,1.29673,-0.29215,-0.102862,0.556841
23,45,-0.0872665,-0.698132,-0.174533,-0.174533,-0.0980725,-0.690828,-0.170418,-0.196807,1.29673,-0.29215,-0.102862,0.556841
23,45,-0.0872665,-0.698132,-0.174533,-0.174533,-0.0980725,-0.690828,-0.170418,-0.196807,1.29673,-0.29215,-0.102862,0.556841
23,45,-0.0872665,-0.698132,-0.174533,-0.174533,-0.0980725,-0.690828,-0.170418,-0.196807,1.29673,-0.29215,-0.102862,0.556841
23,45,-0.0872665,-0.698132,-0.174533,-0.174533,-0.0980725,-0.690828,-0.170418,-0.196807,1.29673,-0.29215,-0.102862,0.556841
23,45,-0.0872665,-0.698132,-0.174533,-0.174533,-0.0980725,-0.690828,-0.170418,-0.196807,1.29673,-0.29215,-0.102862,0.556841
23,45,-0.0872665,-0.698132,-0.174533,-0.174533,-0.0980725,-0.690828,-0.170418,-0.196807,1.29673,-0.29215,-0.102862,0.556841
23,45,-0.0872665,-0.698132,-0.174533,-0.174533,-0.0980725,-0.690828,-0.170418,-0.196807,1.29673,-0.29215,-0.102862,0.556841
23,45,-0.0872665,-0.698132,-0.174533,-0.174533,-0.0980725,-0.690828,-0.170418,-0.196807,1.29673,-0.29215,-0.102862,0.556841
23,45,-0.0872665,-0.698132,-0.174533,-0.174533,-0.0980725,-0.690828,-0.170418,-0.196807,1.29673,-0.29215,-0.102862,0.556841
23,45,-0.0872665,-0.698132,-0.174533,-0.174533,-0.0980725,-0.690828,-0.170418,-0.196807,1.29673,-0.29215,-0.102862,0.556841
23,45,-0.0872665,-0.698132,-0.174533,-0.174533,-0.0980725,-0.690828,-0.170418,-0.196807,1.29673,-0.29215,-0.102862,0.556841
23,45,-0.0872665,-0.698132,-0.174533,-0.174533,-0.0980725,-0.690828,-0.170418,-0.196807,1.29673,-0.29215,-0.102862,0.556841
23,45,-0.0872665,-0.698132,-0.174533,-0.174533,-0.0980725,-0.690828,-0.170418,-0.196807,1.29673,-0.29215,-0.102862,0.556841
23,45,-0.0872665,-0.698132,-0.174533,-0.174533,-0.0980725,-0.690828,-0.170418,-0.196807,1.29673,-0.29215,-0.102862,0.556841
23,45,-0.0872665,-0.698132,-0.174533,-0.174533,-0.0980725,-0.690828,-0.170418,-0.196807,1.29673,-0.29215,-0.102862,0.556841
23,45,-0.0872665,-0.698132,-0.174533,-0.174533,-0.0980725,-0.690828,-0.170418,-0.196807,1.29673,-0.29215,-0.102862,0.556841
23,45,-0.0872665,-0.698132,-0.174533,-0.174533,-0.0980725,-0.690828,-0.170418,-0.196807,1.29673,-0.29215,-0.102862,0.556841
23,45,-0.0872665,-0.698132,-0.174533,-0.174533,-0.0980725,-0.690828,-0.170418,-0.196807,1.29673,-0.29215,-0.102862,0.556841
23,45,-0.0872665,-0.698132,-0.174533,-0.174533,-0.0980725,-0.690828,-0.170418,-0.196807,1.29673,-0.29215,-0.102862,0.556841
23,45,-0.0872665,-0.698132,-0.174533,-0.174533,-0.0980725,-0.690828,-0.170418,-0.196807,1.29673,-0.29215,-0.102862,0.556841
23,45,-0.0872665,-0.698132,-0.174533,-0.174533,-0.0980725,-0.690828,-0.170418,-0.196807,1.29673,-0.29215,-0.102862,0.556841
23,45,-0.0872665,-0.698132,-0.174533,-0.174533,-0.0980725,-0.690828,-0.170418,-0.196807,1.29673,-0.29215,-0.102862,0.556841
23,45,-0.0872665,-0.698132,-0.174533,-0.174533,-0.0980725,-0.690828,-0.170418,-0.196807,1.29673,-0.29215,-0.102862,0.556841
23,45,-0.0872665,-0.698132,-0.174533,-0.174533,-0.0980725,-0.690828,-0.170418,-0.196807,1.29673,-0.29215,-0.102862,0.556841
23,45,-0.0872665,-0.698132,-0.174533,-0.174533,-0.0980725,-0.690828,-0.170418,-0.196807,1.29673,-0.29215,-0.102862,0.556841
23,45,-0.0872665,-0.698132,-0.174533,-0.174533,-0.0980725,-0.690828,-0.170418,-0.196807,1.29673,-0.29215,-0.102862,0.556841
23,45,-0.0872665,-0.698132,-0.174533,-0.174533,-0.0980725,-0.690828,-0.170418,-0.196807,1.29673,-0.29215,-0.102862,0.556841
23,45,-0.0872665,-0.698132,-0.174533,-0.174533,-0.0980725,-0.690828,-0.170418,-0.196807,1.29673,-0.29215,-0.102862,0.556841
23,45,-0.0872665,-0.698132,-0.174533,-0.174533,-0.0980725,-0.690828,-0.170418,-0.196807,1.29673,-0.29215,-0.102862,0.556841
23,45,-0.0872665,-0.698132,-0.174533,-0.174533,-0.0980725,-0.690828,-0.170418,-0.196807,1.29673,-0.29215,-0.102862,0.556841
23,45,-0.0872665,-0.698132,-0.174533,-0.174533,-0.0980725,-0.690828,-0.170418,-0.196807,1.29673,-0.29215,-0.102862,0.556841
23,45,-0.0872665,-0.698132,-0.174533,-0.174533,-0.0980725,-0.690828,-0.170418,-0.196807,1.29673,-0.29215,-0.102862,0.556841
23,45,-0.0872665,-0.698132,-0.174533,-0.174533,-0.0980725,-0.690828,-0.170418,-0.196807,1.29673,-0.29215,-0.102862,0.556841
23,45,-0.0872665,-0.698132,-0.174533,-0.174533,-0.0980725,-0.690828,-0.170418,-0.196807,1.29673,-0.29215,-0.102862,0.556841
23,45,-0.0872665,-0.698132,-0.174533,-0.174533,-0.0980725,-0.690828,-0.170418,-0.196807,1.29673,-0.29215,-0.102862,0.556841
23,45,-0.0872665,-0.698132,-0.174533,-0.174533,-0.0980725,-0.690828,-0.170418,-0.196807,1.29673,-0.29215,-0.102862,0.556841
23,45,-0.0872665,-0.698132,-0.174533,-0.174533,-0.0980725,-0.690828,-0.170418,-0.196807,1.29673,-0.29215,-0.102862,0.556841
23,45,-0.0872665,-0.698132,-0.174533,-0.174533,-0.0980725,-0.690828,-0.170418,-0.196807,1.29673,-0.29215,-0.102862,0.556841
23,45,-0.0872665,-0.698132,-0.174533,-0.174533,-0.0980725,-0.690828,-0.170418,-0.196807,1.29673,-0.29215,-0.102862,0.556841
23,45,-0.0872665,-0.698132,-0.174533,-0.174533,-0.0980725,-0.690828,-0.170418,-0.196807,1.29673,-0.29215,-0.102862,0.556841
23,45,-0.0872665,-0.698132,-0.174533,-0.174533,-0.0980725,-0.690828,-0.170418,-0.196807,1.29673,-0.29215,-0.102862,0.556841
23,45,-0.0872665,-0.698132,-0.174533,-0.174533,-0.0980725,-0.690828,-0.170418,-0.196807,1.29673,-0.29215,-0.102862,0.556841
23,45,-0.0872665,-0.698132,-0.174533,-0.174533,-0.0980725,-0.690828,-0.170418,-0.196807,1.29673,-0.29215,-0.102862,0.556841
23,45,-0.0872665,-0.698132,-0.174533,-0.174533,-0.0980725,-0.690828,-0.170418,-0.196807,1.29673,-0.29215,-0.102862,0.556841
23,45,-0.0872665,-0.698132,-0.174533,-0.174533,-0.0980725,-0.690828,-0.170418,-0.196807,1.29673,-0.29215,-0.102862,0.556841
23,45,-0.0872665,-0.698132,-0.174533,-0.174533,-0.0980725,-0.690828,-0.170418,-0.196807,1.29673,-0.29215,-0.102862,0.556841
23,45,-0.0872665,-0.698132,-0.174533,-0.174533,-0.0980725,-0.690828,-0.170418,-0.196807,1.29673,-0.29215,-0.102862,0.556841
23,45,-0.0872665,-0.698132,-0.174533,-0.174533,-0.0980725,-0.690828,-0.170418,-0.196807,1.29673,-0.29215,-0.102862,0.556841
23,45,-0.0872665,-0.698132,-0.174533,-0.174533,-0.0980725,-0.690828,-0.170418,-0.196807,1.29673,-0.29215,-0.102862,0.556841
23,45,-0.0872665,-0.698132,-0.174533,-0.174533,-0.0980725,-0.690828,-0.170418,-0.196807,1.29673,-0.29215,-0.102862,0.556841
23,45,-0.0872665,-0.698132,-0.174533,-0.174533,-0.0980725,-0.690828,-0.170418,-0.196807,1.29673,-0.29215,-0.102862,0.556841
23,45,-0.0872665,-0.698132,-0.174533,-0.174533,-0.0980725,-0.690828,-0.170418,-0.196807,1.29673,-0.29215,-0.102862,0.556841
23,45,-0.0872665,-0.698132,-0.174533,-0.174533,-0.0980725,-0.690828,-0.170418,-0.196807,1.29673,-0.29215,-0.102862,0.556841
23,45,-0.0872665,-0.698132,-0.174533,-0.174533,-0.0980725,-0.690828,-0.170418,-0.196807,1.29673,-0.29215,-0.102862,0.556841
23,45,-0.0872665,-0.698132,-0.174533,-0.174533,-0.0980725,-0.690828,-0.170418,-0.196807,1.29673,-0.29215,-0.102862,0.556841
23,45,-0.0872665,-0.698132,-0.174533,-0.174533,-0.0980725,-0.690828,-0.170418,-0.196807,1.29673,-0.29215,-0.102862,0.556841
23,45,-0.0872665,-0.698132,-0.174533,-0.174533,-0.0980725,-0.690828,-0.170418,-0.196807,1.29673,-0.29215,-0.102862,0.556841
23,45,-0.0872665,-0.698132,-0.174533,-0.174533,-0.0980725,-0.690828,-0.170418,-0.196807,1.29673,-0.29215,-0.102862,0.556841
23,45,-0.0872665,-0.698132,-0.174533,-0.174533,-0.0980725,-0.690828,-0.170418,-0.196807,1.29673,-0.29215,-0.102862,0.556841
23,45,-0.0872665,-0.698132,-0.174533,-0.174533,-0.0980725,-0.690828,-0.170418,-0.196807,1.29673,-0.29215,-0.102862,0.556841
23,45,-0.0872665,-0.698132,-0.174533,-0.174533,-0.0980725,-0.690828,-0.170418,-0.196807,1.29673,-0.29215,-0.102862,0.556841
23,45,-0.0872665,-0.698132,-0.174533,-0.174533,-0.0980725,-0.690828,-0.170418,-0.196807,1.29673,-0.29215,-0.102862,0.556841
23,45,-0.0872665,-0.698132,-0.174533,-0.174533,-0.0980725,-0.690828,-0.170418,-0.196807,1.29673,-0.29215,-0.102862,0.556841
23,45,-0.0872665,-0.698132,-0.174533,-0.174533,-0.0980725,-0.690828,-0.170418,-0.196807,1.29673,-0.29215,-0.102862,0.556841
23,45,-0.0872665,-0.698132,-0.174533,-0.174533,-0.0980725,-0.690828,-0.170418,-0.196807,1.29673,-0.29215,-0.102862,0.556841
23,45,-0.0872665,-0.698132,-0.174533,-0.174533,-0.0980725,-0.690828,-0.170418,-0.196807,1.29673,-0.29215,-0.102862,0.556841
23,45,-0.0872665,-0.698132,-0.174533,-0.174533,-0.0980725,-0.690828,-0.170418,-0.196807,1.29673,-0.29215,-0.102862,0.556841
23,45,-0.0872665,-0.698132,-0.174533,-0.174533,-0.0980725,-0.690828,-0.170418,-0.196807,1.29673,-0.29215,-0.102862,0.556841
23,45,-0.0872665,-0.698132,-0.174533,-0.174533,-0.0980725,-0.690828,-0.170418,-0.196807,1.29673,-0.29215,-0.102862,0.556841
23,45,-0.0872665,-0.698132,-0.174533,-0.174533,-0.0980725,-0.690828,-0.170418,-0.196807,1.29673,-0.29215,-0.102862,0.556841
23,45,-0.0872665,-0.698132,-0.174533,-0.174533,-0.0980725,-0.690828,-0.170418,-0.196807,1.29673,-0.29215,-0.102862,0.556841
23,45,-0.0872665,-0.698132,-0.174533,-0.174533,-0.0980725,-0.690828,-0.170418,-0.196807,1.29673,-0.29215,-0.102862,0.556841
23,45,-0.0872665,-0.698132,-0.174533,-0.174533,-0.0980725,-0.690828,-0.170418,-0.196807,1.29673,-0.29215,-0.102862,0.556841
23,45,-0.0872665,-0.698132,-0.174533,-0.174533,-0.0980725,-0.690828,-0.170418,-0.196807,1.29673,-0.29215,-0.102862,0.556841
23,45,-0.0872665,-0.698132,-0.174533,-0.174533,-0.0980725,-0.690828,-0.170418,-0.196807,1.29673,-0.29215,-0.102862,0.556841
23,45,-0.0872665,-0.698132,-0.174533,-0.174533,-0.0980725,-0.690828,-0.170418,-0.196807,1.29673,-0.29215,-0.102862,0.556841
23,45,-0.0872665,-0.698132,-0.174533,-0.174533,-0.0980725,-0.690828,-0.170418,-0.196807,1.29673,-0.29215,-0.102862,0.556841
23,45,-0.0872665,-0.698132,-0.174533,-0.174533,-0.0980725,-0.690828,-0.170418,-0.196807,1.29673,-0.29215,-0.102862,0.556841
23,45,-0.0872665,-0.698132,-0.174533,-0.174533,-0.0980725,-0.690828,-0.170418,-0.196807,1.29673,-0.29215,-0.102862,0.556841
23,45,-0.0872665,-0.698132,-0.174533,-0.174533,-0.0980725,-0.690828,-0.170418,-0.196807,1.29673,-0.29215,-0.102862,0.556841
23,45,-0.0872665,-0.698132,-0.174533,-0.174533,-0.0980725,-0.690828,-0.170486,-0.196849,1.29673,-0.29215,-0.101185,0.557909
23,45,-0.0872665,-0.698132,-0.174533,-0.174533,-0.0980725,-0.690828,-0.170486,-0.196849,1.29673,-0.29215,-0.101185,0.557909
23,45,-0.0872665,-0.698132,-0.174533,-0.174533,-0.0980725,-0.690828,-0.170486,-0.196849,1.29673,-0.29215,-0.101185,0.557909
23,45,-0.0872665,-0.698132,-0.174533,-0.174533,-0.0980725,-0.690828,-0.170486,-0.196849,1.29673,-0.29215,-0.101185,0.557909
23,45,-0.0872665,-0.698132,-0.174533,-0.174533,-0.0980725,-0.690828,-0.170486,-0.196849,1.29673,-0.29215,-0.101185,0.557909
23,45,-0.0872665,-0.698132,-0.174533,-0.174533,-0.0980725,-0.690828,-0.170486,-0.196849,1.29673,-0.29215,-0.101185,0.557909
23,45,-0.0872665,-0.698132,-0.174533,-0.174533,-0.0980725,-0.690828,-0.170486,-0.196849,1.29673,-0.29215,-0.101185,0.557909
23,45,-0.0872665,-0.698132,-0.174533,-0.174533,-0.0980725,-0.690828,-0.170482,-0.19679,1.29673,-0.29215,-0.101268,0.556421
23,45,-0.0872665,-0.698132,-0.174533,-0.174533,-0.0980725,-0.690828,-0.170482,-0.19679,1.29673,-0.29215,-0.101268,0.556421
23,45,-0.0872665,-0.698132,-0.174533,-0.174533,-0.0980725,-0.690828,-0.170482,-0.19679,1.29673,-0.29215,-0.101268,0.556421
23,45,-0.0872665,-0.698132,-0.174533,-0.174533,-0.0980725,-0.690828,-0.170482,-0.19679,1.29673,-0.29215,-0.101268,0.556421
23,45,-0.0872665,-0.698132,-0.174533,-0.174533,-0.0980725,-0.690828,-0.170482,-0.19679,1.29673,-0.29215,-0.101268,0.556421
23,45,-0.0872665,-0.698132,-0.174533,-0.174533,-0.0980725,-0.690828,-0.170482,-0.19679,1.29673,-0.29215,-0.101268,0.556421
23,45,-0.0872665,-0.698132,-0.174533,-0.174533,-0.0980725,-0.690828,-0.170482,-0.19679,1.29673,-0.29215,-0.101268,0.556421
23,45,-0.0872665,-0.698132,-0.174533,-0.174533,-0.0980725,-0.690828,-0.170482,-0.19679,1.29673,-0.29215,-0.101268,0.556421
23,45,-0.0872665,-0.698132,-0.174533,-0.174533,-0.0980725,-0.690828,-0.170482,-0.19679,1.29673,-0.29215,-0.101268,0.556421
23,45,-0.0872665,-0.698132,-0.174533,-0.174533,-0.0980725,-0.690828,-0.170482,-0.19679,1.29673,-0.29215,-0.101268,0.556421
23,45,-0.0872665,-0.698132,-0.174533,-0.174533,-0.0980725,-0.690828,-0.170482,-0.19679,1.29673,-0.29215,-0.101268,0.556421
23,45,-0.0872665,-0.698132,-0.174533,-0.174533,-0.0980725,-0.690828,-0.170482,-0.19679,1.29673,-0.29215,-0.101268,0.556421
23,45,-0.0872665,-0.698132,-0.174533,-0.174533,-0.0980725,-0.690828,-0.170482,-0.19679,1.29673,-0.29215,-0.101268,0.556421
23,45,-0.0872665,-0.698132,-0.174533,-0.174533,-0.0980725,-0.690828,-0.170482,-0.19679,1.29673,-0.29215,-0.101268,0.556421
23,45,-0.0872665,-0.698132,-0.174533,-0.174533,-0.0980725,-0.690828,-0.170482,-0.19679,1.29673,-0.29215,-0.101268,0.556421
23,45,-0.0872665,-0.698132,-0.174533,-0.174533,-0.0980725,-0.690828,-0.170482,-0.19679,1.29673,-0.29215,-0.101268,0.556421
23,45,-0.0872665,-0.698132,-0.174533,-0.174533,-0.0980725,-0.690828,-0.170482,-0.19679,1.29673,-0.29215,-0.101268,0.556421
23,45,-0.0872665,-0.698132,-0.174533,-0.174533,-0.0980725,-0.690828,-0.170482,-0.19679,1.29673,-0.29215,-0.101268,0.556421
23,45,-0.0872665,-0.698132,-0.174533,-0.174533,-0.0980725,-0.690828,-0.170482,-0.19679,1.29673,-0.29215,-0.101268,0.556421
23,45,-0.0872665,-0.698132,-0.174533,-0.174533,-0.0980725,-0.690828,-0.170549,-0.196832,1.29673,-0.29215,-0.0995908,0.557489
23,45,-0.0872665,-0.698132,-0.174533,-0.174533,-0.0980725,-0.690828,-0.170549,-0.196832,1.29673,-0.29215,-0.0995908,0.557489
23,45,-0.0872665,-0.698132,-0.174533,-0.174533,-0.0980725,-0.690828,-0.170549,-0.196832,1.29673,-0.29215,-0.0995908,0.557489
23,45,-0.0872665,-0.698132,-0.174533,-0.174533,-0.0980725,-0.690828,-0.170549,-0.196832,1.29673,-0.29215,-0.0995908,0.557489
23,45,-0.0872665,-0.698132,-0.174533,-0.174533,-0.0980725,-0.690828,-0.170549,-0.196832,1.29673,-0.29215,-0.0995908,0.557489
23,45,-0.0872665,-0.698132,-0.174533,-0.174533,-0.0980725,-0.690828,-0.170549,-0.196832,1.29673,-0.29215,-0.0995908,0.557489
23,45,-0.0872665,-0.698132,-0.174533,-0.174533,-0.0980725,-0.690828,-0.170549,-0.196832,1.29673,-0.29215,-0.0995908,0.557489
23,45,-0.0872665,-0.698132,-0.174533,-0.174533,-0.0980725,-0.690828,-0.170549,-0.196832,1.29673,-0.29215,-0.0995908,0.557489
23,45,-0.0872665,-0.698132,-0.174533,-0.174533,-0.0980725,-0.690828,-0.170549,-0.196832,1.29673,-0.29215,-0.0995908,0.557489
23,45,-0.0872665,-0.698132,-0.174533,-0.174533,-0.0980725,-0.690828,-0.170549,-0.196832,1.29673,-0.29215,-0.0995908,0.557489
23,45,-0.0872665,-0.698132,-0.174533,-0.174533,-0.0980725,-0.690828,-0.170549,-0.196832,1.29673,-0.29215,-0.0995908,0.557489
23,45,-0.0872665,-0.698132,-0.174533,-0.174533,-0.0980725,-0.690828,-0.170549,-0.196832,1.29673,-0.29215,-0.0995908,0.557489
23,45,-0.0872665,-0.698132,-0.174533,-0.174533,-0.0980725,-0.690828,-0.170549,-0.196832,1.29673,-0.29215,-0.0995908,0.557489
23,45,-0.0872665,-0.698132,-0.174533,-0.174533,-0.0980725,-0.690828,-0.170549,-0.196832,1.29673,-0.29215,-0.0995908,0.557489
23,45,-0.0872665,-0.698132,-0.174533,-0.174533,-0.0980725,-0.690828,-0.170549,-0.196832,1.29673,-0.29215,-0.0995908,0.557489
23,45,-0.0872665,-0.698132,-0.174533,-0.174533,-0.0980725,-0.690828,-0.170549,-0.196832,1.29673,-0.29215,-0.0995908,0.557489
23,45,-0.0872665,-0.698132,-0.174533,-0.174533,-0.0980725,-0.690828,-0.170549,-0.196832,1.29673,-0.29215,-0.0995908,0.557489
23,45,-0.0872665,-0.698132,-0.174533,-0.174533,-0.0980725,-0.690828,-0.170549,-0.196832,1.29673,-0.29215,-0.0995908,0.557489
23,45,-0.0872665,-0.698132,-0.174533,-0.174533,-0.0980725,-0.690828,-0.170549,-0.196832,1.29673,-0.29215,-0.0995908,0.557489
23,45,-0.0872665,-0.698132,-0.174533,-0.174533,-0.0980725,-0.690828,-0.170549,-0.196832,1.29673,-0.29215,-0.0995908,0.557489
23,45,-0.0872665,-0.698132,-0.174533,-0.174533,-0.0980725,-0.690828,-0.170549,-0.196832,1.29673,-0.29215,-0.0995908,0.557489
23,45,-0.0872665,-0.698132,-0.174533,-0.174533,-0.0980725,-0.690828,-0.170549,-0.196832,1.29673,-0.29215,-0.0995908,0.557489
23,45,-0.0872665,-0.698132,-0.174533,-0.174533,-0.0980725,-0.690828,-0.170549,-0.196832,1.29673,-0.29215,-0.0995908,0.557489
23,45,-0.0872665,-0.698132,-0.174533,-0.174533,-0.0980725,-0.690828,-0.170549,-0.196832,1.29673,-0.29215,-0.0995908,0.557489
23,45,-0.0872665,-0.698132,-0.174533,-0.174533,-0.0980725,-0.690828,-0.170549,-0.196832,1.29673,-0.29215,-0.0995908,0.557489
23,45,-0.0872665,-0.698132,-0.174533,-0.174533,-0.0980725,-0.690828,-0.170549,-0.196832,1.29673,-0.29215,-0.0995908,0.557489
23,45,-0.0872665,-0.698132,-0.174533,-0.174533,-0.0980725,-0.690828,-0.170549,-0.196832,1.29673,-0.29215,-0.0995908,0.557489
23,45,-0.0872665,-0.698132,-0.174533,-0.174533,-0.0980725,-0.690828,-0.170549,-0.196832,1.29673,-0.29215,-0.0995908,0.557489
23,45,-0.0872665,-0.698132,-0.174533,-0.174533,-0.0980725,-0.690828,-0.170549,-0.196832,1.29673,-0.29215,-0.0995908,0.557489
23,45,-0.0872665,-0.698132,-0.174533,-0.174533,-0.0980725,-0.690828,-0.170549,-0.196832,1.29673,-0.29215,-0.0995908,0.557489
23,45,-0.0872665,-0.698132,-0.174533,-0.174533,-0.0980725,-0.690828,-0.170549,-0.196832,1.29673,-0.29215,-0.0995908,0.557489
23,45,-0.0872665,-0.698132,-0.174533,-0.174533,-0.0980725,-0.690828,-0.170549,-0.196832,1.29673,-0.29215,-0.0995908,0.557489
23,45,-0.0872665,-0.698132,-0.174533,-0.174533,-0.0980725,-0.690828,-0.170549,-0.196832,1.29673,-0.29215,-0.0995908,0.557489
23,45,-0.0872665,-0.698132,-0.174533,-0.174533,-0.0980725,-0.690828,-0.170549,-0.196832,1.29673,-0.29215,-0.0995908,0.557489
23,45,-0.0872665,-0.698132,-0.174533,-0.174533,-0.0980725,-0.690828,-0.170549,-0.196832,1.29673,-0.29215,-0.0995908,0.557489
23,45,-0.0872665,-0.698132,-0.174533,-0.174533,-0.0980725,-0.690828,-0.170549,-0.196832,1.29673,-0.29215,-0.0995908,0.557489
23,45,-0.0872665,-0.698132,-0.174533,-0.174533,-0.0980725,-0.690828,-0.170549,-0.196832,1.29673,-0.29215,-0.0995908,0.557489
23,45,-0.0872665,-0.698132,-0.174533,-0.174533,-0.0980725,-0.690828,-0.170549,-0.196832,1.29673,-0.29215,-0.0995908,0.557489
23,45,-0.0872665,-0.698132,-0.174533,-0.174533,-0.0980725,-0.690828,-0.170549,-0.196832,1.29673,-0.29215,-0.0995908,0.557489
23,45,-0.0872665,-0.698132,-0.174533,-0.174533,-0.0980725,-0.690828,-0.170549,-0.196832,1.29673,-0.29215,-0.0995908,0.557489
23,45,-0.0872665,-0.698132,-0.174533,-0.174533,-0.0980725,-0.690828,-0.170549,-0.196832,1.29673,-0.29215,-0.0995908,0.557489
23,45,-0.0872665,-0.698132,-0.174533,-0.174533,-0.0980725,-0.690828,-0.170549,-0.196832,1.29673,-0.29215,-0.0995908,0.557489
23,45,-0.0872665,-0.698132,-0.174533,-0.174533,-0.0980725,-0.690828,-0.170549,-0.196832,1.29673,-0.29215,-0.0995908,0.557489
23,45,-0.0872665,-0.698132,-0.174533,-0.174533,-0.0980725,-0.690828,-0.170549,-0.196832,1.29673,-0.29215,-0.0995908,0.557489
23,45,-0.0872665,-0.698132,-0.174533,-0.174533,-0.0980725,-0.690828,-0.170549,-0.196832,1.29673,-0.29215,-0.0995908,0.557489
23,45,-0.0872665,-0.698132,-0.174533,-0.174533,-0.0980725,-0.690828,-0.170549,-0.196832,1.29673,-0.29215,-0.0995908,0.557489
23,45,-0.0872665,-0.698132,-0.174533,-0.174533,-0.0980725,-0.690828,-0.170549,-0.196832,1.29673,-0.29215,-0.0995908,0.557489
23,45,-0.0872665,-0.698132,-0.174533,-0.174533,-0.0980725,-0.690828,-0.170549,-0.196832,1.29673,-0.29215,-0.0995908,0.557489
23,45,-0.0872665,-0.698132,-0.174533,-0.174533,-0.0980725,-0.690828,-0.170549,-0.196832,1.29673,-0.29215,-0.0995908,0.557489
23,45,-0.0872665,-0.698132,-0.174533,-0.174533,-0.0980725,-0.690828,-0.170549,-0.196832,1.29673,-0.29215,-0.0995908,0.557489
23,45,-0.0872665,-0.698132,-0.174533,-0.174533,-0.0980725,-0.690828,-0.170549,-0.196832,1.29673,-0.29215,-0.0995908,0.557489
23,45,-0.0872665,-0.698132,-0.174533,-0.174533,-0.0980725,-0.690828,-0.170549,-0.196832,1.29673,-0.29215,-0.0995908,0.557489
23,45,-0.0872665,-0.698132,-0.174533,-0.174533,-0.0980725,-0.690828,-0.170549,-0.196832,1.29673,-0.29215,-0.0995908,0.557489
23,45,-0.0872665,-0.698132,-0.174533,-0.174533,-0.0980725,-0.690828,-0.170549,-0.196832,1.29673,-0.29215,-0.0995908,0.557489
23,45,-0.0872665,-0.698132,-0.174533,-0.174533,-0.0980725,-0.690828,-0.170549,-0.196832,1.29673,-0.29215,-0.0995908,0.557489
23,45,-0.0872665,-0.698132,-0.174533,-0.174533,-0.0980725,-0.690828,-0.170549,-0.196832,1.29673,-0.29215,-0.0995908,0.557489
23,45,-0.0872665,-0.698132,-0.174533,-0.174533,-0.0980725,-0.690828,-0.170549,-0.196832,1.29673,-0.29215,-0.0995908,0.557489
23,45,-0.0872665,-0.698132,-0.174533,-0.174533,-0.0980725,-0.690828,-0.170549,-0.196832,1.29673,-0.29215,-0.0995908,0.557489
23,45,-0.0872665,-0.698132,-0.174533,-0.174533,-0.0980725,-0.690828,-0.170549,-0.196832,1.29673,-0.29215,-0.0995908,0.557489
23,45,-0.0872665,-0.698132,-0.174533,-0.174533,-0.0980725,-0.690828,-0.170549,-0.196832,1.29673,-0.29215,-0.0995908,0.557489
23,45,-0.0872665,-0.698132,-0.174533,-0.174533,-0.0980725,-0.690828,-0.170549,-0.196832,1.29673,-0.29215,-0.0995908,0.557489
23,45,-0.0872665,-0.698132,-0.174533,-0.174533,-0.0980725,-0.690828,-0.170549,-0.196832,1.29673,-0.29215,-0.0995908,0.557489
23,45,-0.0872665,-0.698132,-0.174533,-0.174533,-0.0980725,-0.690828,-0.170549,-0.196832,1.29673,-0.29215,-0.0995908,0.557489
23,45,-0.0872665,-0.698132,-0.174533,-0.174533,-0.0980725,-0.690828,-0.170549,-0.196832,1.29673,-0.29215,-0.0995908,0.557489
23,45,-0.0872665,-0.698132,-0.174533,-0.174533,-0.0980725,-0.690828,-0.170549,-0.196832,1.29673,-0.29215,-0.0995908,0.557489
23,45,-0.0872665,-0.698132,-0.174533,-0.174533,-0.0980725,-0.690828,-0.170549,-0.196832,1.29673,-0.29215,-0.0995908,0.557489
23,45,-0.0872665,-0.698132,-0.174533,-0.174533,-0.0980725,-0.690828,-0.170549,-0.196832,1.29673,-0.29215,-0.0995908,0.557489
23,45,-0.0872665,-0.698132,-0.174533,-0.174533,-0.0980725,-0.690828,-0.170549,-0.196832,1.29673,-0.29215,-0.0995908,0.557489
23,45,-0.0872665,-0.698132,-0.174533,-0.174533,-0.0980725,-0.690828,-0.170549,-0.196832,1.29673,-0.29215,-0.0995908,0.557489
23,45,-0.0872665,-0.698132,-0.174533,-0.174533,-0.0980725,-0.690828,-0.170549,-0.196832,1.29673,-0.29215,-0.0995908,0.557489
23,45,-0.0872665,-0.698132,-0.174533,-0.174533,-0.0980725,-0.690828,-0.170549,-0.196832,1.29673,-0.29215,-0.0995908,0.557489
23,45,-0.0872665,-0.698132,-0.174533,-0.174533,-0.0980725,-0.690828,-0.170616,-0.196875,1.29673,-0.29215,-0.0979135,0.558557
23,45,-0.0872665,-0.698132,-0.174533,-0.174533,-0.0980725,-0.690828,-0.170616,-0.196875,1.29673,-0.29215,-0.0979135,0.558557
23,45,-0.0872665,-0.698132,-0.174533,-0.174533,-0.0980725,-0.690828,-0.170616,-0.196875,1.29673,-0.29215,-0.0979135,0.558557
23,45,-0.0872665,-0.698132,-0.174533,-0.174533,-0.0980725,-0.690828,-0.170616,-0.196875,1.29673,-0.29215,-0.0979135,0.558557
23,45,-0.0872665,-0.698132,-0.174533,-0.174533,-0.0980725,-0.690828,-0.170616,-0.196875,1.29673,-0.29215,-0.0979135,0.558557
23,45,-0.0872665,-0.698132,-0.174533,-0.174533,-0.0980725,-0.690828,-0.170616,-0.196875,1.29673,-0.29215,-0.0979135,0.558557
23,45,-0.0872665,-0.698132,-0.174533,-0.174533,-0.0980725,-0.690828,-0.170616,-0.196875,1.29673,-0.29215,-0.0979135,0.558557
23,45,-0.0872665,-0.698132,-0.174533,-0.174533,-0.0980725,-0.690828,-0.170616,-0.196875,1.29673,-0.29215,-0.0979135,0.558557
23,45,-0.0872665,-0.698132,-0.174533,-0.174533,-0.0980725,-0.690828,-0.170616,-0.196875,1.29673,-0.29215,-0.0979135,0.558557
23,45,-0.0872665,-0.698132,-0.174533,-0.174533,-0.0980725,-0.690828,-0.170616,-0.196875,1.29673,-0.29215,-0.0979135,0.558557
23,45,-0.0872665,-0.698132,-0.174533,-0.174533,-0.0980725,-0.690828,-0.170616,-0.196875,1.29673,-0.29215,-0.0979135,0.558557
23,45,-0.0872665,-0.698132,-0.174533,-0.174533,-0.0980725,-0.690828,-0.170616,-0.196875,1.29673,-0.29215,-0.0979135,0.558557
23,45,-0.0872665,-0.698132,-0.174533,-0.174533,-0.0980725,-0.690828,-0.170616,-0.196875,1.29673,-0.29215,-0.0979135,0.558557
23,45,-0.0872665,-0.698132,-0.174533,-0.174533,-0.0980725,-0.690828,-0.170616,-0.196875,1.29673,-0.29215,-0.0979135,0.558557
23,45,-0.0872665,-0.698132,-0.174533,-0.174533,-0.0980725,-0.690828,-0.170616,-0.196875,1.29673,-0.29215,-0.0979135,0.558557
23,45,-0.0872665,-0.698132,-0.174533,-0.174533,-0.0980725,-0.690828,-0.170616,-0.196875,1.29673,-0.29215,-0.0979135,0.558557
23,45,-0.0872665,-0.698132,-0.174533,-0.174533,-0.0980725,-0.690828,-0.170616,-0.196875,1.29673,-0.29215,-0.0979135,0.558557
23,45,-0.0872665,-0.698132,-0.174533,-0.174533,-0.0980725,-0.690828,-0.170616,-0.196875,1.29673,-0.29215,-0.0979135,0.558557
23,45,-0.0872665,-0.698132,-0.174533,-0.174533,-0.0980725,-0.690828,-0.170616,-0.196875,1.29673,-0.29215,-0.0979135,0.558557
23,45,-0.0872665,-0.698132,-0.174533,-0.174533,-0.0980725,-0.690828,-0.170616,-0.196875,1.29673,-0.29215,-0.0979135,0.558557
23,45,-0.0872665,-0.698132,-0.174533,-0.174533,-0.0980725,-0.690828,-0.170616,-0.196875,1.29673,-0.29215,-0.0979135,0.558557
23,45,-0.0872665,-0.698132,-0.174533,-0.174533,-0.0980725,-0.690828,-0.170616,-0.196875,1.29673,-0.29215,-0.0979135,0.558557
23,45,-0.0872665,-0.698132,-0.174533,-0.174533,-0.0980725,-0.690828,-0.170616,-0.196875,1.29673,-0.29215,-0.0979135,0.558557
23,45,-0.0872665,-0.698132,-0.174533,-0.174533,-0.0980725,-0.690828,-0.170616,-0.196875,1.29673,-0.29215,-0.0979135,0.558557
23,45,-0.0872665,-0.698132,-0.174533,-0.174533,-0.0980725,-0.690828,-0.170616,-0.196875,1.29673,-0.29215,-0.0979135,0.558557
23,45,-0.0872665,-0.698132,-0.174533,-0.174533,-0.0980725,-0.690828,-0.170616,-0.196875,1.29673,-0.29215,-0.0979135,0.558557
23,45,-0.0872665,-0.698132,-0.174533,-0.174533,-0.0980725,-0.690828,-0.170616,-0.196875,1.29673,-0.29215,-0.0979135,0.558557
23,45,-0.0872665,-0.698132,-0.174533,-0.174533,-0.0980725,-0.690828,-0.170616,-0.196875,1.29673,-0.29215,-0.0979135,0.558557
23,45,-0.0872665,-0.698132,-0.174533,-0.174533,-0.0980725,-0.690828,-0.170616,-0.196875,1.29673,-0.29215,-0.0979135,0.558557
23,45,-0.0872665,-0.698132,-0.174533,-0.174533,-0.0980725,-0.690828,-0.170616,-0.196875,1.29673,-0.29215,-0.0979135,0.558557
23,45,-0.0872665,-0.698132,-0.174533,-0.174533,-0.0980725,-0.690828,-0.170616,-0.196875,1.29673,-0.29215,-0.0979135,0.558557
23,45,-0.0872665,-0.698132,-0.174533,-0.174533,-0.0980725,-0.690828,-0.170616,-0.196875,1.29673,-0.29215,-0.0979135,0.558557
23,45,-0.0872665,-0.698132,-0.174533,-0.174533,-0.0980725,-0.690828,-0.170616,-0.196875,1.29673,-0.29215,-0.0979135,0.558557
23,45,-0.0872665,-0.698132,-0.174533,-0.174533,-0.0980725,-0.690828,-0.170616,-0.196875,1.29673,-0.29215,-0.0979135,0.558557
23,45,-0.0872665,-0.698132,-0.174533,-0.174533,-0.0980725,-0.690828,-0.170616,-0.196875,1.29673,-0.29215,-0.0979135,0.558557
23,45,-0.0872665,-0.698132,-0.174533,-0.174533,-0.0980725,-0.690828,-0.170616,-0.196875,1.29673,-0.29215,-0.0979135,0.558557
23,45,-0.0872665,-0.698132,-0.174533,-0.174533,-0.0980725,-0.690828,-0.170616,-0.196875,1.29673,-0.29215,-0.0979135,0.558557
23,45,-0.0872665,-0.698132,-0.174533,-0.174533,-0.0980725,-0.690828,-0.170616,-0.196875,1.29673,-0.29215,-0.0979135,0.558557
23,45,-0.0872665,-0.698132,-0.174533,-0.174533,-0.0980725,-0.690828,-0.170616,-0.196875,1.29673,-0.29215,-0.0979135,0.558557
23,45,-0.0872665,-0.698132,-0.174533,-0.174533,-0.0980725,-0.690828,-0.170616,-0.196875,1.29673,-0.29215,-0.0979135,0.558557
23,45,-0.0872665,-0.698132,-0.174533,-0.174533,-0.0980725,-0.690828,-0.170616,-0.196875,1.29673,-0.29215,-0.0979135,0.558557
23,45,-0.0872665,-0.698132,-0.174533,-0.174533,-0.0980725,-0.690828,-0.170616,-0.196875,1.29673,-0.29215,-0.0979135,0.558557
23,45,-0.0872665,-0.698132,-0.174533,-0.174533,-0.0980725,-0.690828,-0.170616,-0.196875,1.29673,-0.29215,-0.0979135,0.558557
23,45,-0.0872665,-0.698132,-0.174533,-0.174533,-0.0980725,-0.690828,-0.170616,-0.196875,1.29673,-0.29215,-0.0979135,0.558557
23,45,-0.0872665,-0.698132,-0.174533,-0.174533,-0.0980725,-0.690828,-0.170616,-0.196875,1.29673,-0.29215,-0.0979135,0.558557
23,45,-0.0872665,-0.698132,-0.174533,-0.174533,-0.0980725,-0.690828,-0.170616,-0.196875,1.29673,-0.29215,-0.0979135,0.558557
23,45,-0.0872665,-0.698132,-0.174533,-0.174533,-0.0980725,-0.690828,-0.170616,-0.196875,1.29673,-0.29215,-0.0979135,0.558557
23,45,-0.0872665,-0.698132,-0.174533,-0.174533,-0.0980725,-0.690828,-0.170616,-0.196875,1.29673,-0.29215,-0.0979135,0.558557
23,45,-0.0872665,-0.698132,-0.174533,-0.174533,-0.0980725,-0.690828,-0.170683,-0.196918,1.29673,-0.29215,-0.096236,0.559626
23,45,-0.0872665,-0.698132,-0.174533,-0.174533,-0.0980725,-0.690828,-0.170683,-0.196918,1.29673,-0.29215,-0.096236,0.559626
23,45,-0.0872665,-0.698132,-0.174533,-0.174533,-0.0980725,-0.690828,-0.170683,-0.196918,1.29673,-0.29215,-0.096236,0.559626
23,45,-0.0872665,-0.698132,-0.174533,-0.174533,-0.0980725,-0.690828,-0.170683,-0.196918,1.29673,-0.29215,-0.096236,0.559626
23,45,-0.0872665,-0.698132,-0.174533,-0.174533,-0.0980725,-0.690828,-0.170683,-0.196918,1.29673,-0.29215,-0.096236,0.559626
23,45,-0.0872665,-0.698132,-0.174533,-0.174533,-0.0980725,-0.690828,-0.170683,-0.196918,1.29673,-0.29215,-0.096236,0.559626
23,45,-0.0872665,-0.698132,-0.174533,-0.174533,-0.0980725,-0.690828,-0.170683,-0.196918,1.29673,-0.29215,-0.096236,0.559626
23,45,-0.0872665,-0.698132,-0.174533,-0.174533,-0.0980725,-0.690828,-0.170683,-0.196918,1.29673,-0.29215,-0.096236,0.559626
23,45,-0.0872665,-0.698132,-0.174533,-0.174533,-0.0980725,-0.690828,-0.170683,-0.196918,1.29673,-0.29215,-0.096236,0.559626
23,45,-0.0872665,-0.698132,-0.174533,-0.174533,-0.0980725,-0.690828,-0.170683,-0.196918,1.29673,-0.29215,-0.096236,0.559626
23,45,-0.0872665,-0.698132,-0.174533,-0.174533,-0.0980725,-0.690828,-0.170683,-0.196918,1.29673,-0.29215,-0.096236,0.559626
23,45,-0.0872665,-0.698132,-0.174533,-0.174533,-0.0980725,-0.690828,-0.170683,-0.196918,1.29673,-0.29215,-0.096236,0.559626
23,45,-0.0872665,-0.698132,-0.174533,-0.174533,-0.0980725,-0.690828,-0.170683,-0.196918,1.29673,-0.29215,-0.096236,0.559626
23,45,-0.0872665,-0.698132,-0.174533,-0.174533,-0.0980725,-0.690828,-0.170683,-0.196918,1.29673,-0.29215,-0.096236,0.559626
23,45,-0.0872665,-0.698132,-0.174533,-0.174533,-0.0980725,-0.690828,-0.170683,-0.196918,1.29673,-0.29215,-0.096236,0.559626
23,45,-0.0872665,-0.698132,-0.174533,-0.174533,-0.0980725,-0.690828,-0.170683,-0.196918,1.29673,-0.29215,-0.096236,0.559626
23,45,-0.0872665,-0.698132,-0.174533,-0.174533,-0.0980725,-0.690828,-0.170683,-0.196918,1.29673,-0.29215,-0.096236,0.559626
23,45,-0.0872665,-0.698132,-0.174533,-0.174533,-0.0980725,-0.690828,-0.170683,-0.196918,1.29673,-0.29215,-0.096236,0.559626
23,45,-0.0872665,-0.698132,-0.174533,-0.174533,-0.0980725,-0.690828,-0.170683,-0.196918,1.29673,-0.29215,-0.096236,0.559626
23,45,-0.0872665,-0.698132,-0.174533,-0.174533,-0.0980725,-0.690828,-0.170683,-0.196918,1.29673,-0.29215,-0.096236,0.559626
23,45,-0.0872665,-0.698132,-0.174533,-0.174533,-0.0980725,-0.690828,-0.170683,-0.196918,1.29673,-0.29215,-0.096236,0.559626
23,45,-0.0872665,-0.698132,-0.174533,-0.174533,-0.0980725,-0.690828,-0.170683,-0.196918,1.29673,-0.29215,-0.096236,0.559626
23,45,-0.0872665,-0.698132,-0.174533,-0.174533,-0.0980725,-0.690828,-0.170683,-0.196918,1.29673,-0.29215,-0.096236,0.559626
23,45,-0.0872665,-0.698132,-0.174533,-0.174533,-0.0980725,-0.690828,-0.170683,-0.196918,1.29673,-0.29215,-0.096236,0.559626
23,45,-0.0872665,-0.698132,-0.174533,-0.174533,-0.0980725,-0.690828,-0.170683,-0.196918,1.29673,-0.29215,-0.096236,0.559626
23,45,-0.0872665,-0.698132,-0.174533,-0.174533,-0.0980725,-0.690828,-0.170683,-0.196918,1.29673,-0.29215,-0.096236,0.559626
23,45,-0.0872665,-0.698132,-0.174533,-0.174533,-0.0980725,-0.690828,-0.170683,-0.196918,1.29673,-0.29215,-0.096236,0.559626
23,45,-0.0872665,-0.698132,-0.174533,-0.174533,-0.0980725,-0.690828,-0.170683,-0.196918,1.29673,-0.29215,-0.096236,0.559626
23,45,-0.0872665,-0.698132,-0.174533,-0.174533,-0.0980725,-0.690828,-0.170683,-0.196918,1.29673,-0.29215,-0.096236,0.559626
23,45,-0.0872665,-0.698132,-0.174533,-0.174533,-0.0980725,-0.690828,-0.170683,-0.196918,1.29673,-0.29215,-0.096236,0.559626
23,45,-0.0872665,-0.698132,-0.174533,-0.174533,-0.0980725,-0.690828,-0.170683,-0.196918,1.29673,-0.29215,-0.096236,0.559626
23,45,-0.0872665,-0.698132,-0.174533,-0.174533,-0.0980725,-0.690828,-0.170683,-0.196918,1.29673,-0.29215,-0.096236,0.559626
23,45,-0.0872665,-0.698132,-0.174533,-0.174533,-0.0980725,-0.690828,-0.170683,-0.196918,1.29673,-0.29215,-0.096236,0.559626
23,45,-0.0872665,-0.698132,-0.174533,-0.174533,-0.0980725,-0.690828,-0.170683,-0.196918,1.29673,-0.29215,-0.096236,0.559626
23,45,-0.0872665,-0.698132,-0.174533,-0.174533,-0.0980725,-0.690828,-0.170683,-0.196918,1.29673,-0.29215,-0.096236,0.559626
23,45,-0.0872665,-0.698132,-0.174533,-0.174533,-0.0980725,-0.690828,-0.170683,-0.196918,1.29673,-0.29215,-0.096236,0.559626
23,45,-0.0872665,-0.698132,-0.174533,-0.174533,-0.0980725,-0.690828,-0.170683,-0.196918,1.29673,-0.29215,-0.096236,0.559626
23,45,-0.0872665,-0.698132,-0.174533,-0.174533,-0.0980725,-0.690828,-0.170683,-0.196918,1.29673,-0.29215,-0.096236,0.559626
23,45,-0.0872665,-0.698132,-0.174533,-0.174533,-0.0980725,-0.690828,-0.170683,-0.196918,1.29673,-0.29215,-0.096236,0.559626
23,45,-0.0872665,-0.698132,-0.174533,-0.174533,-0.0980725,-0.690828,-0.170683,-0.196918,1.29673,-0.29215,-0.096236,0.559626
23,45,-0.0872665,-0.698132,-0.174533,-0.174533,-0.0980725,-0.690828,-0.170683,-0.196918,1.29673,-0.29215,-0.096236,0.559626
23,45,-0.0872665,-0.698132,-0.174533,-0.174533,-0.0980725,-0.690828,-0.170683,-0.196918,1.29673,-0.29215,-0.096236,0.559626
23,45,-0.0872665,-0.698132,-0.174533,-0.174533,-0.0980725,-0.690828,-0.170683,-0.196918,1.29673,-0.29215,-0.096236,0.559626
23,45,-0.0872665,-0.698132,-0.174533,-0.174533,-0.0980725,-0.690828,-0.170683,-0.196918,1.29673,-0.29215,-0.096236,0.559626
23,45,-0.0872665,-0.698132,-0.174533,-0.174533,-0.0980725,-0.690828,-0.170683,-0.196918,1.29673,-0.29215,-0.096236,0.559626
23,45,-0.0872665,-0.698132,-0.174533,-0.174533,-0.0980725,-0.690828,-0.170683,-0.196918,1.29673,-0.29215,-0.096236,0.559626
23,45,-0.0872665,-0.698132,-0.174533,-0.174533,-0.0980725,-0.690828,-0.170683,-0.196918,1.29673,-0.29215,-0.096236,0.559626
23,45,-0.0872665,-0.698132,-0.174533,-0.174533,-0.0980725,-0.690828,-0.170683,-0.196918,1.29673,-0.29215,-0.096236,0.559626
23,45,-0.0872665,-0.698132,-0.174533,-0.174533,-0.0980725,-0.690828,-0.170683,-0.196918,1.29673,-0.29215,-0.096236,0.559626
23,45,-0.0872665,-0.698132,-0.174533,-0.174533,-0.0980725,-0.690828,-0.170683,-0.196918,1.29673,-0.29215,-0.096236,0.559626
23,45,-0.0872665,-0.698132,-0.174533,-0.174533,-0.0980725,-0.690828,-0.170683,-0.196918,1.29673,-0.29215,-0.096236,0.559626
23,45,-0.0872665,-0.698132,-0.174533,-0.174533,-0.0980725,-0.690828,-0.170683,-0.196918,1.29673,-0.29215,-0.096236,0.559626
23,45,-0.0872665,-0.698132,-0.174533,-0.174533,-0.0980725,-0.690828,-0.170683,-0.196918,1.29673,-0.29215,-0.096236,0.559626
23,45,-0.0872665,-0.698132,-0.174533,-0.174533,-0.0980725,-0.690828,-0.170683,-0.196918,1.29673,-0.29215,-0.096236,0.559626
23,45,-0.0872665,-0.698132,-0.174533,-0.174533,-0.0980725,-0.690828,-0.170683,-0.196918,1.29673,-0.29215,-0.096236,0.559626
23,45,-0.0872665,-0.698132,-0.174533,-0.174533,-0.0980725,-0.690828,-0.170683,-0.196918,1.29673,-0.29215,-0.096236,0.559626
23,45,-0.0872665,-0.698132,-0.174533,-0.174533,-0.0980725,-0.690828,-0.170683,-0.196918,1.29673,-0.29215,-0.096236,0.559626
23,45,-0.0872665,-0.698132,-0.174533,-0.174533,-0.0980725,-0.690828,-0.170683,-0.196918,1.29673,-0.29215,-0.096236,0.559626
23,45,-0.0872665,-0.698132,-0.174533,-0.174533,-0.0980725,-0.690828,-0.170683,-0.196918,1.29673,-0.29215,-0.096236,0.559626
23,45,-0.0872665,-0.698132,-0.174533,-0.174533,-0.0980725,-0.690828,-0.170683,-0.196918,1.29673,-0.29215,-0.096236,0.559626
23,45,-0.0872665,-0.698132,-0.174533,-0.174533,-0.0980725,-0.690828,-0.170683,-0.196918,1.29673,-0.29215,-0.096236,0.559626
23,45,-0.0872665,-0.698132,-0.174533,-0.174533,-0.0980725,-0.690828,-0.170683,-0.196918,1.29673,-0.29215,-0.096236,0.559626
23,45,-0.0872665,-0.698132,-0.174533,-0.174533,-0.0980725,-0.690828,-0.170683,-0.196918,1.29673,-0.29215,-0.096236,0.559626
23,45,-0.0872665,-0.698132,-0.174533,-0.174533,-0.0980725,-0.690828,-0.170683,-0.196918,1.29673,-0.29215,-0.096236,0.559626
23,45,-0.0872665,-0.698132,-0.174533,-0.174533,-0.0980725,-0.690828,-0.170683,-0.196918,1.29673,-0.29215,-0.096236,0.559626
23,45,-0.0872665,-0.698132,-0.174533,-0.174533,-0.0980725,-0.690828,-0.170683,-0.196918,1.29673,-0.29215,-0.096236,0.559626
23,45,-0.0872665,-0.698132,-0.174533,-0.174533,-0.0980725,-0.690828,-0.170683,-0.196918,1.29673,-0.29215,-0.096236,0.559626
23,45,-0.0872665,-0.698132,-0.174533,-0.174533,-0.0980725,-0.690828,-0.170683,-0.196918,1.29673,-0.29215,-0.096236,0.559626
23,45,-0.0872665,-0.698132,-0.174533,-0.174533,-0.0980725,-0.690828,-0.170683,-0.196918,1.29673,-0.29215,-0.096236,0.559626
23,45,-0.0872665,-0.698132,-0.174533,-0.174533,-0.0980725,-0.690828,-0.170683,-0.196918,1.29673,-0.29215,-0.096236,0.559626
23,45,-0.0872665,-0.698132,-0.174533,-0.174533,-0.0980725,-0.690828,-0.170683,-0.196918,1.29673,-0.29215,-0.096236,0.559626
23,45,-0.0872665,-0.698132,-0.174533,-0.174533,-0.0980725,-0.690828,-0.170683,-0.196918,1.29673,-0.29215,-0.096236,0.559626
23,45,-0.0872665,-0.698132,-0.174533,-0.174533,-0.0980725,-0.690828,-0.170683,-0.196918,1.29673,-0.29215,-0.096236,0.559626
23,45,-0.0872665,-0.698132,-0.174533,-0.174533,-0.0980725,-0.690828,-0.170683,-0.196918,1.29673,-0.29215,-0.096236,0.559626
23,45,-0.0872665,-0.698132,-0.174533,-0.174533,-0.0980725,-0.690828,-0.170683,-0.196918,1.29673,-0.29215,-0.096236,0.559626
23,45,-0.0872665,-0.698132,-0.174533,-0.174533,-0.0980725,-0.690828,-0.170683,-0.196918,1.29673,-0.29215,-0.096236,0.559626
23,45,-0.0872665,-0.698132,-0.174533,-0.174533,-0.0980725,-0.690828,-0.170683,-0.196918,1.29673,-0.29215,-0.096236,0.559626
23,45,-0.0872665,-0.698132,-0.174533,-0.174533,-0.0980725,-0.690828,-0.170683,-0.196918,1.29673,-0.29215,-0.096236,0.559626
23,45,-0.0872665,-0.698132,-0.174533,-0.174533,-0.0980725,-0.690828,-0.170683,-0.196918,1.29673,-0.29215,-0.096236,0.559626
23,45,-0.0872665,-0.698132,-0.174533,-0.174533,-0.0980725,-0.690828,-0.170683,-0.196918,1.29673,-0.29215,-0.096236,0.559626
23,45,-0.0872665,-0.698132,-0.174533,-0.174533,-0.0980725,-0.690828,-0.170683,-0.196918,1.29673,-0.29215,-0.096236,0.559626
23,45,-0.0872665,-0.698132,-0.174533,-0.174533,-0.0980725,-0.690828,-0.170683,-0.196918,1.29673,-0.29215,-0.096236,0.559626
23,45,-0.0872665,-0.698132,-0.174533,-0.174533,-0.0980725,-0.690828,-0.170683,-0.196918,1.29673,-0.29215,-0.096236,0.559626
23,45,-0.0872665,-0.698132,-0.174533,-0.174533,-0.0980725,-0.690828,-0.170683,-0.196918,1.29673,-0.29215,-0.096236,0.559626
23,45,-0.0872665,-0.698132,-0.174533,-0.174533,-0.0980725,-0.690828,-0.170683,-0.196918,1.29673,-0.29215,-0.096236,0.559626
23,45,-0.0872665,-0.698132,-0.174533,-0.174533,-0.0980725,-0.690828,-0.170683,-0.196918,1.29673,-0.29215,-0.096236,0.559626
23,45,-0.0872665,-0.698132,-0.174533,-0.174533,-0.0980725,-0.690828,-0.170683,-0.196918,1.29673,-0.29215,-0.096236,0.559626
23,45,-0.0872665,-0.698132,-0.174533,-0.174533,-0.0980725,-0.690828,-0.170683,-0.196918,1.29673,-0.29215,-0.096236,0.559626
23,45,-0.0872665,-0.698132,-0.174533,-0.174533,-0.0980725,-0.690828,-0.170683,-0.196918,1.29673,-0.29215,-0.096236,0.559626
23,45,-0.0872665,-0.698132,-0.174533,-0.174533,-0.0980725,-0.690828,-0.170683,-0.196918,1.29673,-0.29215,-0.096236,0.559626
23,45,-0.0872665,-0.698132,-0.174533,-0.174533,-0.0980725,-0.690828,-0.170683,-0.196918,1.29673,-0.29215,-0.096236,0.559626
23,45,-0.0872665,-0.698132,-0.174533,-0.174533,-0.0980725,-0.690828,-0.170683,-0.196918,1.29673,-0.29215,-0.096236,0.559626
23,45,-0.0872665,-0.698132,-0.174533,-0.174533,-0.0980725,-0.690828,-0.170683,-0.196918,1.29673,-0.29215,-0.096236,0.559626
23,45,-0.0872665,-0.698132,-0.174533,-0.174533,-0.0980725,-0.690828,-0.170683,-0.196918,1.29673,-0.29215,-0.096236,0.559626
23,45,-0.0872665,-0.698132,-0.174533,-0.174533,-0.0980725,-0.690828,-0.170683,-0.196918,1.29673,-0.29215,-0.096236,0.559626
23,45,-0.0872665,-0.698132,-0.174533,-0.174533,-0.0980725,-0.690828,-0.170683,-0.196918,1.29673,-0.29215,-0.096236,0.559626
23,45,-0.0872665,-0.698132,-0.174533,-0.174533,-0.0980725,-0.690828,-0.170683,-0.196918,1.29673,-0.29215,-0.096236,0.559626
23,45,-0.0872665,-0.698132,-0.174533,-0.174533,-0.0980725,-0.690828,-0.170683,-0.196918,1.29673,-0.29215,-0.096236,0.559626
23,45,-0.0872665,-0.698132,-0.174533,-0.174533,-0.0980725,-0.690828,-0.170683,-0.196918,1.29673,-0.29215,-0.096236,0.559626
23,45,-0.0872665,-0.698132,-0.174533,-0.174533,-0.0980725,-0.690828,-0.170683,-0.196918,1.29673,-0.29215,-0.096236,0.559626
23,45,-0.0872665,-0.698132,-0.174533,-0.174533,-0.0980725,-0.690828,-0.170683,-0.196918,1.29673,-0.29215,-0.096236,0.559626
23,45,-0.0872665,-0.698132,-0.174533,-0.174533,-0.0980725,-0.690828,-0.170683,-0.196918,1.29673,-0.29215,-0.096236,0.559626
23,45,-0.0872665,-0.698132,-0.174533,-0.174533,-0.0980725,-0.690828,-0.170683,-0.196918,1.29673,-0.29215,-0.096236,0.559626
23,45,-0.0872665,-0.698132,-0.174533,-0.174533,-0.0980725,-0.690828,-0.170683,-0.196918,1.29673,-0.29215,-0.096236,0.559626
23,45,-0.0872665,-0.698132,-0.174533,-0.174533,-0.0980725,-0.690828,-0.170683,-0.196918,1.29673,-0.29215,-0.096236,0.559626
23,45,-0.0872665,-0.698132,-0.174533,-0.174533,-0.0980725,-0.690828,-0.170683,-0.196918,1.29673,-0.29215,-0.096236,0.559626
23,45,-0.0872665,-0.698132,-0.174533,-0.174533,-0.0980725,-0.690828,-0.170683,-0.196918,1.29673,-0.29215,-0.096236,0.559626
23,45,-0.0872665,-0.698132,-0.174533,-0.174533,-0.0980725,-0.690828,-0.170683,-0.196918,1.29673,-0.29215,-0.096236,0.559626
23,45,-0.0872665,-0.698132,-0.174533,-0.174533,-0.0980725,-0.690828,-0.170683,-0.196918,1.29673,-0.29215,-0.096236,0.559626
23,45,-0.0872665,-0.698132,-0.174533,-0.174533,-0.0980725,-0.690828,-0.170683,-0.196918,1.29673,-0.29215,-0.096236,0.559626
23,45,-0.0872665,-0.698132,-0.174533,-0.174533,-0.0980725,-0.690828,-0.170683,-0.196918,1.29673,-0.29215,-0.096236,0.559626
23,45,-0.0872665,-0.698132,-0.174533,-0.174533,-0.0980725,-0.690828,-0.170683,-0.196918,1.29673,-0.29215,-0.096236,0.559626
23,45,-0.0872665,-0.698132,-0.174533,-0.174533,-0.0980725,-0.690828,-0.170683,-0.196918,1.29673,-0.29215,-0.096236,0.559626
23,45,-0.0872665,-0.698132,-0.174533,-0.174533,-0.0980725,-0.690828,-0.170683,-0.196918,1.29673,-0.29215,-0.096236,0.559626
23,45,-0.0872665,-0.698132,-0.174533,-0.174533,-0.0980725,-0.690828,-0.170683,-0.196918,1.29673,-0.29215,-0.096236,0.559626
23,45,-0.0872665,-0.698132,-0.174533,-0.174533,-0.0980725,-0.690828,-0.170683,-0.196918,1.29673,-0.29215,-0.096236,0.559626
23,45,-0.0872665,-0.698132,-0.174533,-0.174533,-0.0980725,-0.690828,-0.170751,-0.196961,1.29673,-0.29215,-0.0945583,0.560694
23,45,-0.0872665,-0.698132,-0.174533,-0.174533,-0.0980725,-0.690828,-0.170751,-0.196961,1.29673,-0.29215,-0.0945583,0.560694
23,45,-0.0872665,-0.698132,-0.174533,-0.174533,-0.0980725,-0.690828,-0.170751,-0.196961,1.29673,-0.29215,-0.0945583,0.560694
23,45,-0.0872665,-0.698132,-0.174533,-0.174533,-0.0980725,-0.690828,-0.170751,-0.196961,1.29673,-0.29215,-0.0945583,0.560694
23,45,-0.0872665,-0.698132,-0.174533,-0.174533,-0.0980725,-0.690828,-0.170751,-0.196961,1.29673,-0.29215,-0.0945583,0.560694
23,45,-0.0872665,-0.698132,-0.174533,-0.174533,-0.0980725,-0.690828,-0.170751,-0.196961,1.29673,-0.29215,-0.0945583,0.560694
23,45,-0.0872665,-0.698132,-0.174533,-0.174533,-0.0980725,-0.690828,-0.170751,-0.196961,1.29673,-0.29215,-0.0945583,0.560694
23,45,-0.0872665,-0.698132,-0.174533,-0.174533,-0.0980725,-0.690828,-0.170751,-0.196961,1.29673,-0.29215,-0.0945583,0.560694
23,45,-0.0872665,-0.698132,-0.174533,-0.174533,-0.0980725,-0.690828,-0.170751,-0.196961,1.29673,-0.29215,-0.0945583,0.560694
23,45,-0.0872665,-0.698132,-0.174533,-0.174533,-0.0980725,-0.690828,-0.170751,-0.196961,1.29673,-0.29215,-0.0945583,0.560694
23,45,-0.0872665,-0.698132,-0.174533,-0.174533,-0.0980725,-0.690828,-0.170751,-0.196961,1.29673,-0.29215,-0.0945583,0.560694
23,45,-0.0872665,-0.698132,-0.174533,-0.174533,-0.0980725,-0.690828,-0.170751,-0.196961,1.29673,-0.29215,-0.0945583,0.560694
23,45,-0.0872665,-0.698132,-0.174533,-0.174533,-0.0980725,-0.690828,-0.170751,-0.196961,1.29673,-0.29215,-0.0945583,0.560694
23,45,-0.0872665,-0.698132,-0.174533,-0.174533,-0.0980725,-0.690828,-0.170751,-0.196961,1.29673,-0.29215,-0.0945583,0.560694
23,45,-0.0872665,-0.698132,-0.174533,-0.174533,-0.0980725,-0.690828,-0.170751,-0.196961,1.29673,-0.29215,-0.0945583,0.560694
23,45,-0.0872665,-0.698132,-0.174533,-0.174533,-0.0980725,-0.690828,-0.170751,-0.196961,1.29673,-0.29215,-0.0945583,0.560694
23,45,-0.0872665,-0.698132,-0.174533,-0.174533,-0.0980725,-0.690828,-0.170751,-0.196961,1.29673,-0.29215,-0.0945583,0.560694
23,45,-0.0872665,-0.698132,-0.174533,-0.174533,-0.0980725,-0.690828,-0.170751,-0.196961,1.29673,-0.29215,-0.0945583,0.560694
23,45,-0.0872665,-0.698132,-0.174533,-0.174533,-0.0980725,-0.690828,-0.170751,-0.196961,1.29673,-0.29215,-0.0945583,0.560694
23,45,-0.0872665,-0.698132,-0.174533,-0.174533,-0.0980725,-0.690828,-0.170751,-0.196961,1.29673,-0.29215,-0.0945583,0.560694
23,45,-0.0872665,-0.698132,-0.174533,-0.174533,-0.0980725,-0.690828,-0.170751,-0.196961,1.29673,-0.29215,-0.0945583,0.560694
23,45,-0.0872665,-0.698132,-0.174533,-0.174533,-0.0980725,-0.690828,-0.170751,-0.196961,1.29673,-0.29215,-0.0945583,0.560694
23,45,-0.0872665,-0.698132,-0.174533,-0.174533,-0.0980725,-0.690828,-0.170751,-0.196961,1.29673,-0.29215,-0.0945583,0.560694
23,45,-0.0872665,-0.698132,-0.174533,-0.174533,-0.0980725,-0.690828,-0.170751,-0.196961,1.29673,-0.29215,-0.0945583,0.560694
23,45,-0.0872665,-0.698132,-0.174533,-0.174533,-0.0980725,-0.690828,-0.170751,-0.196961,1.29673,-0.29215,-0.0945583,0.560694
23,45,-0.0872665,-0.698132,-0.174533,-0.174533,-0.0980725,-0.690828,-0.170751,-0.196961,1.29673,-0.29215,-0.0945583,0.560694
23,45,-0.0872665,-0.698132,-0.174533,-0.174533,-0.0980725,-0.690828,-0.170751,-0.196961,1.29673,-0.29215,-0.0945583,0.560694
23,45,-0.0872665,-0.698132,-0.174533,-0.174533,-0.0980725,-0.690828,-0.170751,-0.196961,1.29673,-0.29215,-0.0945583,0.560694
23,45,-0.0872665,-0.698132,-0.174533,-0.174533,-0.0980725,-0.690828,-0.170751,-0.196961,1.29673,-0.29215,-0.0945583,0.560694
23,45,-0.0872665,-0.698132,-0.174533,-0.174533,-0.0980725,-0.690828,-0.170751,-0.196961,1.29673,-0.29215,-0.0945583,0.560694
23,45,-0.0872665,-0.698132,-0.174533,-0.174533,-0.0980725,-0.690828,-0.170751,-0.196961,1.29673,-0.29215,-0.0945583,0.560694
23,45,-0.0872665,-0.698132,-0.174533,-0.174533,-0.0980725,-0.690828,-0.170751,-0.196961,1.29673,-0.29215,-0.0945583,0.560694
23,45,-0.0872665,-0.698132,-0.174533,-0.174533,-0.0980725,-0.690828,-0.170751,-0.196961,1.29673,-0.29215,-0.0945583,0.560694
23,45,-0.0872665,-0.698132,-0.174533,-0.174533,-0.0980725,-0.690828,-0.170751,-0.196961,1.29673,-0.29215,-0.0945583,0.560694
23,45,-0.0872665,-0.698132,-0.174533,-0.174533,-0.0980725,-0.690828,-0.170751,-0.196961,1.29673,-0.29215,-0.0945583,0.560694
23,45,-0.0872665,-0.698132,-0.174533,-0.174533,-0.0980725,-0.690828,-0.170751,-0.196961,1.29673,-0.29215,-0.0945583,0.560694
23,45,-0.0872665,-0.698132,-0.174533,-0.174533,-0.0980725,-0.690828,-0.170751,-0.196961,1.29673,-0.29215,-0.0945583,0.560694
23,45,-0.0872665,-0.698132,-0.174533,-0.174533,-0.0980725,-0.690828,-0.170751,-0.196961,1.29673,-0.29215,-0.0945583,0.560694
23,45,-0.0872665,-0.698132,-0.174533,-0.174533,-0.0980725,-0.690828,-0.170751,-0.196961,1.29673,-0.29215,-0.0945583,0.560694
23,45,-0.0872665,-0.698132,-0.174533,-0.174533,-0.0980725,-0.690828,-0.170751,-0.196961,1.29673,-0.29215,-0.0945583,0.560694
23,45,-0.0872665,-0.698132,-0.174533,-0.174533,-0.0980725,-0.690828,-0.170751,-0.196961,1.29673,-0.29215,-0.0945583,0.560694
23,45,-0.0872665,-0.698132,-0.174533,-0.174533,-0.0980725,-0.690828,-0.170751,-0.196961,1.29673,-0.29215,-0.0945583,0.560694
23,45,-0.0872665,-0.698132,-0.174533,-0.174533,-0.0980725,-0.690828,-0.170751,-0.196961,1.29673,-0.29215,-0.0945583,0.560694
23,45,-0.0872665,-0.698132,-0.174533,-0.174533,-0.0980725,-0.690828,-0.170751,-0.196961,1.29673,-0.29215,-0.0945583,0.560694
23,45,-0.0872665,-0.698132,-0.174533,-0.174533,-0.0980725,-0.690828,-0.170751,-0.196961,1.29673,-0.29215,-0.0945583,0.560694
23,45,-0.0872665,-0.698132,-0.174533,-0.174533,-0.0980725,-0.690828,-0.170751,-0.196961,1.29673,-0.29215,-0.0945583,0.560694
23,45,-0.0872665,-0.698132,-0.174533,-0.174533,-0.0980725,-0.690828,-0.170751,-0.196961,1.29673,-0.29215,-0.0945583,0.560694
23,45,-0.0872665,-0.698132,-0.174533,-0.174533,-0.0980725,-0.690828,-0.170751,-0.196961,1.29673,-0.29215,-0.0945583,0.560694
23,45,-0.0872665,-0.698132,-0.174533,-0.174533,-0.0980725,-0.690828,-0.170751,-0.196961,1.29673,-0.29215,-0.0945583,0.560694
23,45,-0.0872665,-0.698132,-0.174533,-0.174533,-0.0980725,-0.690828,-0.170751,-0.196961,1.29673,-0.29215,-0.0945583,0.560694
23,45,-0.0872665,-0.698132,-0.174533,-0.174533,-0.0980725,-0.690828,-0.170751,-0.196961,1.29673,-0.29215,-0.0945583,0.560694
23,45,-0.0872665,-0.698132,-0.174533,-0.174533,-0.0980725,-0.690828,-0.170751,-0.196961,1.29673,-0.29215,-0.0945583,0.560694
23,45,-0.0872665,-0.698132,-0.174533,-0.174533,-0.0980725,-0.690828,-0.170751,-0.196961,1.29673,-0.29215,-0.0945583,0.560694
23,45,-0.0872665,-0.698132,-0.174533,-0.174533,-0.0980725,-0.690828,-0.170751,-0.196961,1.29673,-0.29215,-0.0945583,0.560694
23,45,-0.0872665,-0.698132,-0.174533,-0.174533,-0.0980725,-0.690828,-0.170751,-0.196961,1.29673,-0.29215,-0.0945583,0.560694
23,45,-0.0872665,-0.698132,-0.174533,-0.174533,-0.0980725,-0.690828,-0.170751,-0.196961,1.29673,-0.29215,-0.0945583,0.560694
23,45,-0.0872665,-0.698132,-0.174533,-0.174533,-0.0980725,-0.690828,-0.170751,-0.196961,1.29673,-0.29215,-0.0945583,0.560694
23,45,-0.0872665,-0.698132,-0.174533,-0.174533,-0.0980725,-0.690828,-0.170751,-0.196961,1.29673,-0.29215,-0.0945583,0.560694
23,45,-0.0872665,-0.698132,-0.174533,-0.174533,-0.0980725,-0.690828,-0.170751,-0.196961,1.29673,-0.29215,-0.0945583,0.560694
23,45,-0.0872665,-0.698132,-0.174533,-0.174533,-0.0980725,-0.690828,-0.170751,-0.196961,1.29673,-0.29215,-0.0945583,0.560694
23,45,-0.0872665,-0.698132,-0.174533,-0.174533,-0.0980725,-0.690828,-0.170751,-0.196961,1.29673,-0.29215,-0.0945583,0.560694
23,45,-0.0872665,-0.698132,-0.174533,-0.174533,-0.0980725,-0.690828,-0.170751,-0.196961,1.29673,-0.29215,-0.0945583,0.560694
23,45,-0.0872665,-0.698132,-0.174533,-0.174533,-0.0980725,-0.690828,-0.170751,-0.196961,1.29673,-0.29215,-0.0945583,0.560694
23,45,-0.0872665,-0.698132,-0.174533,-0.174533,-0.0980725,-0.690828,-0.170751,-0.196961,1.29673,-0.29215,-0.0945583,0.560694
23,45,-0.0872665,-0.698132,-0.174533,-0.174533,-0.0980725,-0.690828,-0.170751,-0.196961,1.29673,-0.29215,-0.0945583,0.560694
23,45,-0.0872665,-0.698132,-0.174533,-0.174533,-0.0980725,-0.690828,-0.170751,-0.196961,1.29673,-0.29215,-0.0945583,0.560694
23,45,-0.0872665,-0.698132,-0.174533,-0.174533,-0.0980725,-0.690828,-0.170751,-0.196961,1.29673,-0.29215,-0.0945583,0.560694
23,45,-0.0872665,-0.698132,-0.174533,-0.174533,-0.0980725,-0.690828,-0.170751,-0.196961,1.29673,-0.29215,-0.0945583,0.560694
23,45,-0.0872665,-0.698132,-0.174533,-0.174533,-0.0980725,-0.690828,-0.170751,-0.196961,1.29673,-0.29215,-0.0945583,0.560694
23,45,-0.0872665,-0.698132,-0.174533,-0.174533,-0.0980725,-0.690828,-0.170751,-0.196961,1.29673,-0.29215,-0.0945583,0.560694
23,45,-0.0872665,-0.698132,-0.174533,-0.174533,-0.0980725,-0.690828,-0.170751,-0.196961,1.29673,-0.29215,-0.0945583,0.560694
23,45,-0.0872665,-0.698132,-0.174533,-0.174533,-0.0980725,-0.690828,-0.170751,-0.196961,1.29673,-0.29215,-0.0945583,0.560694
23,45,-0.0872665,-0.698132,-0.174533,-0.174533,-0.0980725,-0.690828,-0.170751,-0.196961,1.29673,-0.29215,-0.0945583,0.560694
23,45,-0.0872665,-0.698132,-0.174533,-0.174533,-0.0980725,-0.690828,-0.170751,-0.196961,1.29673,-0.29215,-0.0945583,0.560694
23,45,-0.0872665,-0.698132,-0.174533,-0.174533,-0.0980725,-0.690828,-0.170751,-0.196961,1.29673,-0.29215,-0.0945583,0.560694
23,45,-0.0872665,-0.698132,-0.174533,-0.174533,-0.0980725,-0.690828,-0.170751,-0.196961,1.29673,-0.29215,-0.0945583,0.560694
23,45,-0.0872665,-0.698132,-0.174533,-0.174533,-0.0980725,-0.690828,-0.170751,-0.196961,1.29673,-0.29215,-0.0945583,0.560694
23,45,-0.0872665,-0.698132,-0.174533,-0.174533,-0.0980725,-0.690828,-0.170751,-0.196961,1.29673,-0.29215,-0.0945583,0.560694
23,45,-0.0872665,-0.698132,-0.174533,-0.174533,-0.0980725,-0.690828,-0.170751,-0.196961,1.29673,-0.29215,-0.0945583,0.560694
23,45,-0.0872665,-0.698132,-0.174533,-0.174533,-0.0980725,-0.690828,-0.170751,-0.196961,1.29673,-0.29215,-0.0945583,0.560694
23,45,-0.0872665,-0.698132,-0.174533,-0.174533,-0.0980725,-0.690828,-0.170751,-0.196961,1.29673,-0.29215,-0.0945583,0.560694
23,45,-0.0872665,-0.698132,-0.174533,-0.174533,-0.0980725,-0.690828,-0.170751,-0.196961,1.29673,-0.29215,-0.0945583,0.560694
23,45,-0.0872665,-0.698132,-0.174533,-0.174533,-0.0980725,-0.690828,-0.170751,-0.196961,1.29673,-0.29215,-0.0945583,0.560694
23,45,-0.0872665,-0.698132,-0.174533,-0.174533,-0.0980725,-0.690828,-0.170751,-0.196961,1.29673,-0.29215,-0.0945583,0.560694
23,45,-0.0872665,-0.698132,-0.174533,-0.174533,-0.0980725,-0.690828,-0.170751,-0.196961,1.29673,-0.29215,-0.0945583,0.560694
23,45,-0.0872665,-0.698132,-0.174533,-0.174533,-0.0980725,-0.690828,-0.170751,-0.196961,1.29673,-0.29215,-0.0945583,0.560694
23,45,-0.0872665,-0.698132,-0.174533,-0.174533,-0.0980725,-0.690828,-0.170751,-0.196961,1.29673,-0.29215,-0.0945583,0.560694
23,45,-0.0872665,-0.698132,-0.174533,-0.174533,-0.0980725,-0.690828,-0.170751,-0.196961,1.29673,-0.29215,-0.0945583,0.560694
23,45,-0.0872665,-0.698132,-0.174533,-0.174533,-0.0980725,-0.690828,-0.170751,-0.196961,1.29673,-0.29215,-0.0945583,0.560694
23,45,-0.0872665,-0.698132,-0.174533,-0.174533,-0.0980725,-0.690828,-0.170751,-0.196961,1.29673,-0.29215,-0.0945583,0.560694
23,45,-0.0872665,-0.698132,-0.174533,-0.174533,-0.0980725,-0.690828,-0.170751,-0.196961,1.29673,-0.29215,-0.0945583,0.560694
23,45,-0.0872665,-0.698132,-0.174533,-0.174533,-0.0980725,-0.690828,-0.170751,-0.196961,1.29673,-0.29215,-0.0945583,0.560694
23,45,-0.0872665,-0.698132,-0.174533,-0.174533,-0.0980725,-0.690828,-0.170751,-0.196961,1.29673,-0.29215,-0.0945583,0.560694
23,45,-0.0872665,-0.698132,-0.174533,-0.174533,-0.0980725,-0.690828,-0.170751,-0.196961,1.29673,-0.29215,-0.0945583,0.560694
23,45,-0.0872665,-0.698132,-0.174533,-0.174533,-0.0980725,-0.690828,-0.170751,-0.196961,1.29673,-0.29215,-0.0945583,0.560694
23,45,-0.0872665,-0.698132,-0.174533,-0.174533,-0.0980725,-0.690828,-0.170751,-0.196961,1.29673,-0.29215,-0.0945583,0.560694
23,45,-0.0872665,-0.698132,-0.174533,-0.174533,-0.0980725,-0.690828,-0.170751,-0.196961,1.29673,-0.29215,-0.0945583,0.560694
23,45,-0.0872665,-0.698132,-0.174533,-0.174533,-0.0980725,-0.690828,-0.170751,-0.196961,1.29673,-0.29215,-0.0945583,0.560694
23,45,-0.0872665,-0.698132,-0.174533,-0.174533,-0.0980725,-0.690828,-0.170751,-0.196961,1.29673,-0.29215,-0.0945583,0.560694
23,45,-0.0872665,-0.698132,-0.174533,-0.174533,-0.0980725,-0.690828,-0.170751,-0.196961,1.29673,-0.29215,-0.0945583,0.560694
23,45,-0.0872665,-0.698132,-0.174533,-0.174533,-0.0980725,-0.690828,-0.170751,-0.196961,1.29673,-0.29215,-0.0945583,0.560694
23,45,-0.0872665,-0.698132,-0.174533,-0.174533,-0.0980725,-0.690828,-0.170751,-0.196961,1.29673,-0.29215,-0.0945583,0.560694
23,45,-0.0872665,-0.698132,-0.174533,-0.174533,-0.0980725,-0.690828,-0.170751,-0.196961,1.29673,-0.29215,-0.0945583,0.560694
23,45,-0.0872665,-0.698132,-0.174533,-0.174533,-0.0980725,-0.690828,-0.170751,-0.196961,1.29673,-0.29215,-0.0945583,0.560694
23,45,-0.0872665,-0.698132,-0.174533,-0.174533,-0.0980725,-0.690828,-0.170751,-0.196961,1.29673,-0.29215,-0.0945583,0.560694
23,45,-0.0872665,-0.698132,-0.174533,-0.174533,-0.0980725,-0.690828,-0.170751,-0.196961,1.29673,-0.29215,-0.0945583,0.560694
23,45,-0.0872665,-0.698132,-0.174533,-0.174533,-0.0980725,-0.690828,-0.170751,-0.196961,1.29673,-0.29215,-0.0945583,0.560694
23,45,-0.0872665,-0.698132,-0.174533,-0.174533,-0.0980725,-0.690828,-0.170751,-0.196961,1.29673,-0.29215,-0.0945583,0.560694
23,45,-0.0872665,-0.698132,-0.174533,-0.174533,-0.0980725,-0.690828,-0.170751,-0.196961,1.29673,-0.29215,-0.0945583,0.560694
23,45,-0.0872665,-0.698132,-0.174533,-0.174533,-0.0980725,-0.690828,-0.170751,-0.196961,1.29673,-0.29215,-0.0945583,0.560694
23,45,-0.0872665,-0.698132,-0.174533,-0.174533,-0.0980725,-0.690828,-0.170751,-0.196961,1.29673,-0.29215,-0.0945583,0.560694
23,45,-0.0872665,-0.698132,-0.174533,-0.174533,-0.0980725,-0.690828,-0.170751,-0.196961,1.29673,-0.29215,-0.0945583,0.560694
23,45,-0.0872665,-0.698132,-0.174533,-0.174533,-0.0980725,-0.690828,-0.170751,-0.196961,1.29673,-0.29215,-0.0945583,0.560694
23,45,-0.0872665,-0.698132,-0.174533,-0.174533,-0.0980725,-0.690828,-0.170751,-0.196961,1.29673,-0.29215,-0.0945583,0.560694
23,45,-0.0872665,-0.698132,-0.174533,-0.174533,-0.0980725,-0.690828,-0.170751,-0.196961,1.29673,-0.29215,-0.0945583,0.560694
23,45,-0.0872665,-0.698132,-0.174533,-0.174533,-0.0980725,-0.690828,-0.170751,-0.196961,1.29673,-0.29215,-0.0945583,0.560694
23,45,-0.0872665,-0.698132,-0.174533,-0.174533,-0.0980725,-0.690828,-0.170751,-0.196961,1.29673,-0.29215,-0.0945583,0.560694
23,45,-0.0872665,-0.698132,-0.174533,-0.174533,-0.0980725,-0.690828,-0.170751,-0.196961,1.29673,-0.29215,-0.0945583,0.560694
23,45,-0.0872665,-0.698132,-0.174533,-0.174533,-0.0980725,-0.690828,-0.170751,-0.196961,1.29673,-0.29215,-0.0945583,0.560694
23,45,-0.0872665,-0.698132,-0.174533,-0.174533,-0.0980725,-0.690828,-0.170751,-0.196961,1.29673,-0.29215,-0.0945583,0.560694
23,45,-0.0872665,-0.698132,-0.174533,-0.174533,-0.0980725,-0.690828,-0.170751,-0.196961,1.29673,-0.29215,-0.0945583,0.560694
23,45,-0.0872665,-0.698132,-0.174533,-0.174533,-0.0980725,-0.690828,-0.170751,-0.196961,1.29673,-0.29215,-0.0945583,0.560694
23,45,-0.0872665,-0.698132,-0.174533,-0.174533,-0.0980725,-0.690828,-0.170751,-0.196961,1.29673,-0.29215,-0.0945583,0.560694
23,45,-0.0872665,-0.698132,-0.174533,-0.174533,-0.0980725,-0.690828,-0.170751,-0.196961,1.29673,-0.29215,-0.0945583,0.560694
23,45,-0.0872665,-0.698132,-0.174533,-0.174533,-0.0980725,-0.690828,-0.170751,-0.196961,1.29673,-0.29215,-0.0945583,0.560694
23,45,-0.0872665,-0.698132,-0.174533,-0.174533,-0.0980725,-0.690828,-0.170751,-0.196961,1.29673,-0.29215,-0.0945583,0.560694
23,45,-0.0872665,-0.698132,-0.174533,-0.174533,-0.0980725,-0.690828,-0.170751,-0.196961,1.29673,-0.29215,-0.0945583,0.560694
23,45,-0.0872665,-0.698132,-0.174533,-0.174533,-0.0980725,-0.690828,-0.170751,-0.196961,1.29673,-0.29215,-0.0945583,0.560694
23,45,-0.0872665,-0.698132,-0.174533,-0.174533,-0.0980725,-0.690828,-0.170747,-0.196901,1.29673,-0.29215,-0.0946419,0.559205
23,45,-0.0872665,-0.698132,-0.174533,-0.174533,-0.0980725,-0.690828,-0.170747,-0.196901,1.29673,-0.29215,-0.0946419,0.559205
23,45,-0.0872665,-0.698132,-0.174533,-0.174533,-0.0980725,-0.690828,-0.170747,-0.196901,1.29673,-0.29215,-0.0946419,0.559205
23,45,-0.0872665,-0.698132,-0.174533,-0.174533,-0.0980725,-0.690828,-0.170747,-0.196901,1.29673,-0.29215,-0.0946419,0.559205
23,45,-0.0872665,-0.698132,-0.174533,-0.174533,-0.0980725,-0.690828,-0.170747,-0.196901,1.29673,-0.29215,-0.0946419,0.559205
23,45,-0.0872665,-0.698132,-0.174533,-0.174533,-0.0980725,-0.690828,-0.170747,-0.196901,1.29673,-0.29215,-0.0946419,0.559205
23,45,-0.0872665,-0.698132,-0.174533,-0.174533,-0.0980725,-0.690828,-0.170747,-0.196901,1.29673,-0.29215,-0.0946419,0.559205
23,45,-0.0872665,-0.698132,-0.174533,-0.174533,-0.0980725,-0.690828,-0.170747,-0.196901,1.29673,-0.29215,-0.0946419,0.559205
23,45,-0.0872665,-0.698132,-0.174533,-0.174533,-0.0980725,-0.690828,-0.170747,-0.196901,1.29673,-0.29215,-0.0946419,0.559205
23,45,-0.0872665,-0.698132,-0.174533,-0.174533,-0.0980725,-0.690828,-0.170747,-0.196901,1.29673,-0.29215,-0.0946419,0.559205
23,45,-0.0872665,-0.698132,-0.174533,-0.174533,-0.0980725,-0.690828,-0.170747,-0.196901,1.29673,-0.29215,-0.0946419,0.559205
23,45,-0.0872665,-0.698132,-0.174533,-0.174533,-0.0980725,-0.690828,-0.170747,-0.196901,1.29673,-0.29215,-0.0946419,0.559205
23,45,-0.0872665,-0.698132,-0.174533,-0.174533,-0.0980725,-0.690828,-0.170747,-0.196901,1.29673,-0.29215,-0.0946419,0.559205
23,45,-0.0872665,-0.698132,-0.174533,-0.174533,-0.0980725,-0.690828,-0.170747,-0.196901,1.29673,-0.29215,-0.0946419,0.559205
23,45,-0.0872665,-0.698132,-0.174533,-0.174533,-0.0980725,-0.690828,-0.170747,-0.196901,1.29673,-0.29215,-0.0946419,0.559205
23,45,-0.0872665,-0.698132,-0.174533,-0.174533,-0.0980725,-0.690828,-0.170747,-0.196901,1.29673,-0.29215,-0.0946419,0.559205
23,45,-0.0872665,-0.698132,-0.174533,-0.174533,-0.0980725,-0.690828,-0.170747,-0.196901,1.29673,-0.29215,-0.0946419,0.559205
23,45,-0.0872665,-0.698132,-0.174533,-0.174533,-0.0980725,-0.690828,-0.170814,-0.196944,1.29673,-0.29215,-0.092964,0.560274
23,45,-0.0872665,-0.698132,-0.174533,-0.174533,-0.0980725,-0.690828,-0.170814,-0.196944,1.29673,-0.29215,-0.092964,0.560274
23,45,-0.0872665,-0.698132,-0.174533,-0.174533,-0.0980725,-0.690828,-0.170814,-0.196944,1.29673,-0.29215,-0.092964,0.560274
23,45,-0.0872665,-0.698132,-0.174533,-0.174533,-0.0980725,-0.690828,-0.170814,-0.196944,1.29673,-0.29215,-0.092964,0.560274
23,45,-0.0872665,-0.698132,-0.174533,-0.174533,-0.0980725,-0.690828,-0.170814,-0.196944,1.29673,-0.29215,-0.092964,0.560274
23,45,-0.0872665,-0.698132,-0.174533,-0.174533,-0.0980725,-0.690828,-0.170814,-0.196944,1.29673,-0.29215,-0.092964,0.560274
23,45,-0.0872665,-0.698132,-0.174533,-0.174533,-0.0980725,-0.690828,-0.170814,-0.196944,1.29673,-0.29215,-0.092964,0.560274
23,45,-0.0872665,-0.698132,-0.174533,-0.174533,-0.0980725,-0.690828,-0.170814,-0.196944,1.29673,-0.29215,-0.092964,0.560274
23,45,-0.0872665,-0.698132,-0.174533,-0.174533,-0.0980725,-0.690828,-0.170814,-0.196944,1.29673,-0.29215,-0.092964,0.560274
23,45,-0.0872665,-0.698132,-0.174533,-0.174533,-0.0980725,-0.690828,-0.170814,-0.196944,1.29673,-0.29215,-0.092964,0.560274
