stim_pw [us],stim_amp [mA],com_elbow_fe [rad],com_forearm_ps [rad],com_wrist_fe [rad],com_wrist_ru [rad],act_elbow_fe [rad],act_forearm_ps [rad],act_wrist_fe [rad],act_wrist_ru [rad],elbow_fe_trq [Nm],forearm_ps_trq [Nm],wrist_fe_trq [Nm],wrist_ru_trq [Nm]
28,40,-0.0872665,-0.698132,-0.174533,-0.174533,-0.0966408,-0.69337,-0.160776,-0.199008,1.87487,-0.266656,-0.412688,0.734234
28,40,-0.0872665,-0.698132,-0.174533,-0.174533,-0.0966408,-0.69337,-0.160843,-0.19905,1.87487,-0.266656,-0.410696,0.735496
28,40,-0.0872665,-0.698132,-0.174533,-0.174533,-0.0966408,-0.69337,-0.16084,-0.198991,1.87487,-0.266656,-0.41078,0.733725
28,40,-0.0872665,-0.698132,-0.174533,-0.174533,-0.0966408,-0.69337,-0.16084,-0.198991,1.87487,-0.266656,-0.410778,0.733725
28,40,-0.0872665,-0.698132,-0.174533,-0.174533,-0.0966408,-0.69337,-0.16084,-0.198991,1.87487,-0.266656,-0.410776,0.733724
28,40,-0.0872665,-0.698132,-0.174533,-0.174533,-0.0966408,-0.69337,-0.160779,-0.19901,1.87487,-0.266656,-0.412507,0.734267
28,40,-0.0872665,-0.698132,-0.174533,-0.174533,-0.0966408,-0.69337,-0.160779,-0.19901,1.87487,-0.266656,-0.412507,0.734267
28,40,-0.0872665,-0.698132,-0.174533,-0.174533,-0.0966408,-0.69337,-0.160779,-0.19901,1.87487,-0.266656,-0.412507,0.734267
28,40,-0.0872665,-0.698132,-0.174533,-0.174533,-0.0966408,-0.69337,-0.160776,-0.198951,1.87487,-0.266656,-0.412594,0.73249
28,40,-0.0872665,-0.698132,-0.174533,-0.174533,-0.0966408,-0.69337,-0.160776,-0.198951,1.87487,-0.266656,-0.412594,0.73249
28,40,-0.0872665,-0.698132,-0.174533,-0.174533,-0.0966408,-0.69337,-0.160776,-0.198951,1.87487,-0.266656,-0.412594,0.73249
28,40,-0.0872665,-0.698132,-0.174533,-0.174533,-0.0966408,-0.69337,-0.160776,-0.198951,1.87487,-0.266656,-0.412594,0.73249
28,40,-0.0872665,-0.698132,-0.174533,-0.174533,-0.0966408,-0.69337,-0.160776,-0.198951,1.87487,-0.266656,-0.412594,0.73249
28,40,-0.0872665,-0.698132,-0.174533,-0.174533,-0.0966408,-0.69337,-0.160773,-0.198891,1.87487,-0.266656,-0.412683,0.730687
28,40,-0.0872665,-0.698132,-0.174533,-0.174533,-0.0966408,-0.69337,-0.160773,-0.198891,1.87487,-0.266656,-0.412683,0.730687
28,40,-0.0872665,-0.698132,-0.174533,-0.174533,-0.0966408,-0.69337,-0.160773,-0.198891,1.87487,-0.266656,-0.412683,0.730687
28,40,-0.0872665,-0.698132,-0.174533,-0.174533,-0.0966408,-0.69337,-0.160773,-0.198891,1.87487,-0.266656,-0.412683,0.730687
28,40,-0.0872665,-0.698132,-0.174533,-0.174533,-0.0966408,-0.69337,-0.160773,-0.198891,1.87487,-0.266656,-0.412683,0.730687
28,40,-0.0872665,-0.698132,-0.174533,-0.174533,-0.0966408,-0.69337,-0.160773,-0.198891,1.87487,-0.266656,-0.412683,0.730687
28,40,-0.0872665,-0.698132,-0.174533,-0.174533,-0.0966408,-0.69337,-0.16077,-0.198832,1.87487,-0.266656,-0.412772,0.728866
28,40,-0.0872665,-0.698132,-0.174533,-0.174533,-0.0966408,-0.69337,-0.16077,-0.198832,1.87487,-0.266656,-0.412772,0.728866
28,40,-0.0872665,-0.698132,-0.174533,-0.174533,-0.0966408,-0.69337,-0.16077,-0.198832,1.87487,-0.266656,-0.412772,0.728866
28,40,-0.0872665,-0.698132,-0.174533,-0.174533,-0.0966408,-0.69337,-0.16077,-0.198832,1.87487,-0.266656,-0.412772,0.728866
28,40,-0.0872665,-0.698132,-0.174533,-0.174533,-0.0966408,-0.69337,-0.16077,-0.198832,1.87487,-0.266656,-0.412772,0.728866
28,40,-0.0872665,-0.698132,-0.174533,-0.174533,-0.0966408,-0.69337,-0.16077,-0.198832,1.87487,-0.266656,-0.412772,0.728866
28,40,-0.0872665,-0.698132,-0.174533,-0.174533,-0.0966408,-0.69337,-0.16077,-0.198832,1.87487,-0.266656,-0.412772,0.728866
28,40,-0.0872665,-0.698132,-0.174533,-0.174533,-0.0966408,-0.69337,-0.16077,-0.198832,1.87487,-0.266656,-0.412772,0.728866
28,40,-0.0872665,-0.698132,-0.174533,-0.174533,-0.0966408,-0.69337,-0.16077,-0.198832,1.87487,-0.266656,-0.412772,0.728866
28,40,-0.0872665,-0.698132,-0.174533,-0.174533,-0.0966408,-0.69337,-0.16077,-0.198832,1.87487,-0.266656,-0.412772,0.728866
28,40,-0.0872665,-0.698132,-0.174533,-0.174533,-0.0966408,-0.69337,-0.16077,-0.198832,1.87487,-0.266656,-0.412772,0.728866
28,40,-0.0872665,-0.698132,-0.174533,-0.174533,-0.0966408,-0.69337,-0.16077,-0.198832,1.87487,-0.266656,-0.412772,0.728866
28,40,-0.0872665,-0.698132,-0.174533,-0.174533,-0.0966408,-0.69337,-0.16077,-0.198832,1.87487,-0.266656,-0.412772,0.728866
28,40,-0.0872665,-0.698132,-0.174533,-0.174533,-0.0966408,-0.69337,-0.16077,-0.198832,1.87487,-0.266656,-0.412772,0.728866
28,40,-0.0872665,-0.698132,-0.174533,-0.174533,-0.0966408,-0.69337,-0.16077,-0.198832,1.87487,-0.266656,-0.412772,0.728866
28,40,-0.0872665,-0.698132,-0.174533,-0.174533,-0.0966408,-0.69337,-0.16077,-0.198832,1.87487,-0.266656,-0.412772,0.728866
28,40,-0.0872665,-0.698132,-0.174533,-0.174533,-0.0966408,-0.69337,-0.16077,-0.198832,1.87487,-0.266656,-0.412772,0.728866
28,40,-0.0872665,-0.698132,-0.174533,-0.174533,-0.0966408,-0.69337,-0.16077,-0.198832,1.87487,-0.266656,-0.412772,0.728866
28,40,-0.0872665,-0.698132,-0.174533,-0.174533,-0.0966408,-0.69337,-0.16077,-0.198832,1.87487,-0.266656,-0.412772,0.728866
28,40,-0.0872665,-0.698132,-0.174533,-0.174533,-0.0966408,-0.69337,-0.16077,-0.198832,1.87487,-0.266656,-0.412772,0.728866
28,40,-0.0872665,-0.698132,-0.174533,-0.174533,-0.0966408,-0.69337,-0.16077,-0.198832,1.87487,-0.266656,-0.412772,0.728866
28,40,-0.0872665,-0.698132,-0.174533,-0.174533,-0.0966408,-0.69337,-0.160768,-0.198773,1.87487,-0.266656,-0.412857,0.727135
28,40,-0.0872665,-0.698132,-0.174533,-0.174533,-0.0966408,-0.69337,-0.160768,-0.198773,1.87487,-0.266656,-0.412857,0.727135
28,40,-0.0872665,-0.698132,-0.174533,-0.174533,-0.0966408,-0.69337,-0.160768,-0.198773,1.87487,-0.266656,-0.412857,0.727135
28,40,-0.0872665,-0.698132,-0.174533,-0.174533,-0.0966408,-0.69337,-0.160768,-0.198773,1.87487,-0.266656,-0.412857,0.727135
28,40,-0.0872665,-0.698132,-0.174533,-0.174533,-0.0966408,-0.69337,-0.160768,-0.198773,1.87487,-0.266656,-0.412857,0.727135
28,40,-0.0872665,-0.698132,-0.174533,-0.174533,-0.0966408,-0.69337,-0.160768,-0.198773,1.87487,-0.266656,-0.412857,0.727135
28,40,-0.0872665,-0.698132,-0.174533,-0.174533,-0.0966408,-0.693421,-0.160768,-0.198773,1.87487,-0.263808,-0.412857,0.727135
28,40,-0.0872665,-0.698132,-0.174533,-0.174533,-0.0966408,-0.693421,-0.160707,-0.198792,1.87487,-0.263808,-0.414687,0.72771
28,40,-0.0872665,-0.698132,-0.174533,-0.174533,-0.0966408,-0.693421,-0.160707,-0.198792,1.87487,-0.263808,-0.414687,0.72771
28,40,-0.0872665,-0.698132,-0.174533,-0.174533,-0.0966408,-0.693421,-0.160707,-0.198792,1.87487,-0.263808,-0.414687,0.727709
28,40,-0.0872665,-0.698132,-0.174533,-0.174533,-0.0966408,-0.693421,-0.160707,-0.198792,1.87487,-0.263808,-0.41469,0.727708
28,40,-0.0872665,-0.698132,-0.174533,-0.174533,-0.0966408,-0.693421,-0.160707,-0.198792,1.87487,-0.263808,-0.414692,0.727707
28,40,-0.0872665,-0.698132,-0.174533,-0.174533,-0.0966408,-0.693421,-0.160707,-0.198792,1.87487,-0.263808,-0.414694,0.727705
28,40,-0.0872665,-0.698132,-0.174533,-0.174533,-0.0966408,-0.693421,-0.160707,-0.198792,1.87487,-0.263808,-0.414696,0.727704
28,40,-0.0872665,-0.698132,-0.174533,-0.174533,-0.0966408,-0.693421,-0.160707,-0.198792,1.87487,-0.263808,-0.414698,0.727703
28,40,-0.0872665,-0.698132,-0.174533,-0.174533,-0.0966408,-0.693421,-0.160707,-0.198792,1.87487,-0.263808,-0.414699,0.727702
28,40,-0.0872665,-0.698132,-0.174533,-0.174533,-0.0966408,-0.693421,-0.160773,-0.198834,1.87487,-0.263808,-0.412794,0.72891
28,40,-0.0872665,-0.698132,-0.174533,-0.174533,-0.0966408,-0.693421,-0.160773,-0.198834,1.87487,-0.263808,-0.412794,0.72891
28,40,-0.0872665,-0.698132,-0.174533,-0.174533,-0.0966408,-0.693421,-0.160773,-0.198834,1.87487,-0.263808,-0.412794,0.72891
28,40,-0.0872665,-0.698132,-0.174533,-0.174533,-0.0966408,-0.693421,-0.160773,-0.198834,1.87487,-0.263808,-0.412794,0.72891
28,40,-0.0872665,-0.698132,-0.174533,-0.174533,-0.0966408,-0.693421,-0.160773,-0.198834,1.87487,-0.263808,-0.412794,0.72891
28,40,-0.0872665,-0.698132,-0.174533,-0.174533,-0.0966408,-0.693421,-0.160773,-0.198834,1.87487,-0.263808,-0.412794,0.72891
28,40,-0.0872665,-0.698132,-0.174533,-0.174533,-0.0966408,-0.693421,-0.160773,-0.198834,1.87487,-0.263808,-0.412794,0.72891
28,40,-0.0872665,-0.698132,-0.174533,-0.174533,-0.0966408,-0.693421,-0.160773,-0.198834,1.87487,-0.263808,-0.412794,0.72891
28,40,-0.0872665,-0.698132,-0.174533,-0.174533,-0.0966408,-0.693421,-0.160773,-0.198834,1.87487,-0.263808,-0.412794,0.72891
28,40,-0.0872665,-0.698132,-0.174533,-0.174533,-0.0966408,-0.693421,-0.160773,-0.198834,1.87487,-0.263808,-0.412794,0.72891
28,40,-0.0872665,-0.698132,-0.174533,-0.174533,-0.0966408,-0.693421,-0.160773,-0.198834,1.87487,-0.263808,-0.412794,0.72891
28,40,-0.0872665,-0.698132,-0.174533,-0.174533,-0.0966408,-0.693421,-0.160773,-0.198834,1.87487,-0.263808,-0.412794,0.72891
28,40,-0.0872665,-0.698132,-0.174533,-0.174533,-0.0966408,-0.693421,-0.160773,-0.198834,1.87487,-0.263808,-0.412794,0.72891
28,40,-0.0872665,-0.698132,-0.174533,-0.174533,-0.0966408,-0.693421,-0.160773,-0.198834,1.87487,-0.263808,-0.412794,0.72891
28,40,-0.0872665,-0.698132,-0.174533,-0.174533,-0.0966408,-0.693421,-0.16077,-0.198775,1.87487,-0.263808,-0.41288,0.727175
28,40,-0.0872665,-0.698132,-0.174533,-0.174533,-0.0966408,-0.693421,-0.16077,-0.198775,1.87487,-0.263808,-0.41288,0.727175
28,40,-0.0872665,-0.698132,-0.174533,-0.174533,-0.0966408,-0.693421,-0.16077,-0.198775,1.87487,-0.263808,-0.41288,0.727175
28,40,-0.0872665,-0.698132,-0.174533,-0.174533,-0.0966408,-0.693421,-0.16077,-0.198775,1.87487,-0.263808,-0.41288,0.727175
28,40,-0.0872665,-0.698132,-0.174533,-0.174533,-0.0966408,-0.693421,-0.16077,-0.198775,1.87487,-0.263808,-0.41288,0.727175
28,40,-0.0872665,-0.698132,-0.174533,-0.174533,-0.0966408,-0.693421,-0.16077,-0.198775,1.87487,-0.263808,-0.41288,0.727175
28,40,-0.0872665,-0.698132,-0.174533,-0.174533,-0.0966408,-0.693421,-0.16077,-0.198775,1.87487,-0.263808,-0.41288,0.727175
28,40,-0.0872665,-0.698132,-0.174533,-0.174533,-0.0966408,-0.693421,-0.16077,-0.198775,1.87487,-0.263808,-0.41288,0.727175
28,40,-0.0872665,-0.698132,-0.174533,-0.174533,-0.0966408,-0.693421,-0.16077,-0.198775,1.87487,-0.263808,-0.41288,0.727175
28,40,-0.0872665,-0.698132,-0.174533,-0.174533,-0.0966408,-0.693421,-0.16077,-0.198775,1.87487,-0.263808,-0.41288,0.727175
28,40,-0.0872665,-0.698132,-0.174533,-0.174533,-0.0966408,-0.693421,-0.16077,-0.198775,1.87487,-0.263808,-0.41288,0.727175
28,40,-0.0872665,-0.698132,-0.174533,-0.174533,-0.0966408,-0.693421,-0.16077,-0.198775,1.87487,-0.263808,-0.41288,0.727175
28,40,-0.0872665,-0.698132,-0.174533,-0.174533,-0.0966408,-0.693421,-0.16077,-0.198775,1.87487,-0.263808,-0.41288,0.727175
28,40,-0.0872665,-0.698132,-0.174533,-0.174533,-0.0966408,-0.693421,-0.16077,-0.198775,1.87487,-0.263808,-0.41288,0.727175
28,40,-0.0872665,-0.698132,-0.174533,-0.174533,-0.0966408,-0.693421,-0.160709,-0.198794,1.87487,-0.263808,-0.414709,0.727749
28,40,-0.0872665,-0.698132,-0.174533,-0.174533,-0.0966408,-0.693421,-0.160709,-0.198794,1.87487,-0.263808,-0.414709,0.727749
28,40,-0.0872665,-0.698132,-0.174533,-0.174533,-0.0966408,-0.693421,-0.160709,-0.198794,1.87487,-0.263808,-0.414709,0.727749
28,40,-0.0872665,-0.698132,-0.174533,-0.174533,-0.0966408,-0.693421,-0.160709,-0.198794,1.87487,-0.263808,-0.414709,0.727749
28,40,-0.0872665,-0.698132,-0.174533,-0.174533,-0.0966408,-0.693421,-0.160709,-0.198794,1.87487,-0.263808,-0.414709,0.727749
28,40,-0.0872665,-0.698132,-0.174533,-0.174533,-0.0966408,-0.693421,-0.160709,-0.198794,1.87487,-0.263808,-0.414709,0.727749
28,40,-0.0872665,-0.698132,-0.174533,-0.174533,-0.0966408,-0.693421,-0.160709,-0.198794,1.87487,-0.263808,-0.414709,0.727749
28,40,-0.0872665,-0.698132,-0.174533,-0.174533,-0.0966408,-0.693421,-0.160709,-0.198794,1.87487,-0.263808,-0.414709,0.727749
28,40,-0.0872665,-0.698132,-0.174533,-0.174533,-0.0966408,-0.693421,-0.160709,-0.198794,1.87487,-0.263808,-0.414709,0.727749
28,40,-0.0872665,-0.698132,-0.174533,-0.174533,-0.0966408,-0.693421,-0.160709,-0.198794,1.87487,-0.263808,-0.414709,0.727749
28,40,-0.0872665,-0.698132,-0.174533,-0.174533,-0.0966408,-0.693421,-0.160709,-0.198794,1.87487,-0.263808,-0.414709,0.727749
28,40,-0.0872665,-0.698132,-0.174533,-0.174533,-0.0966408,-0.693421,-0.160709,-0.198794,1.87487,-0.263808,-0.414709,0.727749
28,40,-0.0872665,-0.698132,-0.174533,-0.174533,-0.0966408,-0.693421,-0.160709,-0.198794,1.87487,-0.263808,-0.414709,0.727749
28,40,-0.0872665,-0.698132,-0.174533,-0.174533,-0.0966408,-0.693421,-0.160709,-0.198794,1.87487,-0.263808,-0.414709,0.727749
28,40,-0.0872665,-0.698132,-0.174533,-0.174533,-0.0966408,-0.693421,-0.160709,-0.198794,1.87487,-0.263808,-0.414709,0.727749
28,40,-0.0872665,-0.698132,-0.174533,-0.174533,-0.0966408,-0.693421,-0.160709,-0.198794,1.87487,-0.263808,-0.414709,0.727749
28,40,-0.0872665,-0.698132,-0.174533,-0.174533,-0.0966408,-0.693421,-0.160709,-0.198794,1.87487,-0.263808,-0.414709,0.727749
28,40,-0.0872665,-0.698132,-0.174533,-0.174533,-0.0966408,-0.693421,-0.160709,-0.198794,1.87487,-0.263808,-0.414709,0.727749
28,40,-0.0872665,-0.698132,-0.174533,-0.174533,-0.0966408,-0.693421,-0.160709,-0.198794,1.87487,-0.263808,-0.414709,0.727749
28,40,-0.0872665,-0.698132,-0.174533,-0.174533,-0.0966408,-0.693421,-0.160709,-0.198794,1.87487,-0.263808,-0.414709,0.727749
28,40,-0.0872665,-0.698132,-0.174533,-0.174533,-0.0966408,-0.693421,-0.160709,-0.198794,1.87487,-0.263808,-0.414709,0.727749
28,40,-0.0872665,-0.698132,-0.174533,-0.174533,-0.0966408,-0.693421,-0.160709,-0.198794,1.87487,-0.263808,-0.414709,0.727749
28,40,-0.0872665,-0.698132,-0.174533,-0.174533,-0.0966408,-0.693421,-0.160706,-0.198734,1.87487,-0.263808,-0.414793,0.726042
28,40,-0.0872665,-0.698132,-0.174533,-0.174533,-0.0966408,-0.693421,-0.160773,-0.198777,1.87487,-0.263808,-0.412791,0.727312
28,40,-0.0872665,-0.698132,-0.174533,-0.174533,-0.0966408,-0.693421,-0.160773,-0.198777,1.87487,-0.263808,-0.412791,0.727312
28,40,-0.0872665,-0.698132,-0.174533,-0.174533,-0.0966408,-0.693421,-0.160773,-0.198777,1.87487,-0.263808,-0.412791,0.727312
28,40,-0.0872665,-0.698132,-0.174533,-0.174533,-0.0966408,-0.693421,-0.160773,-0.198777,1.87487,-0.263808,-0.412791,0.727312
28,40,-0.0872665,-0.698132,-0.174533,-0.174533,-0.0966408,-0.693421,-0.160773,-0.198777,1.87487,-0.263808,-0.412791,0.727312
28,40,-0.0872665,-0.698132,-0.174533,-0.174533,-0.0966408,-0.693421,-0.160773,-0.198777,1.87487,-0.263808,-0.412791,0.727312
28,40,-0.0872665,-0.698132,-0.174533,-0.174533,-0.0966408,-0.693421,-0.160773,-0.198777,1.87487,-0.263808,-0.412791,0.727312
28,40,-0.0872665,-0.698132,-0.174533,-0.174533,-0.0966408,-0.693421,-0.160712,-0.198796,1.87487,-0.263808,-0.41462,0.727886
28,40,-0.0872665,-0.698132,-0.174533,-0.174533,-0.0966408,-0.693421,-0.160712,-0.198796,1.87487,-0.263808,-0.41462,0.727886
28,40,-0.0872665,-0.698132,-0.174533,-0.174533,-0.0966408,-0.693421,-0.160712,-0.198796,1.87487,-0.263808,-0.41462,0.727886
28,40,-0.0872665,-0.698132,-0.174533,-0.174533,-0.0966408,-0.693421,-0.160712,-0.198796,1.87487,-0.263808,-0.41462,0.727886
28,40,-0.0872665,-0.698132,-0.174533,-0.174533,-0.0966408,-0.693421,-0.160712,-0.198796,1.87487,-0.263808,-0.41462,0.727886
28,40,-0.0872665,-0.698132,-0.174533,-0.174533,-0.0966408,-0.693421,-0.160712,-0.198796,1.87487,-0.263808,-0.41462,0.727886
28,40,-0.0872665,-0.698132,-0.174533,-0.174533,-0.0966408,-0.693421,-0.160712,-0.198796,1.87487,-0.263808,-0.41462,0.727886
28,40,-0.0872665,-0.698132,-0.174533,-0.174533,-0.0966408,-0.693421,-0.160712,-0.198796,1.87487,-0.263808,-0.41462,0.727886
28,40,-0.0872665,-0.698132,-0.174533,-0.174533,-0.0966408,-0.693421,-0.160709,-0.198736,1.87487,-0.263808,-0.414708,0.726104
28,40,-0.0872665,-0.698132,-0.174533,-0.174533,-0.0966408,-0.693421,-0.160709,-0.198736,1.87487,-0.263808,-0.414708,0.726104
28,40,-0.0872665,-0.698132,-0.174533,-0.174533,-0.0966408,-0.693421,-0.160709,-0.198736,1.87487,-0.263808,-0.414708,0.726104
28,40,-0.0872665,-0.698132,-0.174533,-0.174533,-0.0966408,-0.693421,-0.160709,-0.198736,1.87487,-0.263808,-0.414708,0.726104
28,40,-0.0872665,-0.698132,-0.174533,-0.174533,-0.0966408,-0.693421,-0.160776,-0.198779,1.87487,-0.263808,-0.412705,0.727374
28,40,-0.0872665,-0.698132,-0.174533,-0.174533,-0.0966408,-0.693421,-0.160776,-0.198779,1.87487,-0.263808,-0.412705,0.727374
28,40,-0.0872665,-0.698132,-0.174533,-0.174533,-0.0966408,-0.693421,-0.160715,-0.198798,1.87487,-0.263808,-0.414535,0.727948
28,40,-0.0872665,-0.698132,-0.174533,-0.174533,-0.0966408,-0.693421,-0.160715,-0.198798,1.87487,-0.263808,-0.414535,0.727948
28,40,-0.0872665,-0.698132,-0.174533,-0.174533,-0.0966408,-0.693421,-0.160715,-0.198798,1.87487,-0.263808,-0.414535,0.727948
28,40,-0.0872665,-0.698132,-0.174533,-0.174533,-0.0966408,-0.693421,-0.160715,-0.198798,1.87487,-0.263808,-0.414535,0.727948
28,40,-0.0872665,-0.698132,-0.174533,-0.174533,-0.0966408,-0.693421,-0.160715,-0.198798,1.87487,-0.263808,-0.414535,0.727948
28,40,-0.0872665,-0.698132,-0.174533,-0.174533,-0.0966408,-0.693421,-0.160715,-0.198798,1.87487,-0.263808,-0.414535,0.727948
28,40,-0.0872665,-0.698132,-0.174533,-0.174533,-0.0966408,-0.693421,-0.160712,-0.198738,1.87487,-0.263808,-0.414623,0.726166
28,40,-0.0872665,-0.698132,-0.174533,-0.174533,-0.0966408,-0.693421,-0.160712,-0.198738,1.87487,-0.263808,-0.414623,0.726166
28,40,-0.0872665,-0.698132,-0.174533,-0.174533,-0.0966408,-0.693421,-0.160712,-0.198738,1.87487,-0.263808,-0.414623,0.726166
28,40,-0.0872665,-0.698132,-0.174533,-0.174533,-0.0966408,-0.693421,-0.160651,-0.198758,1.87487,-0.263808,-0.416452,0.72674
28,40,-0.0872665,-0.698132,-0.174533,-0.174533,-0.0966408,-0.693421,-0.160651,-0.198758,1.87487,-0.263808,-0.416452,0.72674
28,40,-0.0872665,-0.698132,-0.174533,-0.174533,-0.0966408,-0.693421,-0.160651,-0.198758,1.87487,-0.263808,-0.416452,0.72674
28,40,-0.0872665,-0.698132,-0.174533,-0.174533,-0.0966408,-0.693421,-0.160651,-0.198758,1.87487,-0.263808,-0.416452,0.72674
28,40,-0.0872665,-0.698132,-0.174533,-0.174533,-0.0966408,-0.693421,-0.160718,-0.1988,1.87487,-0.263808,-0.41445,0.72801
28,40,-0.0872665,-0.698132,-0.174533,-0.174533,-0.0966408,-0.693421,-0.160718,-0.1988,1.87487,-0.263808,-0.41445,0.72801
28,40,-0.0872665,-0.698132,-0.174533,-0.174533,-0.0966408,-0.693421,-0.160718,-0.1988,1.87487,-0.263808,-0.41445,0.72801
28,40,-0.0872665,-0.698132,-0.174533,-0.174533,-0.0966408,-0.693421,-0.160718,-0.1988,1.87487,-0.263808,-0.41445,0.72801
28,40,-0.0872665,-0.698132,-0.174533,-0.174533,-0.0966408,-0.693421,-0.160715,-0.198741,1.87487,-0.263808,-0.41454,0.726167
28,40,-0.0872665,-0.698132,-0.174533,-0.174533,-0.0966408,-0.693421,-0.160715,-0.198741,1.87487,-0.263808,-0.41454,0.726167
28,40,-0.0872665,-0.698132,-0.174533,-0.174533,-0.0966408,-0.693421,-0.160654,-0.19876,1.87487,-0.263808,-0.416445,0.726764
28,40,-0.0872665,-0.698132,-0.174533,-0.174533,-0.0966408,-0.693421,-0.160654,-0.19876,1.87487,-0.263808,-0.416445,0.726764
28,40,-0.0872665,-0.698132,-0.174533,-0.174533,-0.0966408,-0.693421,-0.160654,-0.19876,1.87487,-0.263808,-0.416445,0.726764
28,40,-0.0872665,-0.698132,-0.174533,-0.174533,-0.0966408,-0.693421,-0.160654,-0.19876,1.87487,-0.263808,-0.416445,0.726764
28,40,-0.0872665,-0.698132,-0.174533,-0.174533,-0.0966408,-0.693421,-0.160654,-0.19876,1.87487,-0.263808,-0.416445,0.726764
28,40,-0.0872665,-0.698132,-0.174533,-0.174533,-0.0966408,-0.693421,-0.160593,-0.198779,1.87487,-0.263808,-0.418329,0.727355
28,40,-0.0872665,-0.698132,-0.174533,-0.174533,-0.0966408,-0.693421,-0.160593,-0.198779,1.87487,-0.263808,-0.418329,0.727355
28,40,-0.0872665,-0.698132,-0.174533,-0.174533,-0.0966408,-0.693421,-0.160593,-0.198779,1.87487,-0.263808,-0.418329,0.727355
28,40,-0.0872665,-0.698132,-0.174533,-0.174533,-0.0966408,-0.693421,-0.160593,-0.198779,1.87487,-0.263808,-0.418329,0.727355
28,40,-0.0872665,-0.698132,-0.174533,-0.174533,-0.0966408,-0.693421,-0.160593,-0.198779,1.87487,-0.263808,-0.418329,0.727355
28,40,-0.0872665,-0.698132,-0.174533,-0.174533,-0.0966408,-0.693421,-0.160593,-0.198779,1.87487,-0.263808,-0.418329,0.727355
28,40,-0.0872665,-0.698132,-0.174533,-0.174533,-0.0966408,-0.693421,-0.160532,-0.198798,1.87487,-0.263808,-0.420188,0.727939
28,40,-0.0872665,-0.698132,-0.174533,-0.174533,-0.0966408,-0.693421,-0.160599,-0.19884,1.87487,-0.263808,-0.418186,0.729209
28,40,-0.0872665,-0.698132,-0.174533,-0.174533,-0.0966408,-0.693421,-0.160599,-0.19884,1.87487,-0.263808,-0.418186,0.729209
28,40,-0.0872665,-0.698132,-0.174533,-0.174533,-0.0966408,-0.693421,-0.160599,-0.19884,1.87487,-0.263808,-0.418186,0.729209
28,40,-0.0872665,-0.698132,-0.174533,-0.174533,-0.0966408,-0.693421,-0.160599,-0.19884,1.87487,-0.263808,-0.418186,0.729209
28,40,-0.0872665,-0.698132,-0.174533,-0.174533,-0.0966408,-0.693421,-0.160599,-0.19884,1.87487,-0.263808,-0.418186,0.729209
28,40,-0.0872665,-0.698132,-0.174533,-0.174533,-0.0966408,-0.693421,-0.160538,-0.198859,1.87487,-0.263808,-0.420037,0.72979
28,40,-0.0872665,-0.698132,-0.174533,-0.174533,-0.0966408,-0.693421,-0.160538,-0.198859,1.87487,-0.263808,-0.420037,0.72979
28,40,-0.0872665,-0.698132,-0.174533,-0.174533,-0.0966408,-0.693421,-0.160538,-0.198859,1.87487,-0.263808,-0.420037,0.72979
28,40,-0.0872665,-0.698132,-0.174533,-0.174533,-0.0966408,-0.693421,-0.160538,-0.198859,1.87487,-0.263808,-0.420037,0.72979
28,40,-0.0872665,-0.698132,-0.174533,-0.174533,-0.0966408,-0.693421,-0.160538,-0.198859,1.87487,-0.263808,-0.420037,0.72979
28,40,-0.0872665,-0.698132,-0.174533,-0.174533,-0.0966408,-0.693421,-0.160474,-0.198819,1.87487,-0.263808,-0.421993,0.728583
28,40,-0.0872665,-0.698132,-0.174533,-0.174533,-0.0966408,-0.693421,-0.160474,-0.198819,1.87487,-0.263808,-0.421993,0.728583
28,40,-0.0872665,-0.698132,-0.174533,-0.174533,-0.0966408,-0.693421,-0.160474,-0.198819,1.87487,-0.263808,-0.421993,0.728583
28,40,-0.0872665,-0.698132,-0.174533,-0.174533,-0.0966408,-0.693421,-0.160474,-0.198819,1.87487,-0.263808,-0.421993,0.728583
28,40,-0.0872665,-0.698132,-0.174533,-0.174533,-0.0966408,-0.693421,-0.160474,-0.198819,1.87487,-0.263808,-0.421993,0.728583
28,40,-0.0872665,-0.698132,-0.174533,-0.174533,-0.0966408,-0.693421,-0.160474,-0.198819,1.87487,-0.263808,-0.421993,0.728583
28,40,-0.0872665,-0.698132,-0.174533,-0.174533,-0.0966408,-0.693421,-0.160413,-0.198838,1.87487,-0.263808,-0.423817,0.729155
28,40,-0.0872665,-0.698132,-0.174533,-0.174533,-0.0966408,-0.693421,-0.160413,-0.198838,1.87487,-0.263808,-0.423817,0.729155
28,40,-0.0872665,-0.698132,-0.174533,-0.174533,-0.0966408,-0.693421,-0.160413,-0.198838,1.87487,-0.263808,-0.423817,0.729155
28,40,-0.0872665,-0.698132,-0.174533,-0.174533,-0.0966408,-0.693421,-0.160413,-0.198838,1.87487,-0.263808,-0.423817,0.729155
28,40,-0.0872665,-0.698132,-0.174533,-0.174533,-0.0966408,-0.693421,-0.160413,-0.198838,1.87487,-0.263808,-0.423817,0.729155
28,40,-0.0872665,-0.698132,-0.174533,-0.174533,-0.0966408,-0.693421,-0.160413,-0.198838,1.87487,-0.263808,-0.423817,0.729155
28,40,-0.0872665,-0.698132,-0.174533,-0.174533,-0.0966408,-0.693421,-0.160352,-0.198857,1.87487,-0.263808,-0.425653,0.729731
28,40,-0.0872665,-0.698132,-0.174533,-0.174533,-0.0966408,-0.693421,-0.160352,-0.198857,1.87487,-0.263808,-0.425653,0.729731
28,40,-0.0872665,-0.698132,-0.174533,-0.174533,-0.0966408,-0.693421,-0.160349,-0.198798,1.87487,-0.263808,-0.42574,0.727944
28,40,-0.0872665,-0.698132,-0.174533,-0.174533,-0.0966408,-0.693421,-0.160349,-0.198798,1.87487,-0.263808,-0.42574,0.727944
28,40,-0.0872665,-0.698132,-0.174533,-0.174533,-0.0966408,-0.693421,-0.160349,-0.198798,1.87487,-0.263808,-0.42574,0.727944
28,40,-0.0872665,-0.698132,-0.174533,-0.174533,-0.0966408,-0.693421,-0.160349,-0.198798,1.87487,-0.263808,-0.42574,0.727944
28,40,-0.0872665,-0.698132,-0.174533,-0.174533,-0.0966408,-0.693421,-0.160349,-0.198798,1.87487,-0.263808,-0.42574,0.727944
28,40,-0.0872665,-0.698132,-0.174533,-0.174533,-0.0966408,-0.693421,-0.160349,-0.198798,1.87487,-0.263808,-0.42574,0.727944
28,40,-0.0872665,-0.698132,-0.174533,-0.174533,-0.0966408,-0.693421,-0.160349,-0.198798,1.87487,-0.263808,-0.42574,0.727944
28,40,-0.0872665,-0.698132,-0.174533,-0.174533,-0.0966408,-0.693421,-0.160349,-0.198798,1.87487,-0.263808,-0.42574,0.727944
28,40,-0.0872665,-0.698132,-0.174533,-0.174533,-0.0966408,-0.693421,-0.160349,-0.198798,1.87487,-0.263808,-0.42574,0.727944
28,40,-0.0872665,-0.698132,-0.174533,-0.174533,-0.0966408,-0.693421,-0.160349,-0.198798,1.87487,-0.263808,-0.42574,0.727944
28,40,-0.0872665,-0.698132,-0.174533,-0.174533,-0.0966408,-0.693421,-0.160288,-0.198817,1.87487,-0.263808,-0.427519,0.728502
28,40,-0.0872665,-0.698132,-0.174533,-0.174533,-0.0966408,-0.693421,-0.160288,-0.198817,1.87487,-0.263808,-0.427519,0.728502
28,40,-0.0872665,-0.698132,-0.174533,-0.174533,-0.0966408,-0.693421,-0.160352,-0.1988,1.87487,-0.263808,-0.425604,0.72799
28,40,-0.0872665,-0.698132,-0.174533,-0.174533,-0.0966408,-0.693421,-0.160352,-0.1988,1.87487,-0.263808,-0.425604,0.72799
28,40,-0.0872665,-0.698132,-0.174533,-0.174533,-0.0966408,-0.693421,-0.160352,-0.1988,1.87487,-0.263808,-0.425604,0.72799
28,40,-0.0872665,-0.698132,-0.174533,-0.174533,-0.0966408,-0.693421,-0.160352,-0.1988,1.87487,-0.263808,-0.425604,0.72799
28,40,-0.0872665,-0.698132,-0.174533,-0.174533,-0.0966408,-0.693421,-0.160352,-0.1988,1.87487,-0.263808,-0.425604,0.72799
28,40,-0.0872665,-0.698132,-0.174533,-0.174533,-0.0966408,-0.693421,-0.160352,-0.1988,1.87487,-0.263808,-0.425604,0.72799
28,40,-0.0872665,-0.698132,-0.174533,-0.174533,-0.0966408,-0.693421,-0.160352,-0.1988,1.87487,-0.263808,-0.425604,0.72799
28,40,-0.0872665,-0.698132,-0.174533,-0.174533,-0.0966408,-0.693421,-0.160352,-0.1988,1.87487,-0.263808,-0.425604,0.72799
28,40,-0.0872665,-0.698132,-0.174533,-0.174533,-0.0966408,-0.693421,-0.160352,-0.1988,1.87487,-0.263808,-0.425604,0.72799
28,40,-0.0872665,-0.698132,-0.174533,-0.174533,-0.0966408,-0.693421,-0.160352,-0.1988,1.87487,-0.263808,-0.425604,0.72799
28,40,-0.0872665,-0.698132,-0.174533,-0.174533,-0.0966408,-0.693421,-0.160352,-0.1988,1.87487,-0.263808,-0.425604,0.72799
28,40,-0.0872665,-0.698132,-0.174533,-0.174533,-0.0966408,-0.693421,-0.160352,-0.1988,1.87487,-0.263808,-0.425604,0.72799
28,40,-0.0872665,-0.698132,-0.174533,-0.174533,-0.0966408,-0.693421,-0.160352,-0.1988,1.87487,-0.263808,-0.425604,0.72799
28,40,-0.0872665,-0.698132,-0.174533,-0.174533,-0.0966408,-0.693421,-0.160352,-0.1988,1.87487,-0.263808,-0.425604,0.72799
28,40,-0.0872665,-0.698132,-0.174533,-0.174533,-0.0966408,-0.693421,-0.160352,-0.1988,1.87487,-0.263808,-0.425604,0.72799
28,40,-0.0872665,-0.698132,-0.174533,-0.174533,-0.0966408,-0.693421,-0.160352,-0.1988,1.87487,-0.263808,-0.425604,0.72799
28,40,-0.0872665,-0.698132,-0.174533,-0.174533,-0.0966408,-0.693421,-0.160352,-0.1988,1.87487,-0.263808,-0.425604,0.72799
28,40,-0.0872665,-0.698132,-0.174533,-0.174533,-0.0966408,-0.693421,-0.160352,-0.1988,1.87487,-0.263808,-0.425604,0.72799
28,40,-0.0872665,-0.698132,-0.174533,-0.174533,-0.0966408,-0.693421,-0.160352,-0.1988,1.87487,-0.263808,-0.425604,0.72799
28,40,-0.0872665,-0.698132,-0.174533,-0.174533,-0.0966408,-0.693421,-0.160352,-0.1988,1.87487,-0.263808,-0.425604,0.72799
28,40,-0.0872665,-0.698132,-0.174533,-0.174533,-0.0966408,-0.693421,-0.160352,-0.1988,1.87487,-0.263808,-0.425604,0.72799
28,40,-0.0872665,-0.698132,-0.174533,-0.174533,-0.0966408,-0.693421,-0.160349,-0.198741,1.87487,-0.263808,-0.42569,0.726218
28,40,-0.0872665,-0.698132,-0.174533,-0.174533,-0.0966408,-0.693421,-0.160349,-0.198741,1.87487,-0.263808,-0.42569,0.726218
28,40,-0.0872665,-0.698132,-0.174533,-0.174533,-0.0966408,-0.693421,-0.160349,-0.198741,1.87487,-0.263808,-0.42569,0.726218
28,40,-0.0872665,-0.698132,-0.174533,-0.174533,-0.0966408,-0.693421,-0.160349,-0.198741,1.87487,-0.263808,-0.42569,0.726218
28,40,-0.0872665,-0.698132,-0.174533,-0.174533,-0.0966408,-0.693421,-0.160416,-0.198783,1.87487,-0.263808,-0.423688,0.727488
28,40,-0.0872665,-0.698132,-0.174533,-0.174533,-0.0966408,-0.693421,-0.160416,-0.198783,1.87487,-0.263808,-0.423688,0.727488
28,40,-0.0872665,-0.698132,-0.174533,-0.174533,-0.0966408,-0.693421,-0.160416,-0.198783,1.87487,-0.263808,-0.423687,0.727488
28,40,-0.0872665,-0.698132,-0.174533,-0.174533,-0.0966408,-0.693421,-0.160416,-0.198783,1.87487,-0.263808,-0.423682,0.727486
28,40,-0.0872665,-0.698132,-0.174533,-0.174533,-0.0966408,-0.693421,-0.160416,-0.198783,1.87487,-0.263808,-0.423677,0.727485
28,40,-0.0872665,-0.698132,-0.174533,-0.174533,-0.0966408,-0.693421,-0.160416,-0.198783,1.87487,-0.263808,-0.423672,0.727483
28,40,-0.0872665,-0.698132,-0.174533,-0.174533,-0.0966408,-0.693421,-0.160416,-0.198783,1.87487,-0.263808,-0.423668,0.727482
28,40,-0.0872665,-0.698132,-0.174533,-0.174533,-0.0966408,-0.693421,-0.160416,-0.198783,1.87487,-0.263808,-0.423663,0.72748
28,40,-0.0872665,-0.698132,-0.174533,-0.174533,-0.0966408,-0.693421,-0.160416,-0.198783,1.87487,-0.263808,-0.423659,0.727479
28,40,-0.0872665,-0.698132,-0.174533,-0.174533,-0.0966408,-0.693421,-0.160416,-0.198783,1.87487,-0.263808,-0.423655,0.727478
28,40,-0.0872665,-0.698132,-0.174533,-0.174533,-0.0966408,-0.693421,-0.160416,-0.198783,1.87487,-0.263808,-0.423652,0.727477
28,40,-0.0872665,-0.698132,-0.174533,-0.174533,-0.0966408,-0.693421,-0.160416,-0.198783,1.87487,-0.263808,-0.423649,0.727476
28,40,-0.0872665,-0.698132,-0.174533,-0.174533,-0.0966408,-0.693421,-0.160416,-0.198783,1.87487,-0.263808,-0.423645,0.727475
28,40,-0.0872665,-0.698132,-0.174533,-0.174533,-0.0966408,-0.693421,-0.160416,-0.198783,1.87487,-0.263808,-0.423642,0.727474
28,40,-0.0872665,-0.698132,-0.174533,-0.174533,-0.0966408,-0.693472,-0.160416,-0.198783,1.87487,-0.260961,-0.423639,0.727473
28,40,-0.0872665,-0.698132,-0.174533,-0.174533,-0.0966408,-0.693472,-0.160416,-0.198783,1.87487,-0.260961,-0.423637,0.727472
28,40,-0.0872665,-0.698132,-0.174533,-0.174533,-0.0966408,-0.693472,-0.160482,-0.198825,1.87487,-0.260961,-0.421632,0.728741
28,40,-0.0872665,-0.698132,-0.174533,-0.174533,-0.0966408,-0.693472,-0.160482,-0.198825,1.87487,-0.260961,-0.421629,0.72874
28,40,-0.0872665,-0.698132,-0.174533,-0.174533,-0.0966408,-0.693472,-0.160482,-0.198825,1.87487,-0.260961,-0.421627,0.728739
28,40,-0.0872665,-0.698132,-0.174533,-0.174533,-0.0966408,-0.693472,-0.160479,-0.198766,1.87487,-0.260961,-0.421712,0.726954
28,40,-0.0872665,-0.698132,-0.174533,-0.174533,-0.0966408,-0.693472,-0.160479,-0.198766,1.87487,-0.260961,-0.421709,0.726954
28,40,-0.0872665,-0.698132,-0.174533,-0.174533,-0.0966408,-0.693472,-0.160479,-0.198766,1.87487,-0.260961,-0.421707,0.726953
28,40,-0.0872665,-0.698132,-0.174533,-0.174533,-0.0966408,-0.693472,-0.160479,-0.198766,1.87487,-0.260961,-0.421705,0.726952
28,40,-0.0872665,-0.698132,-0.174533,-0.174533,-0.0966408,-0.693472,-0.160479,-0.198766,1.87487,-0.260961,-0.421703,0.726952
28,40,-0.0872665,-0.698132,-0.174533,-0.174533,-0.0966408,-0.693472,-0.160479,-0.198766,1.87487,-0.260961,-0.421701,0.726951
28,40,-0.0872665,-0.698132,-0.174533,-0.174533,-0.0966408,-0.693472,-0.160479,-0.198766,1.87487,-0.260961,-0.421699,0.726951
28,40,-0.0872665,-0.698132,-0.174533,-0.174533,-0.0966408,-0.693472,-0.160479,-0.198766,1.87487,-0.260961,-0.421698,0.72695
28,40,-0.0872665,-0.698132,-0.174533,-0.174533,-0.0966408,-0.693472,-0.160479,-0.198766,1.87487,-0.260961,-0.421696,0.72695
28,40,-0.0872665,-0.698132,-0.174533,-0.174533,-0.0966408,-0.693472,-0.160479,-0.198766,1.87487,-0.260961,-0.421694,0.726949
28,40,-0.0872665,-0.698132,-0.174533,-0.174533,-0.0966408,-0.693472,-0.160479,-0.198766,1.87487,-0.260961,-0.421693,0.726949
28,40,-0.0872665,-0.698132,-0.174533,-0.174533,-0.0966408,-0.693472,-0.160479,-0.198766,1.87487,-0.260961,-0.421691,0.726948
28,40,-0.0872665,-0.698132,-0.174533,-0.174533,-0.0966408,-0.693472,-0.160479,-0.198766,1.87487,-0.260961,-0.42169,0.726948
28,40,-0.0872665,-0.698132,-0.174533,-0.174533,-0.0966408,-0.693472,-0.160479,-0.198766,1.87487,-0.260961,-0.421688,0.726947
28,40,-0.0872665,-0.698132,-0.174533,-0.174533,-0.0966408,-0.693472,-0.160479,-0.198766,1.87487,-0.260961,-0.421687,0.726947
28,40,-0.0872665,-0.698132,-0.174533,-0.174533,-0.0966408,-0.693472,-0.160479,-0.198766,1.87487,-0.260961,-0.421686,0.726946
28,40,-0.0872665,-0.698132,-0.174533,-0.174533,-0.0966408,-0.693472,-0.160479,-0.198766,1.87487,-0.260961,-0.421684,0.726946
28,40,-0.0872665,-0.698132,-0.174533,-0.174533,-0.0966408,-0.693472,-0.160479,-0.198766,1.87487,-0.260961,-0.421683,0.726946
28,40,-0.0872665,-0.698132,-0.174533,-0.174533,-0.0966408,-0.693472,-0.160479,-0.198766,1.87487,-0.260961,-0.421682,0.726945
28,40,-0.0872665,-0.698132,-0.174533,-0.174533,-0.0965692,-0.693472,-0.160479,-0.198766,1.86055,-0.260961,-0.42168,0.726945
28,40,-0.0872665,-0.698132,-0.174533,-0.174533,-0.0965692,-0.693472,-0.160477,-0.198706,1.86055,-0.260961,-0.421763,0.725169
28,40,-0.0872665,-0.698132,-0.174533,-0.174533,-0.0965692,-0.693472,-0.160477,-0.198706,1.86055,-0.260961,-0.421762,0.725168
28,40,-0.0872665,-0.698132,-0.174533,-0.174533,-0.0965692,-0.693472,-0.160477,-0.198706,1.86055,-0.260961,-0.421761,0.725168
28,40,-0.0872665,-0.698132,-0.174533,-0.174533,-0.0965692,-0.693472,-0.160477,-0.198706,1.86055,-0.260961,-0.42176,0.725168
28,40,-0.0872665,-0.698132,-0.174533,-0.174533,-0.0965692,-0.693472,-0.160543,-0.198749,1.86055,-0.260961,-0.419757,0.726438
28,40,-0.0872665,-0.698132,-0.174533,-0.174533,-0.0965692,-0.693472,-0.160543,-0.198749,1.86055,-0.260961,-0.419756,0.726437
28,40,-0.0872665,-0.698132,-0.174533,-0.174533,-0.0965692,-0.693472,-0.160543,-0.198749,1.86055,-0.260961,-0.419755,0.726437
28,40,-0.0872665,-0.698132,-0.174533,-0.174533,-0.0965692,-0.693472,-0.160543,-0.198749,1.86055,-0.260961,-0.419755,0.726437
28,40,-0.0872665,-0.698132,-0.174533,-0.174533,-0.0965692,-0.693472,-0.160543,-0.198749,1.86055,-0.260961,-0.419754,0.726436
28,40,-0.0872665,-0.698132,-0.174533,-0.174533,-0.0965692,-0.693472,-0.160543,-0.198749,1.86055,-0.260961,-0.419753,0.726436
28,40,-0.0872665,-0.698132,-0.174533,-0.174533,-0.0965692,-0.693472,-0.160543,-0.198749,1.86055,-0.260961,-0.419752,0.726436
28,40,-0.0872665,-0.698132,-0.174533,-0.174533,-0.0965692,-0.693472,-0.160543,-0.198749,1.86055,-0.260961,-0.419751,0.726436
28,40,-0.0872665,-0.698132,-0.174533,-0.174533,-0.0965692,-0.693472,-0.160543,-0.198749,1.86055,-0.260961,-0.419751,0.726435
28,40,-0.0872665,-0.698132,-0.174533,-0.174533,-0.0965692,-0.693472,-0.160543,-0.198749,1.86055,-0.260961,-0.41975,0.726435
28,40,-0.0872665,-0.698132,-0.174533,-0.174533,-0.0965692,-0.693472,-0.160543,-0.198749,1.86055,-0.260961,-0.419749,0.726435
28,40,-0.0872665,-0.698132,-0.174533,-0.174533,-0.0965692,-0.693472,-0.160479,-0.198709,1.86055,-0.260961,-0.421608,0.725211
28,40,-0.0872665,-0.698132,-0.174533,-0.174533,-0.0965692,-0.693472,-0.160479,-0.198709,1.86055,-0.260961,-0.421608,0.725211
28,40,-0.0872665,-0.698132,-0.174533,-0.174533,-0.0965692,-0.693472,-0.160479,-0.198709,1.86055,-0.260961,-0.421608,0.725211
28,40,-0.0872665,-0.698132,-0.174533,-0.174533,-0.0965692,-0.693472,-0.160479,-0.198709,1.86055,-0.260961,-0.421608,0.725211
28,40,-0.0872665,-0.698132,-0.174533,-0.174533,-0.0965692,-0.693472,-0.160479,-0.198709,1.86055,-0.260961,-0.421608,0.725211
28,40,-0.0872665,-0.698132,-0.174533,-0.174533,-0.0965692,-0.693472,-0.160479,-0.198709,1.86055,-0.260961,-0.421608,0.725211
28,40,-0.0872665,-0.698132,-0.174533,-0.174533,-0.0965692,-0.693472,-0.160479,-0.198709,1.86055,-0.260961,-0.421608,0.725211
28,40,-0.0872665,-0.698132,-0.174533,-0.174533,-0.0965692,-0.693472,-0.160479,-0.198709,1.86055,-0.260961,-0.421608,0.725211
28,40,-0.0872665,-0.698132,-0.174533,-0.174533,-0.0965692,-0.693472,-0.160479,-0.198709,1.86055,-0.260961,-0.421608,0.725211
28,40,-0.0872665,-0.698132,-0.174533,-0.174533,-0.0965692,-0.693472,-0.160479,-0.198709,1.86055,-0.260961,-0.421608,0.725211
28,40,-0.0872665,-0.698132,-0.174533,-0.174533,-0.0965692,-0.693472,-0.160479,-0.198709,1.86055,-0.260961,-0.421608,0.725211
28,40,-0.0872665,-0.698132,-0.174533,-0.174533,-0.0965692,-0.693472,-0.160479,-0.198709,1.86055,-0.260961,-0.421608,0.725211
28,40,-0.0872665,-0.698132,-0.174533,-0.174533,-0.0965692,-0.693472,-0.160479,-0.198709,1.86055,-0.260961,-0.421608,0.725211
28,40,-0.0872665,-0.698132,-0.174533,-0.174533,-0.0965692,-0.693472,-0.160479,-0.198709,1.86055,-0.260961,-0.421608,0.725211
28,40,-0.0872665,-0.698132,-0.174533,-0.174533,-0.0965692,-0.693472,-0.160479,-0.198709,1.86055,-0.260961,-0.421608,0.725211
28,40,-0.0872665,-0.698132,-0.174533,-0.174533,-0.0965692,-0.693472,-0.160479,-0.198709,1.86055,-0.260961,-0.421608,0.725211
28,40,-0.0872665,-0.698132,-0.174533,-0.174533,-0.0965692,-0.693472,-0.160479,-0.198709,1.86055,-0.260961,-0.421608,0.725211
28,40,-0.0872665,-0.698132,-0.174533,-0.174533,-0.0965692,-0.693472,-0.160479,-0.198709,1.86055,-0.260961,-0.421608,0.725211
28,40,-0.0872665,-0.698132,-0.174533,-0.174533,-0.0965692,-0.693472,-0.160479,-0.198709,1.86055,-0.260961,-0.421608,0.725211
28,40,-0.0872665,-0.698132,-0.174533,-0.174533,-0.0965692,-0.693472,-0.160479,-0.198709,1.86055,-0.260961,-0.421608,0.725211
28,40,-0.0872665,-0.698132,-0.174533,-0.174533,-0.0965692,-0.693472,-0.160479,-0.198709,1.86055,-0.260961,-0.421608,0.725211
28,40,-0.0872665,-0.698132,-0.174533,-0.174533,-0.0965692,-0.693472,-0.160546,-0.198751,1.86055,-0.260961,-0.419606,0.726481
28,40,-0.0872665,-0.698132,-0.174533,-0.174533,-0.0965692,-0.693472,-0.160546,-0.198751,1.86055,-0.260961,-0.419606,0.726481
28,40,-0.0872665,-0.698132,-0.174533,-0.174533,-0.0965692,-0.693472,-0.160546,-0.198751,1.86055,-0.260961,-0.419606,0.726481
28,40,-0.0872665,-0.698132,-0.174533,-0.174533,-0.0965692,-0.693472,-0.160546,-0.198751,1.86055,-0.260961,-0.419606,0.726481
28,40,-0.0872665,-0.698132,-0.174533,-0.174533,-0.0965692,-0.693472,-0.160546,-0.198751,1.86055,-0.260961,-0.419606,0.726481
28,40,-0.0872665,-0.698132,-0.174533,-0.174533,-0.0965692,-0.693472,-0.160546,-0.198751,1.86055,-0.260961,-0.419606,0.726481
28,40,-0.0872665,-0.698132,-0.174533,-0.174533,-0.0965692,-0.693472,-0.160543,-0.198691,1.86055,-0.260961,-0.41969,0.724756
28,40,-0.0872665,-0.698132,-0.174533,-0.174533,-0.0965692,-0.693472,-0.160543,-0.198691,1.86055,-0.260961,-0.41969,0.724756
28,40,-0.0872665,-0.698132,-0.174533,-0.174533,-0.0965692,-0.693472,-0.160543,-0.198691,1.86055,-0.260961,-0.41969,0.724756
28,40,-0.0872665,-0.698132,-0.174533,-0.174533,-0.0965692,-0.693472,-0.160543,-0.198691,1.86055,-0.260961,-0.41969,0.724756
28,40,-0.0872665,-0.698132,-0.174533,-0.174533,-0.0965692,-0.693472,-0.160543,-0.198691,1.86055,-0.260961,-0.41969,0.724756
28,40,-0.0872665,-0.698132,-0.174533,-0.174533,-0.0965692,-0.693472,-0.160543,-0.198691,1.86055,-0.260961,-0.41969,0.724756
28,40,-0.0872665,-0.698132,-0.174533,-0.174533,-0.0965692,-0.693472,-0.160543,-0.198691,1.86055,-0.260961,-0.41969,0.724756
28,40,-0.0872665,-0.698132,-0.174533,-0.174533,-0.0965692,-0.693472,-0.160543,-0.198691,1.86055,-0.260961,-0.41969,0.724756
28,40,-0.0872665,-0.698132,-0.174533,-0.174533,-0.0965692,-0.693472,-0.160543,-0.198691,1.86055,-0.260961,-0.41969,0.724756
28,40,-0.0872665,-0.698132,-0.174533,-0.174533,-0.0965692,-0.693472,-0.160543,-0.198691,1.86055,-0.260961,-0.41969,0.724756
28,40,-0.0872665,-0.698132,-0.174533,-0.174533,-0.0965692,-0.693472,-0.160543,-0.198691,1.86055,-0.260961,-0.41969,0.724756
28,40,-0.0872665,-0.698132,-0.174533,-0.174533,-0.0965692,-0.693472,-0.160543,-0.198691,1.86055,-0.260961,-0.41969,0.724756
28,40,-0.0872665,-0.698132,-0.174533,-0.174533,-0.0965692,-0.693472,-0.160543,-0.198691,1.86055,-0.260961,-0.41969,0.724756
28,40,-0.0872665,-0.698132,-0.174533,-0.174533,-0.0965692,-0.693472,-0.160543,-0.198691,1.86055,-0.260961,-0.41969,0.724756
28,40,-0.0872665,-0.698132,-0.174533,-0.174533,-0.0965692,-0.693472,-0.160549,-0.198753,1.86055,-0.260961,-0.419518,0.7266
28,40,-0.0872665,-0.698132,-0.174533,-0.174533,-0.0965692,-0.693472,-0.160549,-0.198753,1.86055,-0.260961,-0.419518,0.7266
28,40,-0.0872665,-0.698132,-0.174533,-0.174533,-0.0965692,-0.693472,-0.160549,-0.198753,1.86055,-0.260961,-0.419518,0.7266
28,40,-0.0872665,-0.698132,-0.174533,-0.174533,-0.0965692,-0.693472,-0.160549,-0.198753,1.86055,-0.260961,-0.419518,0.7266
28,40,-0.0872665,-0.698132,-0.174533,-0.174533,-0.0965692,-0.693472,-0.160549,-0.198753,1.86055,-0.260961,-0.419518,0.7266
28,40,-0.0872665,-0.698132,-0.174533,-0.174533,-0.0965692,-0.693472,-0.160549,-0.198753,1.86055,-0.260961,-0.419518,0.7266
28,40,-0.0872665,-0.698132,-0.174533,-0.174533,-0.0965692,-0.693472,-0.160549,-0.198753,1.86055,-0.260961,-0.419518,0.7266
28,40,-0.0872665,-0.698132,-0.174533,-0.174533,-0.0965692,-0.693472,-0.160549,-0.198753,1.86055,-0.260961,-0.419518,0.7266
28,40,-0.0872665,-0.698132,-0.174533,-0.174533,-0.0965692,-0.693472,-0.160549,-0.198753,1.86055,-0.260961,-0.419518,0.7266
28,40,-0.0872665,-0.698132,-0.174533,-0.174533,-0.0965692,-0.693472,-0.160549,-0.198753,1.86055,-0.260961,-0.419518,0.7266
28,40,-0.0872665,-0.698132,-0.174533,-0.174533,-0.0965692,-0.693472,-0.160549,-0.198753,1.86055,-0.260961,-0.419518,0.7266
28,40,-0.0872665,-0.698132,-0.174533,-0.174533,-0.0965692,-0.693472,-0.160616,-0.198795,1.86055,-0.260961,-0.417515,0.727871
28,40,-0.0872665,-0.698132,-0.174533,-0.174533,-0.0965692,-0.693472,-0.160616,-0.198795,1.86055,-0.260961,-0.417515,0.727871
28,40,-0.0872665,-0.698132,-0.174533,-0.174533,-0.0965692,-0.693472,-0.160616,-0.198795,1.86055,-0.260961,-0.417515,0.727871
28,40,-0.0872665,-0.698132,-0.174533,-0.174533,-0.0965692,-0.693472,-0.160616,-0.198795,1.86055,-0.260961,-0.417515,0.727871
28,40,-0.0872665,-0.698132,-0.174533,-0.174533,-0.0965692,-0.693472,-0.160616,-0.198795,1.86055,-0.260961,-0.417515,0.727871
28,40,-0.0872665,-0.698132,-0.174533,-0.174533,-0.0965692,-0.693472,-0.160616,-0.198795,1.86055,-0.260961,-0.417515,0.727871
28,40,-0.0872665,-0.698132,-0.174533,-0.174533,-0.0965692,-0.693472,-0.160616,-0.198795,1.86055,-0.260961,-0.417515,0.727871
28,40,-0.0872665,-0.698132,-0.174533,-0.174533,-0.0965692,-0.693472,-0.160616,-0.198795,1.86055,-0.260961,-0.417515,0.727871
28,40,-0.0872665,-0.698132,-0.174533,-0.174533,-0.0965692,-0.693472,-0.160616,-0.198795,1.86055,-0.260961,-0.417515,0.727871
28,40,-0.0872665,-0.698132,-0.174533,-0.174533,-0.0965692,-0.693472,-0.160616,-0.198795,1.86055,-0.260961,-0.417515,0.727871
28,40,-0.0872665,-0.698132,-0.174533,-0.174533,-0.0965692,-0.693472,-0.160616,-0.198795,1.86055,-0.260961,-0.417515,0.727871
28,40,-0.0872665,-0.698132,-0.174533,-0.174533,-0.0965692,-0.693472,-0.160683,-0.198838,1.86055,-0.260961,-0.41544,0.729187
28,40,-0.0872665,-0.698132,-0.174533,-0.174533,-0.0965692,-0.693472,-0.160683,-0.198838,1.86055,-0.260961,-0.41544,0.729187
28,40,-0.0872665,-0.698132,-0.174533,-0.174533,-0.0965692,-0.693472,-0.160622,-0.198857,1.86055,-0.260961,-0.41727,0.729761
28,40,-0.0872665,-0.698132,-0.174533,-0.174533,-0.0965692,-0.693472,-0.160622,-0.198857,1.86055,-0.260961,-0.41727,0.729761
28,40,-0.0872665,-0.698132,-0.174533,-0.174533,-0.0965692,-0.693472,-0.160622,-0.198857,1.86055,-0.260961,-0.41727,0.729761
28,40,-0.0872665,-0.698132,-0.174533,-0.174533,-0.0965692,-0.693472,-0.160622,-0.198857,1.86055,-0.260961,-0.41727,0.729761
28,40,-0.0872665,-0.698132,-0.174533,-0.174533,-0.0965692,-0.693472,-0.160622,-0.198857,1.86055,-0.260961,-0.41727,0.729761
28,40,-0.0872665,-0.698132,-0.174533,-0.174533,-0.0965692,-0.693472,-0.160622,-0.198857,1.86055,-0.260961,-0.41727,0.729761
28,40,-0.0872665,-0.698132,-0.174533,-0.174533,-0.0965692,-0.693472,-0.160622,-0.198857,1.86055,-0.260961,-0.41727,0.729761
28,40,-0.0872665,-0.698132,-0.174533,-0.174533,-0.0965692,-0.693472,-0.160622,-0.198857,1.86055,-0.260961,-0.41727,0.729761
28,40,-0.0872665,-0.698132,-0.174533,-0.174533,-0.0965692,-0.693472,-0.160622,-0.198857,1.86055,-0.260961,-0.41727,0.729761
28,40,-0.0872665,-0.698132,-0.174533,-0.174533,-0.0965692,-0.693472,-0.160622,-0.198857,1.86055,-0.260961,-0.41727,0.729761
28,40,-0.0872665,-0.698132,-0.174533,-0.174533,-0.0965692,-0.693472,-0.160622,-0.198857,1.86055,-0.260961,-0.41727,0.729761
28,40,-0.0872665,-0.698132,-0.174533,-0.174533,-0.0965692,-0.693472,-0.160622,-0.198857,1.86055,-0.260961,-0.41727,0.729761
28,40,-0.0872665,-0.698132,-0.174533,-0.174533,-0.0965692,-0.693472,-0.160622,-0.198857,1.86055,-0.260961,-0.41727,0.729761
28,40,-0.0872665,-0.698132,-0.174533,-0.174533,-0.0965692,-0.693472,-0.160627,-0.198918,1.86055,-0.260961,-0.417077,0.731618
28,40,-0.0872665,-0.698132,-0.174533,-0.174533,-0.0965692,-0.693472,-0.160627,-0.198918,1.86055,-0.260961,-0.417077,0.731618
28,40,-0.0872665,-0.698132,-0.174533,-0.174533,-0.0965692,-0.693472,-0.160627,-0.198918,1.86055,-0.260961,-0.417077,0.731618
28,40,-0.0872665,-0.698132,-0.174533,-0.174533,-0.0965692,-0.693472,-0.160624,-0.198859,1.86055,-0.260961,-0.417164,0.729836
28,40,-0.0872665,-0.698132,-0.174533,-0.174533,-0.0965692,-0.693472,-0.160624,-0.198859,1.86055,-0.260961,-0.417164,0.729836
28,40,-0.0872665,-0.698132,-0.174533,-0.174533,-0.0965692,-0.693472,-0.160624,-0.198859,1.86055,-0.260961,-0.417164,0.729836
28,40,-0.0872665,-0.698132,-0.174533,-0.174533,-0.0965692,-0.693472,-0.160624,-0.198859,1.86055,-0.260961,-0.417164,0.729836
28,40,-0.0872665,-0.698132,-0.174533,-0.174533,-0.0965692,-0.693472,-0.160624,-0.198859,1.86055,-0.260961,-0.417164,0.729836
28,40,-0.0872665,-0.698132,-0.174533,-0.174533,-0.0965692,-0.693472,-0.160624,-0.198859,1.86055,-0.260961,-0.417164,0.729836
28,40,-0.0872665,-0.698132,-0.174533,-0.174533,-0.0965692,-0.693472,-0.160624,-0.198859,1.86055,-0.260961,-0.417164,0.729836
28,40,-0.0872665,-0.698132,-0.174533,-0.174533,-0.0965692,-0.693472,-0.160624,-0.198859,1.86055,-0.260961,-0.417164,0.729836
28,40,-0.0872665,-0.698132,-0.174533,-0.174533,-0.0965692,-0.693472,-0.160624,-0.198859,1.86055,-0.260961,-0.417164,0.729836
28,40,-0.0872665,-0.698132,-0.174533,-0.174533,-0.0965692,-0.693472,-0.160624,-0.198859,1.86055,-0.260961,-0.417164,0.729836
28,40,-0.0872665,-0.698132,-0.174533,-0.174533,-0.0965692,-0.693472,-0.160563,-0.198878,1.86055,-0.260961,-0.418994,0.73041
28,40,-0.0872665,-0.698132,-0.174533,-0.174533,-0.0965692,-0.693472,-0.16056,-0.198819,1.86055,-0.260961,-0.419082,0.728627
28,40,-0.0872665,-0.698132,-0.174533,-0.174533,-0.0965692,-0.693472,-0.160627,-0.198861,1.86055,-0.260961,-0.41707,0.729904
28,40,-0.0872665,-0.698132,-0.174533,-0.174533,-0.0965692,-0.693472,-0.160627,-0.198861,1.86055,-0.260961,-0.41707,0.729904
28,40,-0.0872665,-0.698132,-0.174533,-0.174533,-0.0965692,-0.693472,-0.160627,-0.198861,1.86055,-0.260961,-0.41707,0.729904
28,40,-0.0872665,-0.698132,-0.174533,-0.174533,-0.0965692,-0.693472,-0.160627,-0.198861,1.86055,-0.260961,-0.41707,0.729904
28,40,-0.0872665,-0.698132,-0.174533,-0.174533,-0.0965692,-0.693472,-0.160627,-0.198861,1.86055,-0.260961,-0.41707,0.729904
28,40,-0.0872665,-0.698132,-0.174533,-0.174533,-0.0965692,-0.693472,-0.160627,-0.198861,1.86055,-0.260961,-0.41707,0.729904
28,40,-0.0872665,-0.698132,-0.174533,-0.174533,-0.0965692,-0.693472,-0.160627,-0.198861,1.86055,-0.260961,-0.41707,0.729904
28,40,-0.0872665,-0.698132,-0.174533,-0.174533,-0.0965692,-0.693472,-0.160627,-0.198861,1.86055,-0.260961,-0.41707,0.729904
28,40,-0.0872665,-0.698132,-0.174533,-0.174533,-0.0965692,-0.693472,-0.160624,-0.198801,1.86055,-0.260961,-0.417157,0.728121
28,40,-0.0872665,-0.698132,-0.174533,-0.174533,-0.0965692,-0.693472,-0.160624,-0.198801,1.86055,-0.260961,-0.417157,0.728121
28,40,-0.0872665,-0.698132,-0.174533,-0.174533,-0.0965692,-0.693472,-0.160624,-0.198801,1.86055,-0.260961,-0.417157,0.728121
28,40,-0.0872665,-0.698132,-0.174533,-0.174533,-0.0965692,-0.693472,-0.160624,-0.198801,1.86055,-0.260961,-0.417157,0.728121
28,40,-0.0872665,-0.698132,-0.174533,-0.174533,-0.0965692,-0.693472,-0.160624,-0.198801,1.86055,-0.260961,-0.417157,0.728121
28,40,-0.0872665,-0.698132,-0.174533,-0.174533,-0.0965692,-0.693472,-0.160624,-0.198801,1.86055,-0.260961,-0.417157,0.728121
28,40,-0.0872665,-0.698132,-0.174533,-0.174533,-0.0965692,-0.693472,-0.160691,-0.198844,1.86055,-0.260961,-0.415161,0.729387
28,40,-0.0872665,-0.698132,-0.174533,-0.174533,-0.0965692,-0.693472,-0.160691,-0.198844,1.86055,-0.260961,-0.415161,0.729387
28,40,-0.0872665,-0.698132,-0.174533,-0.174533,-0.0965692,-0.693472,-0.160691,-0.198844,1.86055,-0.260961,-0.415161,0.729387
28,40,-0.0872665,-0.698132,-0.174533,-0.174533,-0.0965692,-0.693472,-0.160691,-0.198844,1.86055,-0.260961,-0.415161,0.729387
28,40,-0.0872665,-0.698132,-0.174533,-0.174533,-0.0965692,-0.693472,-0.160688,-0.198784,1.86055,-0.260961,-0.415248,0.727605
28,40,-0.0872665,-0.698132,-0.174533,-0.174533,-0.0965692,-0.693472,-0.160688,-0.198784,1.86055,-0.260961,-0.415248,0.727605
28,40,-0.0872665,-0.698132,-0.174533,-0.174533,-0.0965692,-0.693472,-0.160688,-0.198784,1.86055,-0.260961,-0.415248,0.727605
28,40,-0.0872665,-0.698132,-0.174533,-0.174533,-0.0965692,-0.693472,-0.160688,-0.198784,1.86055,-0.260961,-0.415248,0.727605
28,40,-0.0872665,-0.698132,-0.174533,-0.174533,-0.0965692,-0.693472,-0.160688,-0.198784,1.86055,-0.260961,-0.415248,0.727605
28,40,-0.0872665,-0.698132,-0.174533,-0.174533,-0.0965692,-0.693472,-0.160688,-0.198784,1.86055,-0.260961,-0.415248,0.727605
28,40,-0.0872665,-0.698132,-0.174533,-0.174533,-0.0965692,-0.693472,-0.160688,-0.198784,1.86055,-0.260961,-0.415248,0.727605
28,40,-0.0872665,-0.698132,-0.174533,-0.174533,-0.0965692,-0.693472,-0.160688,-0.198784,1.86055,-0.260961,-0.415248,0.727605
28,40,-0.0872665,-0.698132,-0.174533,-0.174533,-0.0965692,-0.693472,-0.160688,-0.198784,1.86055,-0.260961,-0.415248,0.727605
28,40,-0.0872665,-0.698132,-0.174533,-0.174533,-0.0965692,-0.693472,-0.160688,-0.198784,1.86055,-0.260961,-0.415248,0.727605
28,40,-0.0872665,-0.698132,-0.174533,-0.174533,-0.0965692,-0.693472,-0.160688,-0.198784,1.86055,-0.260961,-0.415248,0.727605
28,40,-0.0872665,-0.698132,-0.174533,-0.174533,-0.0965692,-0.693472,-0.160685,-0.198725,1.86055,-0.260961,-0.415342,0.725709
28,40,-0.0872665,-0.698132,-0.174533,-0.174533,-0.0965692,-0.693472,-0.160685,-0.198725,1.86055,-0.260961,-0.415342,0.725709
28,40,-0.0872665,-0.698132,-0.174533,-0.174533,-0.0965692,-0.693472,-0.160752,-0.198767,1.86055,-0.260961,-0.413348,0.726973
28,40,-0.0872665,-0.698132,-0.174533,-0.174533,-0.0965692,-0.693472,-0.160752,-0.198767,1.86055,-0.260961,-0.413348,0.726973
28,40,-0.0872665,-0.698132,-0.174533,-0.174533,-0.0965692,-0.693472,-0.160752,-0.198767,1.86055,-0.260961,-0.413348,0.726973
28,40,-0.0872665,-0.698132,-0.174533,-0.174533,-0.0965692,-0.693472,-0.160752,-0.198767,1.86055,-0.260961,-0.413348,0.726973
28,40,-0.0872665,-0.698132,-0.174533,-0.174533,-0.0965692,-0.693472,-0.160752,-0.198767,1.86055,-0.260961,-0.413348,0.726973
28,40,-0.0872665,-0.698132,-0.174533,-0.174533,-0.0965692,-0.693472,-0.160752,-0.198767,1.86055,-0.260961,-0.413348,0.726973
28,40,-0.0872665,-0.698132,-0.174533,-0.174533,-0.0965692,-0.693472,-0.160752,-0.198767,1.86055,-0.260961,-0.413348,0.726973
28,40,-0.0872665,-0.698132,-0.174533,-0.174533,-0.0965692,-0.693472,-0.160752,-0.198767,1.86055,-0.260961,-0.413348,0.726973
28,40,-0.0872665,-0.698132,-0.174533,-0.174533,-0.0965692,-0.693472,-0.160752,-0.198767,1.86055,-0.260961,-0.413348,0.726973
28,40,-0.0872665,-0.698132,-0.174533,-0.174533,-0.0965692,-0.693472,-0.160752,-0.198767,1.86055,-0.260961,-0.413348,0.726973
28,40,-0.0872665,-0.698132,-0.174533,-0.174533,-0.0965692,-0.693472,-0.160752,-0.198767,1.86055,-0.260961,-0.413348,0.726973
28,40,-0.0872665,-0.698132,-0.174533,-0.174533,-0.0965692,-0.693472,-0.160752,-0.198767,1.86055,-0.260961,-0.413348,0.726973
28,40,-0.0872665,-0.698132,-0.174533,-0.174533,-0.0965692,-0.693472,-0.160752,-0.198767,1.86055,-0.260961,-0.413348,0.726973
28,40,-0.0872665,-0.698132,-0.174533,-0.174533,-0.0965692,-0.693472,-0.160752,-0.198767,1.86055,-0.260961,-0.413348,0.726973
28,40,-0.0872665,-0.698132,-0.174533,-0.174533,-0.0965692,-0.693472,-0.160752,-0.198767,1.86055,-0.260961,-0.413348,0.726973
28,40,-0.0872665,-0.698132,-0.174533,-0.174533,-0.0965692,-0.693472,-0.160752,-0.198767,1.86055,-0.260961,-0.413348,0.726973
28,40,-0.0872665,-0.698132,-0.174533,-0.174533,-0.0965692,-0.693472,-0.160749,-0.198708,1.86055,-0.260961,-0.413435,0.725205
28,40,-0.0872665,-0.698132,-0.174533,-0.174533,-0.0965692,-0.693472,-0.160816,-0.19875,1.86055,-0.260961,-0.411434,0.726475
28,40,-0.0872665,-0.698132,-0.174533,-0.174533,-0.0965692,-0.693472,-0.160816,-0.19875,1.86055,-0.260961,-0.411434,0.726475
28,40,-0.0872665,-0.698132,-0.174533,-0.174533,-0.0965692,-0.693472,-0.160816,-0.19875,1.86055,-0.260961,-0.411434,0.726475
28,40,-0.0872665,-0.698132,-0.174533,-0.174533,-0.0965692,-0.693472,-0.160816,-0.19875,1.86055,-0.260961,-0.411434,0.726475
28,40,-0.0872665,-0.698132,-0.174533,-0.174533,-0.0965692,-0.693472,-0.160755,-0.198769,1.86055,-0.260961,-0.413264,0.727049
28,40,-0.0872665,-0.698132,-0.174533,-0.174533,-0.0965692,-0.693472,-0.160755,-0.198769,1.86055,-0.260961,-0.413264,0.727049
28,40,-0.0872665,-0.698132,-0.174533,-0.174533,-0.0965692,-0.693472,-0.160755,-0.198769,1.86055,-0.260961,-0.413264,0.727049
28,40,-0.0872665,-0.698132,-0.174533,-0.174533,-0.0965692,-0.693472,-0.160755,-0.198769,1.86055,-0.260961,-0.413264,0.727049
28,40,-0.0872665,-0.698132,-0.174533,-0.174533,-0.0965692,-0.693472,-0.160755,-0.198769,1.86055,-0.260961,-0.413264,0.727049
28,40,-0.0872665,-0.698132,-0.174533,-0.174533,-0.0965692,-0.693472,-0.160755,-0.198769,1.86055,-0.260961,-0.413264,0.727049
28,40,-0.0872665,-0.698132,-0.174533,-0.174533,-0.0965692,-0.693472,-0.160755,-0.198769,1.86055,-0.260961,-0.413264,0.727049
28,40,-0.0872665,-0.698132,-0.174533,-0.174533,-0.0965692,-0.693472,-0.160755,-0.198769,1.86055,-0.260961,-0.413264,0.727049
28,40,-0.0872665,-0.698132,-0.174533,-0.174533,-0.0965692,-0.693472,-0.160755,-0.198769,1.86055,-0.260961,-0.413264,0.727049
28,40,-0.0872665,-0.698132,-0.174533,-0.174533,-0.0965692,-0.693472,-0.160755,-0.198769,1.86055,-0.260961,-0.413264,0.727049
28,40,-0.0872665,-0.698132,-0.174533,-0.174533,-0.0965692,-0.693472,-0.160752,-0.19871,1.86055,-0.260961,-0.413351,0.725276
28,40,-0.0872665,-0.698132,-0.174533,-0.174533,-0.0965692,-0.693472,-0.160752,-0.19871,1.86055,-0.260961,-0.413351,0.725276
28,40,-0.0872665,-0.698132,-0.174533,-0.174533,-0.0965692,-0.693472,-0.160752,-0.19871,1.86055,-0.260961,-0.413351,0.725276
28,40,-0.0872665,-0.698132,-0.174533,-0.174533,-0.0965692,-0.693472,-0.160752,-0.19871,1.86055,-0.260961,-0.413351,0.725276
28,40,-0.0872665,-0.698132,-0.174533,-0.174533,-0.0965692,-0.693472,-0.160752,-0.19871,1.86055,-0.260961,-0.413351,0.725276
28,40,-0.0872665,-0.698132,-0.174533,-0.174533,-0.0965692,-0.693472,-0.160752,-0.19871,1.86055,-0.260961,-0.413351,0.725276
28,40,-0.0872665,-0.698132,-0.174533,-0.174533,-0.0965692,-0.693472,-0.160691,-0.198729,1.86055,-0.260961,-0.415181,0.72585
28,40,-0.0872665,-0.698132,-0.174533,-0.174533,-0.0965692,-0.693472,-0.160691,-0.198729,1.86055,-0.260961,-0.415181,0.72585
28,40,-0.0872665,-0.698132,-0.174533,-0.174533,-0.0965692,-0.693472,-0.160691,-0.198729,1.86055,-0.260961,-0.415181,0.72585
28,40,-0.0872665,-0.698132,-0.174533,-0.174533,-0.0965692,-0.693472,-0.160691,-0.198729,1.86055,-0.260961,-0.415181,0.72585
28,40,-0.0872665,-0.698132,-0.174533,-0.174533,-0.0965692,-0.693472,-0.160691,-0.198729,1.86055,-0.260961,-0.415181,0.72585
28,40,-0.0872665,-0.698132,-0.174533,-0.174533,-0.0965692,-0.693472,-0.160691,-0.198729,1.86055,-0.260961,-0.415181,0.72585
28,40,-0.0872665,-0.698132,-0.174533,-0.174533,-0.0965692,-0.693472,-0.160691,-0.198729,1.86055,-0.260961,-0.415181,0.72585
28,40,-0.0872665,-0.698132,-0.174533,-0.174533,-0.0965692,-0.693472,-0.160691,-0.198729,1.86055,-0.260961,-0.415181,0.72585
28,40,-0.0872665,-0.698132,-0.174533,-0.174533,-0.0965692,-0.693472,-0.160691,-0.198729,1.86055,-0.260961,-0.415181,0.72585
28,40,-0.0872665,-0.698132,-0.174533,-0.174533,-0.0965692,-0.693472,-0.160691,-0.198729,1.86055,-0.260961,-0.415181,0.72585
28,40,-0.0872665,-0.698132,-0.174533,-0.174533,-0.0965692,-0.693472,-0.160691,-0.198729,1.86055,-0.260961,-0.415181,0.72585
28,40,-0.0872665,-0.698132,-0.174533,-0.174533,-0.0965692,-0.693472,-0.160691,-0.198729,1.86055,-0.260961,-0.415181,0.72585
28,40,-0.0872665,-0.698132,-0.174533,-0.174533,-0.0965692,-0.693472,-0.160688,-0.19867,1.86055,-0.260961,-0.415268,0.72408
28,40,-0.0872665,-0.698132,-0.174533,-0.174533,-0.0965692,-0.693472,-0.160688,-0.19867,1.86055,-0.260961,-0.415268,0.72408
28,40,-0.0872665,-0.698132,-0.174533,-0.174533,-0.0965692,-0.693472,-0.160688,-0.19867,1.86055,-0.260961,-0.415268,0.72408
28,40,-0.0872665,-0.698132,-0.174533,-0.174533,-0.0965692,-0.693472,-0.160688,-0.19867,1.86055,-0.260961,-0.415268,0.72408
28,40,-0.0872665,-0.698132,-0.174533,-0.174533,-0.0965692,-0.693472,-0.160688,-0.19867,1.86055,-0.260961,-0.415268,0.72408
28,40,-0.0872665,-0.698132,-0.174533,-0.174533,-0.0965692,-0.693472,-0.160688,-0.19867,1.86055,-0.260961,-0.415268,0.72408
28,40,-0.0872665,-0.698132,-0.174533,-0.174533,-0.0965692,-0.693472,-0.160688,-0.19867,1.86055,-0.260961,-0.415268,0.72408
28,40,-0.0872665,-0.698132,-0.174533,-0.174533,-0.0965692,-0.693472,-0.160688,-0.19867,1.86055,-0.260961,-0.415268,0.72408
28,40,-0.0872665,-0.698132,-0.174533,-0.174533,-0.0965692,-0.693472,-0.160688,-0.19867,1.86055,-0.260961,-0.415268,0.72408
28,40,-0.0872665,-0.698132,-0.174533,-0.174533,-0.0965692,-0.693472,-0.160627,-0.198689,1.86055,-0.260961,-0.417098,0.724654
28,40,-0.0872665,-0.698132,-0.174533,-0.174533,-0.0965692,-0.693472,-0.160627,-0.198689,1.86055,-0.260961,-0.417098,0.724654
28,40,-0.0872665,-0.698132,-0.174533,-0.174533,-0.0965692,-0.693472,-0.160627,-0.198689,1.86055,-0.260961,-0.417098,0.724654
28,40,-0.0872665,-0.698132,-0.174533,-0.174533,-0.0965692,-0.693472,-0.160627,-0.198689,1.86055,-0.260961,-0.417098,0.724654
28,40,-0.0872665,-0.698132,-0.174533,-0.174533,-0.0965692,-0.693472,-0.160627,-0.198689,1.86055,-0.260961,-0.417098,0.724654
28,40,-0.0872665,-0.698132,-0.174533,-0.174533,-0.0965692,-0.693472,-0.160627,-0.198689,1.86055,-0.260961,-0.417098,0.724654
28,40,-0.0872665,-0.698132,-0.174533,-0.174533,-0.0965692,-0.693472,-0.160627,-0.198689,1.86055,-0.260961,-0.417098,0.724654
28,40,-0.0872665,-0.698132,-0.174533,-0.174533,-0.0965692,-0.693472,-0.160627,-0.198689,1.86055,-0.260961,-0.417098,0.724654
28,40,-0.0872665,-0.698132,-0.174533,-0.174533,-0.0965692,-0.693472,-0.160627,-0.198689,1.86055,-0.260961,-0.417098,0.724654
28,40,-0.0872665,-0.698132,-0.174533,-0.174533,-0.0965692,-0.693472,-0.160627,-0.198689,1.86055,-0.260961,-0.417098,0.724654
28,40,-0.0872665,-0.698132,-0.174533,-0.174533,-0.0965692,-0.693472,-0.160566,-0.198708,1.86055,-0.260961,-0.418928,0.725229
28,40,-0.0872665,-0.698132,-0.174533,-0.174533,-0.0965692,-0.693472,-0.160566,-0.198708,1.86055,-0.260961,-0.418928,0.725229
28,40,-0.0872665,-0.698132,-0.174533,-0.174533,-0.0965692,-0.693472,-0.160566,-0.198708,1.86055,-0.260961,-0.418928,0.725229
28,40,-0.0872665,-0.698132,-0.174533,-0.174533,-0.0965692,-0.693472,-0.160566,-0.198708,1.86055,-0.260961,-0.418928,0.725229
28,40,-0.0872665,-0.698132,-0.174533,-0.174533,-0.0965692,-0.693472,-0.160566,-0.198708,1.86055,-0.260961,-0.418928,0.725229
28,40,-0.0872665,-0.698132,-0.174533,-0.174533,-0.0965692,-0.693523,-0.160566,-0.198708,1.86055,-0.258114,-0.418928,0.725229
28,40,-0.0872665,-0.698132,-0.174533,-0.174533,-0.0965692,-0.693523,-0.160633,-0.19875,1.86055,-0.258114,-0.417009,0.726446
28,40,-0.0872665,-0.698132,-0.174533,-0.174533,-0.0965692,-0.693523,-0.160633,-0.19875,1.86055,-0.258114,-0.417009,0.726446
28,40,-0.0872665,-0.698132,-0.174533,-0.174533,-0.0965692,-0.693523,-0.160633,-0.19875,1.86055,-0.258114,-0.417009,0.726446
28,40,-0.0872665,-0.698132,-0.174533,-0.174533,-0.0965692,-0.693523,-0.160633,-0.19875,1.86055,-0.258114,-0.417009,0.726446
28,40,-0.0872665,-0.698132,-0.174533,-0.174533,-0.0965692,-0.693523,-0.160633,-0.19875,1.86055,-0.258114,-0.417009,0.726446
28,40,-0.0872665,-0.698132,-0.174533,-0.174533,-0.0965692,-0.693523,-0.160633,-0.19875,1.86055,-0.258114,-0.417009,0.726446
28,40,-0.0872665,-0.698132,-0.174533,-0.174533,-0.0965692,-0.693523,-0.160633,-0.19875,1.86055,-0.258114,-0.417009,0.726446
28,40,-0.0872665,-0.698132,-0.174533,-0.174533,-0.0965692,-0.693523,-0.160572,-0.198769,1.86055,-0.258114,-0.41892,0.727045
28,40,-0.0872665,-0.698132,-0.174533,-0.174533,-0.0965692,-0.693523,-0.160572,-0.198769,1.86055,-0.258114,-0.41892,0.727045
28,40,-0.0872665,-0.698132,-0.174533,-0.174533,-0.0965692,-0.693523,-0.160572,-0.198769,1.86055,-0.258114,-0.41892,0.727045
28,40,-0.0872665,-0.698132,-0.174533,-0.174533,-0.0965692,-0.693523,-0.160572,-0.198769,1.86055,-0.258114,-0.41892,0.727045
28,40,-0.0872665,-0.698132,-0.174533,-0.174533,-0.0965692,-0.693523,-0.160572,-0.198769,1.86055,-0.258114,-0.41892,0.727045
28,40,-0.0872665,-0.698132,-0.174533,-0.174533,-0.0965692,-0.693523,-0.160572,-0.198769,1.86055,-0.258114,-0.41892,0.727045
28,40,-0.0872665,-0.698132,-0.174533,-0.174533,-0.0965692,-0.693523,-0.160572,-0.198769,1.86055,-0.258114,-0.41892,0.727045
28,40,-0.0872665,-0.698132,-0.174533,-0.174533,-0.0965692,-0.693523,-0.160572,-0.198769,1.86055,-0.258114,-0.41892,0.727045
28,40,-0.0872665,-0.698132,-0.174533,-0.174533,-0.0965692,-0.693523,-0.160572,-0.198769,1.86055,-0.258114,-0.41892,0.727045
28,40,-0.0872665,-0.698132,-0.174533,-0.174533,-0.0965692,-0.693523,-0.160569,-0.19871,1.86055,-0.258114,-0.419004,0.725338
28,40,-0.0872665,-0.698132,-0.174533,-0.174533,-0.0965692,-0.693523,-0.160569,-0.19871,1.86055,-0.258114,-0.419004,0.725338
28,40,-0.0872665,-0.698132,-0.174533,-0.174533,-0.0965692,-0.693523,-0.160569,-0.19871,1.86055,-0.258114,-0.419004,0.725338
28,40,-0.0872665,-0.698132,-0.174533,-0.174533,-0.0965692,-0.693523,-0.160569,-0.19871,1.86055,-0.258114,-0.419004,0.725338
28,40,-0.0872665,-0.698132,-0.174533,-0.174533,-0.0965692,-0.693523,-0.160569,-0.19871,1.86055,-0.258114,-0.419004,0.725338
28,40,-0.0872665,-0.698132,-0.174533,-0.174533,-0.0965692,-0.693523,-0.160508,-0.198729,1.86055,-0.258114,-0.420837,0.725914
28,40,-0.0872665,-0.698132,-0.174533,-0.174533,-0.0965692,-0.693523,-0.160508,-0.198729,1.86055,-0.258114,-0.420837,0.725914
28,40,-0.0872665,-0.698132,-0.174533,-0.174533,-0.0965692,-0.693523,-0.160508,-0.198729,1.86055,-0.258114,-0.420837,0.725914
28,40,-0.0872665,-0.698132,-0.174533,-0.174533,-0.0965692,-0.693523,-0.160508,-0.198729,1.86055,-0.258114,-0.420837,0.725914
28,40,-0.0872665,-0.698132,-0.174533,-0.174533,-0.0965692,-0.693523,-0.160508,-0.198729,1.86055,-0.258114,-0.420837,0.725914
28,40,-0.0872665,-0.698132,-0.174533,-0.174533,-0.0965692,-0.693523,-0.160508,-0.198729,1.86055,-0.258114,-0.420837,0.725914
28,40,-0.0872665,-0.698132,-0.174533,-0.174533,-0.0965692,-0.693523,-0.160508,-0.198729,1.86055,-0.258114,-0.420837,0.725914
28,40,-0.0872665,-0.698132,-0.174533,-0.174533,-0.0965692,-0.693523,-0.160508,-0.198729,1.86055,-0.258114,-0.420837,0.725914
28,40,-0.0872665,-0.698132,-0.174533,-0.174533,-0.0965692,-0.693523,-0.160575,-0.198772,1.86055,-0.258114,-0.418834,0.727184
28,40,-0.0872665,-0.698132,-0.174533,-0.174533,-0.0965692,-0.693523,-0.160575,-0.198772,1.86055,-0.258114,-0.418834,0.727184
28,40,-0.0872665,-0.698132,-0.174533,-0.174533,-0.0965692,-0.693523,-0.160575,-0.198772,1.86055,-0.258114,-0.418834,0.727184
28,40,-0.0872665,-0.698132,-0.174533,-0.174533,-0.0965692,-0.693523,-0.160575,-0.198772,1.86055,-0.258114,-0.418834,0.727184
28,40,-0.0872665,-0.698132,-0.174533,-0.174533,-0.0965692,-0.693523,-0.160575,-0.198772,1.86055,-0.258114,-0.418834,0.727184
28,40,-0.0872665,-0.698132,-0.174533,-0.174533,-0.0965692,-0.693523,-0.160575,-0.198772,1.86055,-0.258114,-0.418834,0.727184
28,40,-0.0872665,-0.698132,-0.174533,-0.174533,-0.0965692,-0.693523,-0.160575,-0.198772,1.86055,-0.258114,-0.418834,0.727184
28,40,-0.0872665,-0.698132,-0.174533,-0.174533,-0.0965692,-0.693523,-0.160575,-0.198772,1.86055,-0.258114,-0.418834,0.727184
28,40,-0.0872665,-0.698132,-0.174533,-0.174533,-0.0965692,-0.693523,-0.160575,-0.198772,1.86055,-0.258114,-0.418834,0.727184
28,40,-0.0872665,-0.698132,-0.174533,-0.174533,-0.0965692,-0.693523,-0.160575,-0.198772,1.86055,-0.258114,-0.418834,0.727184
28,40,-0.0872665,-0.698132,-0.174533,-0.174533,-0.0965692,-0.693523,-0.160575,-0.198772,1.86055,-0.258114,-0.418834,0.727184
28,40,-0.0872665,-0.698132,-0.174533,-0.174533,-0.0965692,-0.693523,-0.160575,-0.198772,1.86055,-0.258114,-0.418834,0.727184
28,40,-0.0872665,-0.698132,-0.174533,-0.174533,-0.0965692,-0.693523,-0.160575,-0.198772,1.86055,-0.258114,-0.418834,0.727184
28,40,-0.0872665,-0.698132,-0.174533,-0.174533,-0.0965692,-0.693523,-0.160575,-0.198772,1.86055,-0.258114,-0.418834,0.727184
28,40,-0.0872665,-0.698132,-0.174533,-0.174533,-0.0965692,-0.693523,-0.160575,-0.198772,1.86055,-0.258114,-0.418834,0.727184
28,40,-0.0872665,-0.698132,-0.174533,-0.174533,-0.0965692,-0.693523,-0.160641,-0.198814,1.86055,-0.258114,-0.416831,0.728454
28,40,-0.0872665,-0.698132,-0.174533,-0.174533,-0.0965692,-0.693523,-0.160641,-0.198814,1.86055,-0.258114,-0.416831,0.728454
28,40,-0.0872665,-0.698132,-0.174533,-0.174533,-0.0965692,-0.693523,-0.160641,-0.198814,1.86055,-0.258114,-0.416831,0.728454
28,40,-0.0872665,-0.698132,-0.174533,-0.174533,-0.0965692,-0.693523,-0.160641,-0.198814,1.86055,-0.258114,-0.416831,0.728454
28,40,-0.0872665,-0.698132,-0.174533,-0.174533,-0.0965692,-0.693523,-0.16058,-0.198833,1.86055,-0.258114,-0.418653,0.729026
28,40,-0.0872665,-0.698132,-0.174533,-0.174533,-0.0965692,-0.693523,-0.16058,-0.198833,1.86055,-0.258114,-0.418653,0.729026
28,40,-0.0872665,-0.698132,-0.174533,-0.174533,-0.0965692,-0.693523,-0.16058,-0.198833,1.86055,-0.258114,-0.418653,0.729026
28,40,-0.0872665,-0.698132,-0.174533,-0.174533,-0.0965692,-0.693523,-0.16058,-0.198833,1.86055,-0.258114,-0.418653,0.729026
28,40,-0.0872665,-0.698132,-0.174533,-0.174533,-0.0965692,-0.693523,-0.16058,-0.198833,1.86055,-0.258114,-0.418653,0.729026
28,40,-0.0872665,-0.698132,-0.174533,-0.174533,-0.0965692,-0.693523,-0.16058,-0.198833,1.86055,-0.258114,-0.418653,0.729026
28,40,-0.0872665,-0.698132,-0.174533,-0.174533,-0.0965692,-0.693523,-0.16058,-0.198833,1.86055,-0.258114,-0.418653,0.729026
28,40,-0.0872665,-0.698132,-0.174533,-0.174533,-0.0965692,-0.693523,-0.16058,-0.198833,1.86055,-0.258114,-0.418653,0.729026
28,40,-0.0872665,-0.698132,-0.174533,-0.174533,-0.0965692,-0.693523,-0.16058,-0.198833,1.86055,-0.258114,-0.418653,0.729026
28,40,-0.0872665,-0.698132,-0.174533,-0.174533,-0.0965692,-0.693523,-0.16058,-0.198833,1.86055,-0.258114,-0.418653,0.729026
28,40,-0.0872665,-0.698132,-0.174533,-0.174533,-0.0965692,-0.693523,-0.16058,-0.198833,1.86055,-0.258114,-0.418653,0.729026
28,40,-0.0872665,-0.698132,-0.174533,-0.174533,-0.0965692,-0.693523,-0.16058,-0.198833,1.86055,-0.258114,-0.418653,0.729026
28,40,-0.0872665,-0.698132,-0.174533,-0.174533,-0.0965692,-0.693523,-0.16058,-0.198833,1.86055,-0.258114,-0.418653,0.729026
28,40,-0.0872665,-0.698132,-0.174533,-0.174533,-0.0965692,-0.693523,-0.16058,-0.198833,1.86055,-0.258114,-0.418653,0.729026
28,40,-0.0872665,-0.698132,-0.174533,-0.174533,-0.0965692,-0.693523,-0.16058,-0.198833,1.86055,-0.258114,-0.418653,0.729026
28,40,-0.0872665,-0.698132,-0.174533,-0.174533,-0.0965692,-0.693523,-0.16058,-0.198833,1.86055,-0.258114,-0.418653,0.729026
28,40,-0.0872665,-0.698132,-0.174533,-0.174533,-0.0965692,-0.693523,-0.16058,-0.198833,1.86055,-0.258114,-0.418653,0.729026
28,40,-0.0872665,-0.698132,-0.174533,-0.174533,-0.0965692,-0.693523,-0.16058,-0.198833,1.86055,-0.258114,-0.418653,0.729026
28,40,-0.0872665,-0.698132,-0.174533,-0.174533,-0.0965692,-0.693523,-0.160577,-0.198774,1.86055,-0.258114,-0.41874,0.727243
28,40,-0.0872665,-0.698132,-0.174533,-0.174533,-0.0965692,-0.693523,-0.160577,-0.198774,1.86055,-0.258114,-0.41874,0.727243
28,40,-0.0872665,-0.698132,-0.174533,-0.174533,-0.0965692,-0.693523,-0.160577,-0.198774,1.86055,-0.258114,-0.41874,0.727243
28,40,-0.0872665,-0.698132,-0.174533,-0.174533,-0.0965692,-0.693523,-0.160644,-0.198816,1.86055,-0.258114,-0.416737,0.728514
28,40,-0.0872665,-0.698132,-0.174533,-0.174533,-0.0965692,-0.693523,-0.160644,-0.198816,1.86055,-0.258114,-0.416737,0.728514
28,40,-0.0872665,-0.698132,-0.174533,-0.174533,-0.0965692,-0.693523,-0.160644,-0.198816,1.86055,-0.258114,-0.416737,0.728514
28,40,-0.0872665,-0.698132,-0.174533,-0.174533,-0.0965692,-0.693523,-0.160644,-0.198816,1.86055,-0.258114,-0.416737,0.728514
28,40,-0.0872665,-0.698132,-0.174533,-0.174533,-0.0965692,-0.693523,-0.160644,-0.198816,1.86055,-0.258114,-0.416737,0.728514
28,40,-0.0872665,-0.698132,-0.174533,-0.174533,-0.0965692,-0.693523,-0.160644,-0.198816,1.86055,-0.258114,-0.416737,0.728514
28,40,-0.0872665,-0.698132,-0.174533,-0.174533,-0.0965692,-0.693523,-0.160644,-0.198816,1.86055,-0.258114,-0.416737,0.728514
28,40,-0.0872665,-0.698132,-0.174533,-0.174533,-0.0965692,-0.693523,-0.160644,-0.198816,1.86055,-0.258114,-0.416737,0.728514
28,40,-0.0872665,-0.698132,-0.174533,-0.174533,-0.0965692,-0.693523,-0.160644,-0.198816,1.86055,-0.258114,-0.416737,0.728514
28,40,-0.0872665,-0.698132,-0.174533,-0.174533,-0.0965692,-0.693523,-0.160644,-0.198816,1.86055,-0.258114,-0.416737,0.728514
28,40,-0.0872665,-0.698132,-0.174533,-0.174533,-0.0965692,-0.693523,-0.160583,-0.198835,1.86055,-0.258114,-0.418492,0.729064
28,40,-0.0872665,-0.698132,-0.174533,-0.174533,-0.0965692,-0.693523,-0.160583,-0.198835,1.86055,-0.258114,-0.418492,0.729064
28,40,-0.0872665,-0.698132,-0.174533,-0.174533,-0.0965692,-0.693523,-0.160583,-0.198835,1.86055,-0.258114,-0.418492,0.729064
28,40,-0.0872665,-0.698132,-0.174533,-0.174533,-0.0965692,-0.693523,-0.160583,-0.198835,1.86055,-0.258114,-0.418492,0.729064
28,40,-0.0872665,-0.698132,-0.174533,-0.174533,-0.0965692,-0.693523,-0.160583,-0.198835,1.86055,-0.258114,-0.418492,0.729064
28,40,-0.0872665,-0.698132,-0.174533,-0.174533,-0.0965692,-0.693523,-0.160583,-0.198835,1.86055,-0.258114,-0.418492,0.729064
28,40,-0.0872665,-0.698132,-0.174533,-0.174533,-0.0965692,-0.693523,-0.16065,-0.198877,1.86055,-0.258114,-0.416488,0.730335
28,40,-0.0872665,-0.698132,-0.174533,-0.174533,-0.0965692,-0.693523,-0.16065,-0.198877,1.86055,-0.258114,-0.416488,0.730335
28,40,-0.0872665,-0.698132,-0.174533,-0.174533,-0.0965692,-0.693523,-0.16065,-0.198877,1.86055,-0.258114,-0.416488,0.730335
28,40,-0.0872665,-0.698132,-0.174533,-0.174533,-0.0965692,-0.693523,-0.16065,-0.198877,1.86055,-0.258114,-0.416488,0.730335
28,40,-0.0872665,-0.698132,-0.174533,-0.174533,-0.0965692,-0.693523,-0.16065,-0.198877,1.86055,-0.258114,-0.416488,0.730335
28,40,-0.0872665,-0.698132,-0.174533,-0.174533,-0.0965692,-0.693523,-0.16065,-0.198877,1.86055,-0.258114,-0.416488,0.730335
28,40,-0.0872665,-0.698132,-0.174533,-0.174533,-0.0965692,-0.693523,-0.16065,-0.198877,1.86055,-0.258114,-0.416488,0.730335
28,40,-0.0872665,-0.698132,-0.174533,-0.174533,-0.0965692,-0.693523,-0.16065,-0.198877,1.86055,-0.258114,-0.416488,0.730335
28,40,-0.0872665,-0.698132,-0.174533,-0.174533,-0.0965692,-0.693523,-0.16065,-0.198877,1.86055,-0.258114,-0.416488,0.730335
28,40,-0.0872665,-0.698132,-0.174533,-0.174533,-0.0965692,-0.693523,-0.16065,-0.198877,1.86055,-0.258114,-0.416488,0.730335
28,40,-0.0872665,-0.698132,-0.174533,-0.174533,-0.0965692,-0.693523,-0.16065,-0.198877,1.86055,-0.258114,-0.416488,0.730335
28,40,-0.0872665,-0.698132,-0.174533,-0.174533,-0.0965692,-0.693523,-0.160647,-0.198818,1.86055,-0.258114,-0.416576,0.728552
28,40,-0.0872665,-0.698132,-0.174533,-0.174533,-0.0965692,-0.693523,-0.160647,-0.198818,1.86055,-0.258114,-0.416576,0.728552
28,40,-0.0872665,-0.698132,-0.174533,-0.174533,-0.0965692,-0.693523,-0.160647,-0.198818,1.86055,-0.258114,-0.416576,0.728552
28,40,-0.0872665,-0.698132,-0.174533,-0.174533,-0.0965692,-0.693523,-0.160647,-0.198818,1.86055,-0.258114,-0.416576,0.728552
28,40,-0.0872665,-0.698132,-0.174533,-0.174533,-0.0965692,-0.693523,-0.160647,-0.198818,1.86055,-0.258114,-0.416576,0.728552
28,40,-0.0872665,-0.698132,-0.174533,-0.174533,-0.0965692,-0.693523,-0.160647,-0.198818,1.86055,-0.258114,-0.416576,0.728552
28,40,-0.0872665,-0.698132,-0.174533,-0.174533,-0.0965692,-0.693523,-0.160647,-0.198818,1.86055,-0.258114,-0.416576,0.728552
28,40,-0.0872665,-0.698132,-0.174533,-0.174533,-0.0965692,-0.693523,-0.160647,-0.198818,1.86055,-0.258114,-0.416576,0.728552
28,40,-0.0872665,-0.698132,-0.174533,-0.174533,-0.0965692,-0.693523,-0.160647,-0.198818,1.86055,-0.258114,-0.416576,0.728552
28,40,-0.0872665,-0.698132,-0.174533,-0.174533,-0.0965692,-0.693523,-0.160647,-0.198818,1.86055,-0.258114,-0.416576,0.728552
28,40,-0.0872665,-0.698132,-0.174533,-0.174533,-0.0965692,-0.693523,-0.160647,-0.198818,1.86055,-0.258114,-0.416576,0.728552
28,40,-0.0872665,-0.698132,-0.174533,-0.174533,-0.0965692,-0.693523,-0.160647,-0.198818,1.86055,-0.258114,-0.416576,0.728552
28,40,-0.0872665,-0.698132,-0.174533,-0.174533,-0.0965692,-0.693523,-0.160647,-0.198818,1.86055,-0.258114,-0.416576,0.728552
28,40,-0.0872665,-0.698132,-0.174533,-0.174533,-0.0965692,-0.693523,-0.160647,-0.198818,1.86055,-0.258114,-0.416576,0.728552
28,40,-0.0872665,-0.698132,-0.174533,-0.174533,-0.0965692,-0.693523,-0.160647,-0.198818,1.86055,-0.258114,-0.416576,0.728552
28,40,-0.0872665,-0.698132,-0.174533,-0.174533,-0.0965692,-0.693523,-0.160647,-0.198818,1.86055,-0.258114,-0.416576,0.728552
28,40,-0.0872665,-0.698132,-0.174533,-0.174533,-0.0965692,-0.693523,-0.160647,-0.198818,1.86055,-0.258114,-0.416576,0.728552
28,40,-0.0872665,-0.698132,-0.174533,-0.174533,-0.0965692,-0.693523,-0.160647,-0.198818,1.86055,-0.258114,-0.416576,0.728552
28,40,-0.0872665,-0.698132,-0.174533,-0.174533,-0.0965692,-0.693523,-0.160647,-0.198818,1.86055,-0.258114,-0.416576,0.728552
28,40,-0.0872665,-0.698132,-0.174533,-0.174533,-0.0965692,-0.693523,-0.160647,-0.198818,1.86055,-0.258114,-0.416576,0.728552
28,40,-0.0872665,-0.698132,-0.174533,-0.174533,-0.0965692,-0.693523,-0.160586,-0.198837,1.86055,-0.258114,-0.418406,0.729126
28,40,-0.0872665,-0.698132,-0.174533,-0.174533,-0.0965692,-0.693523,-0.160586,-0.198837,1.86055,-0.258114,-0.418406,0.729126
28,40,-0.0872665,-0.698132,-0.174533,-0.174533,-0.0965692,-0.693523,-0.160586,-0.198837,1.86055,-0.258114,-0.418406,0.729126
28,40,-0.0872665,-0.698132,-0.174533,-0.174533,-0.0965692,-0.693523,-0.160586,-0.198837,1.86055,-0.258114,-0.418406,0.729126
28,40,-0.0872665,-0.698132,-0.174533,-0.174533,-0.0965692,-0.693523,-0.160586,-0.198837,1.86055,-0.258114,-0.418406,0.729126
28,40,-0.0872665,-0.698132,-0.174533,-0.174533,-0.0965692,-0.693523,-0.160586,-0.198837,1.86055,-0.258114,-0.418406,0.729126
28,40,-0.0872665,-0.698132,-0.174533,-0.174533,-0.0965692,-0.693523,-0.160586,-0.198837,1.86055,-0.258114,-0.418406,0.729126
28,40,-0.0872665,-0.698132,-0.174533,-0.174533,-0.0965692,-0.693523,-0.160583,-0.198778,1.86055,-0.258114,-0.418494,0.727343
28,40,-0.0872665,-0.698132,-0.174533,-0.174533,-0.0965692,-0.693523,-0.160583,-0.198778,1.86055,-0.258114,-0.418494,0.727343
28,40,-0.0872665,-0.698132,-0.174533,-0.174533,-0.0965692,-0.693523,-0.16065,-0.19882,1.86055,-0.258114,-0.41649,0.728614
28,40,-0.0872665,-0.698132,-0.174533,-0.174533,-0.0965692,-0.693523,-0.16065,-0.19882,1.86055,-0.258114,-0.41649,0.728614
28,40,-0.0872665,-0.698132,-0.174533,-0.174533,-0.0965692,-0.693523,-0.16065,-0.19882,1.86055,-0.258114,-0.41649,0.728614
28,40,-0.0872665,-0.698132,-0.174533,-0.174533,-0.0965692,-0.693523,-0.16065,-0.19882,1.86055,-0.258114,-0.41649,0.728614
28,40,-0.0872665,-0.698132,-0.174533,-0.174533,-0.0965692,-0.693523,-0.16065,-0.19882,1.86055,-0.258114,-0.41649,0.728614
28,40,-0.0872665,-0.698132,-0.174533,-0.174533,-0.0965692,-0.693523,-0.16065,-0.19882,1.86055,-0.258114,-0.41649,0.728614
28,40,-0.0872665,-0.698132,-0.174533,-0.174533,-0.0965692,-0.693523,-0.16065,-0.19882,1.86055,-0.258114,-0.41649,0.728614
28,40,-0.0872665,-0.698132,-0.174533,-0.174533,-0.0965692,-0.693523,-0.16065,-0.19882,1.86055,-0.258114,-0.41649,0.728614
28,40,-0.0872665,-0.698132,-0.174533,-0.174533,-0.0965692,-0.693523,-0.16065,-0.19882,1.86055,-0.258114,-0.41649,0.728614
28,40,-0.0872665,-0.698132,-0.174533,-0.174533,-0.0965692,-0.693523,-0.16065,-0.19882,1.86055,-0.258114,-0.41649,0.728614
28,40,-0.0872665,-0.698132,-0.174533,-0.174533,-0.0965692,-0.693523,-0.16065,-0.19882,1.86055,-0.258114,-0.41649,0.728614
28,40,-0.0872665,-0.698132,-0.174533,-0.174533,-0.0965692,-0.693523,-0.16065,-0.19882,1.86055,-0.258114,-0.41649,0.728614
28,40,-0.0872665,-0.698132,-0.174533,-0.174533,-0.0965692,-0.693523,-0.16065,-0.19882,1.86055,-0.258114,-0.41649,0.728614
28,40,-0.0872665,-0.698132,-0.174533,-0.174533,-0.0965692,-0.693523,-0.16065,-0.19882,1.86055,-0.258114,-0.41649,0.728614
28,40,-0.0872665,-0.698132,-0.174533,-0.174533,-0.0965692,-0.693523,-0.16065,-0.19882,1.86055,-0.258114,-0.41649,0.728614
28,40,-0.0872665,-0.698132,-0.174533,-0.174533,-0.0965692,-0.693523,-0.16065,-0.19882,1.86055,-0.258114,-0.41649,0.728614
28,40,-0.0872665,-0.698132,-0.174533,-0.174533,-0.0965692,-0.693523,-0.16065,-0.19882,1.86055,-0.258114,-0.41649,0.728614
28,40,-0.0872665,-0.698132,-0.174533,-0.174533,-0.0965692,-0.693523,-0.16065,-0.19882,1.86055,-0.258114,-0.41649,0.728614
28,40,-0.0872665,-0.698132,-0.174533,-0.174533,-0.0965692,-0.693523,-0.16065,-0.19882,1.86055,-0.258114,-0.41649,0.728614
28,40,-0.0872665,-0.698132,-0.174533,-0.174533,-0.0965692,-0.693523,-0.16065,-0.19882,1.86055,-0.258114,-0.41649,0.728614
28,40,-0.0872665,-0.698132,-0.174533,-0.174533,-0.0965692,-0.693523,-0.16065,-0.19882,1.86055,-0.258114,-0.41649,0.728614
28,40,-0.0872665,-0.698132,-0.174533,-0.174533,-0.0965692,-0.693523,-0.16065,-0.19882,1.86055,-0.258114,-0.41649,0.728614
28,40,-0.0872665,-0.698132,-0.174533,-0.174533,-0.0965692,-0.693523,-0.16065,-0.19882,1.86055,-0.258114,-0.41649,0.728614
28,40,-0.0872665,-0.698132,-0.174533,-0.174533,-0.0965692,-0.693523,-0.16065,-0.19882,1.86055,-0.258114,-0.41649,0.728614
28,40,-0.0872665,-0.698132,-0.174533,-0.174533,-0.0965692,-0.693523,-0.16065,-0.19882,1.86055,-0.258114,-0.41649,0.728614
28,40,-0.0872665,-0.698132,-0.174533,-0.174533,-0.0965692,-0.693523,-0.16065,-0.19882,1.86055,-0.258114,-0.41649,0.728614
28,40,-0.0872665,-0.698132,-0.174533,-0.174533,-0.0965692,-0.693523,-0.16065,-0.19882,1.86055,-0.258114,-0.41649,0.728614
28,40,-0.0872665,-0.698132,-0.174533,-0.174533,-0.0965692,-0.693523,-0.16065,-0.19882,1.86055,-0.258114,-0.41649,0.728614
28,40,-0.0872665,-0.698132,-0.174533,-0.174533,-0.0965692,-0.693523,-0.16065,-0.19882,1.86055,-0.258114,-0.41649,0.728614
28,40,-0.0872665,-0.698132,-0.174533,-0.174533,-0.0965692,-0.693523,-0.16065,-0.19882,1.86055,-0.258114,-0.41649,0.728614
28,40,-0.0872665,-0.698132,-0.174533,-0.174533,-0.0965692,-0.693523,-0.16065,-0.19882,1.86055,-0.258114,-0.41649,0.728614
28,40,-0.0872665,-0.698132,-0.174533,-0.174533,-0.0965692,-0.693523,-0.16065,-0.19882,1.86055,-0.258114,-0.41649,0.728614
28,40,-0.0872665,-0.698132,-0.174533,-0.174533,-0.0965692,-0.693523,-0.16065,-0.19882,1.86055,-0.258114,-0.41649,0.728614
28,40,-0.0872665,-0.698132,-0.174533,-0.174533,-0.0965692,-0.693523,-0.16065,-0.19882,1.86055,-0.258114,-0.41649,0.728614
28,40,-0.0872665,-0.698132,-0.174533,-0.174533,-0.0965692,-0.693523,-0.16065,-0.19882,1.86055,-0.258114,-0.41649,0.728614
28,40,-0.0872665,-0.698132,-0.174533,-0.174533,-0.0965692,-0.693523,-0.16065,-0.19882,1.86055,-0.258114,-0.41649,0.728614
28,40,-0.0872665,-0.698132,-0.174533,-0.174533,-0.0965692,-0.693523,-0.16065,-0.19882,1.86055,-0.258114,-0.41649,0.728614
28,40,-0.0872665,-0.698132,-0.174533,-0.174533,-0.0965692,-0.693523,-0.16065,-0.19882,1.86055,-0.258114,-0.41649,0.728614
28,40,-0.0872665,-0.698132,-0.174533,-0.174533,-0.0965692,-0.693523,-0.16065,-0.19882,1.86055,-0.258114,-0.41649,0.728614
28,40,-0.0872665,-0.698132,-0.174533,-0.174533,-0.0965692,-0.693523,-0.16065,-0.19882,1.86055,-0.258114,-0.41649,0.728614
28,40,-0.0872665,-0.698132,-0.174533,-0.174533,-0.0965692,-0.693523,-0.16065,-0.19882,1.86055,-0.258114,-0.41649,0.728614
28,40,-0.0872665,-0.698132,-0.174533,-0.174533,-0.0965692,-0.693523,-0.16065,-0.19882,1.86055,-0.258114,-0.41649,0.728614
28,40,-0.0872665,-0.698132,-0.174533,-0.174533,-0.0965692,-0.693523,-0.16065,-0.19882,1.86055,-0.258114,-0.41649,0.728614
28,40,-0.0872665,-0.698132,-0.174533,-0.174533,-0.0965692,-0.693523,-0.16065,-0.19882,1.86055,-0.258114,-0.41649,0.728614
28,40,-0.0872665,-0.698132,-0.174533,-0.174533,-0.0965692,-0.693523,-0.160717,-0.198862,1.86055,-0.258114,-0.414487,0.729885
28,40,-0.0872665,-0.698132,-0.174533,-0.174533,-0.0965692,-0.693523,-0.160717,-0.198862,1.86055,-0.258114,-0.414487,0.729885
28,40,-0.0872665,-0.698132,-0.174533,-0.174533,-0.0965692,-0.693523,-0.160717,-0.198862,1.86055,-0.258114,-0.414487,0.729885
28,40,-0.0872665,-0.698132,-0.174533,-0.174533,-0.0965692,-0.693523,-0.160717,-0.198862,1.86055,-0.258114,-0.414487,0.729885
28,40,-0.0872665,-0.698132,-0.174533,-0.174533,-0.0965692,-0.693523,-0.160717,-0.198862,1.86055,-0.258114,-0.414487,0.729885
28,40,-0.0872665,-0.698132,-0.174533,-0.174533,-0.0965692,-0.693523,-0.160717,-0.198862,1.86055,-0.258114,-0.414487,0.729885
28,40,-0.0872665,-0.698132,-0.174533,-0.174533,-0.0965692,-0.693523,-0.160717,-0.198862,1.86055,-0.258114,-0.414487,0.729885
28,40,-0.0872665,-0.698132,-0.174533,-0.174533,-0.0965692,-0.693523,-0.160717,-0.198862,1.86055,-0.258114,-0.414487,0.729885
28,40,-0.0872665,-0.698132,-0.174533,-0.174533,-0.0965692,-0.693523,-0.160717,-0.198862,1.86055,-0.258114,-0.414487,0.729885
28,40,-0.0872665,-0.698132,-0.174533,-0.174533,-0.0965692,-0.693523,-0.160717,-0.198862,1.86055,-0.258114,-0.414487,0.729885
28,40,-0.0872665,-0.698132,-0.174533,-0.174533,-0.0965692,-0.693523,-0.160714,-0.198803,1.86055,-0.258114,-0.414575,0.728102
28,40,-0.0872665,-0.698132,-0.174533,-0.174533,-0.0965692,-0.693523,-0.160714,-0.198803,1.86055,-0.258114,-0.414575,0.728102
28,40,-0.0872665,-0.698132,-0.174533,-0.174533,-0.0965692,-0.693523,-0.160714,-0.198803,1.86055,-0.258114,-0.414575,0.728102
28,40,-0.0872665,-0.698132,-0.174533,-0.174533,-0.0965692,-0.693523,-0.160714,-0.198803,1.86055,-0.258114,-0.414575,0.728102
28,40,-0.0872665,-0.698132,-0.174533,-0.174533,-0.0965692,-0.693523,-0.160714,-0.198803,1.86055,-0.258114,-0.414575,0.728102
28,40,-0.0872665,-0.698132,-0.174533,-0.174533,-0.0965692,-0.693523,-0.160714,-0.198803,1.86055,-0.258114,-0.414575,0.728102
28,40,-0.0872665,-0.698132,-0.174533,-0.174533,-0.0965692,-0.693523,-0.160714,-0.198803,1.86055,-0.258114,-0.414575,0.728102
28,40,-0.0872665,-0.698132,-0.174533,-0.174533,-0.0965692,-0.693523,-0.160714,-0.198803,1.86055,-0.258114,-0.414575,0.728102
28,40,-0.0872665,-0.698132,-0.174533,-0.174533,-0.0965692,-0.693523,-0.160714,-0.198803,1.86055,-0.258114,-0.414575,0.728102
28,40,-0.0872665,-0.698132,-0.174533,-0.174533,-0.0965692,-0.693523,-0.160714,-0.198803,1.86055,-0.258114,-0.414575,0.728102
28,40,-0.0872665,-0.698132,-0.174533,-0.174533,-0.0965692,-0.693523,-0.160653,-0.198822,1.86055,-0.258114,-0.416405,0.728676
28,40,-0.0872665,-0.698132,-0.174533,-0.174533,-0.0965692,-0.693523,-0.160653,-0.198822,1.86055,-0.258114,-0.416405,0.728676
28,40,-0.0872665,-0.698132,-0.174533,-0.174533,-0.0965692,-0.693523,-0.16072,-0.198864,1.86055,-0.258114,-0.414401,0.729947
28,40,-0.0872665,-0.698132,-0.174533,-0.174533,-0.0965692,-0.693523,-0.16072,-0.198864,1.86055,-0.258114,-0.414401,0.729947
28,40,-0.0872665,-0.698132,-0.174533,-0.174533,-0.0965692,-0.693523,-0.16072,-0.198864,1.86055,-0.258114,-0.414401,0.729947
28,40,-0.0872665,-0.698132,-0.174533,-0.174533,-0.0965692,-0.693523,-0.16072,-0.198864,1.86055,-0.258114,-0.414401,0.729947
28,40,-0.0872665,-0.698132,-0.174533,-0.174533,-0.0965692,-0.693523,-0.16072,-0.198864,1.86055,-0.258114,-0.414401,0.729947
28,40,-0.0872665,-0.698132,-0.174533,-0.174533,-0.0965692,-0.693523,-0.16072,-0.198864,1.86055,-0.258114,-0.414401,0.729947
28,40,-0.0872665,-0.698132,-0.174533,-0.174533,-0.0965692,-0.693523,-0.16072,-0.198864,1.86055,-0.258114,-0.414401,0.729947
28,40,-0.0872665,-0.698132,-0.174533,-0.174533,-0.0965692,-0.693523,-0.16072,-0.198864,1.86055,-0.258114,-0.414401,0.729947
28,40,-0.0872665,-0.698132,-0.174533,-0.174533,-0.0965692,-0.693523,-0.160717,-0.198805,1.86055,-0.258114,-0.414489,0.728164
28,40,-0.0872665,-0.698132,-0.174533,-0.174533,-0.0965692,-0.693523,-0.160717,-0.198805,1.86055,-0.258114,-0.414489,0.728164
28,40,-0.0872665,-0.698132,-0.174533,-0.174533,-0.0965692,-0.693523,-0.160717,-0.198805,1.86055,-0.258114,-0.414489,0.728164
28,40,-0.0872665,-0.698132,-0.174533,-0.174533,-0.0965692,-0.693523,-0.160717,-0.198805,1.86055,-0.258114,-0.414489,0.728164
28,40,-0.0872665,-0.698132,-0.174533,-0.174533,-0.0965692,-0.693523,-0.160717,-0.198805,1.86055,-0.258114,-0.414489,0.728164
28,40,-0.0872665,-0.698132,-0.174533,-0.174533,-0.0965692,-0.693523,-0.160717,-0.198805,1.86055,-0.258114,-0.414489,0.728164
28,40,-0.0872665,-0.698132,-0.174533,-0.174533,-0.0965692,-0.693523,-0.160717,-0.198805,1.86055,-0.258114,-0.414489,0.728164
28,40,-0.0872665,-0.698132,-0.174533,-0.174533,-0.0965692,-0.693523,-0.160717,-0.198805,1.86055,-0.258114,-0.414489,0.728164
28,40,-0.0872665,-0.698132,-0.174533,-0.174533,-0.0965692,-0.693523,-0.160717,-0.198805,1.86055,-0.258114,-0.414489,0.728164
28,40,-0.0872665,-0.698132,-0.174533,-0.174533,-0.0965692,-0.693523,-0.160717,-0.198805,1.86055,-0.258114,-0.414489,0.728164
28,40,-0.0872665,-0.698132,-0.174533,-0.174533,-0.0965692,-0.693523,-0.160717,-0.198805,1.86055,-0.258114,-0.414489,0.728164
28,40,-0.0872665,-0.698132,-0.174533,-0.174533,-0.0965692,-0.693523,-0.160717,-0.198805,1.86055,-0.258114,-0.414489,0.728164
28,40,-0.0872665,-0.698132,-0.174533,-0.174533,-0.0965692,-0.693523,-0.160717,-0.198805,1.86055,-0.258114,-0.414489,0.728164
28,40,-0.0872665,-0.698132,-0.174533,-0.174533,-0.0965692,-0.693523,-0.160717,-0.198805,1.86055,-0.258114,-0.414489,0.728164
28,40,-0.0872665,-0.698132,-0.174533,-0.174533,-0.0965692,-0.693523,-0.160717,-0.198805,1.86055,-0.258114,-0.414489,0.728164
28,40,-0.0872665,-0.698132,-0.174533,-0.174533,-0.0965692,-0.693523,-0.16078,-0.198788,1.86055,-0.258114,-0.412573,0.727652
28,40,-0.0872665,-0.698132,-0.174533,-0.174533,-0.0965692,-0.693523,-0.16078,-0.198788,1.86055,-0.258114,-0.412573,0.727652
28,40,-0.0872665,-0.698132,-0.174533,-0.174533,-0.0965692,-0.693523,-0.16078,-0.198788,1.86055,-0.258114,-0.412573,0.727652
28,40,-0.0872665,-0.698132,-0.174533,-0.174533,-0.0965692,-0.693523,-0.16078,-0.198788,1.86055,-0.258114,-0.412573,0.727652
28,40,-0.0872665,-0.698132,-0.174533,-0.174533,-0.0965692,-0.693523,-0.16078,-0.198788,1.86055,-0.258114,-0.412573,0.727652
28,40,-0.0872665,-0.698132,-0.174533,-0.174533,-0.0965692,-0.693523,-0.16078,-0.198788,1.86055,-0.258114,-0.412573,0.727652
28,40,-0.0872665,-0.698132,-0.174533,-0.174533,-0.0965692,-0.693523,-0.16078,-0.198788,1.86055,-0.258114,-0.412573,0.727652
28,40,-0.0872665,-0.698132,-0.174533,-0.174533,-0.0965692,-0.693523,-0.16078,-0.198788,1.86055,-0.258114,-0.412573,0.727652
28,40,-0.0872665,-0.698132,-0.174533,-0.174533,-0.0965692,-0.693523,-0.16078,-0.198788,1.86055,-0.258114,-0.412573,0.727652
28,40,-0.0872665,-0.698132,-0.174533,-0.174533,-0.0965692,-0.693523,-0.16078,-0.198788,1.86055,-0.258114,-0.412573,0.727652
28,40,-0.0872665,-0.698132,-0.174533,-0.174533,-0.0965692,-0.693523,-0.16078,-0.198788,1.86055,-0.258114,-0.412573,0.727652
28,40,-0.0872665,-0.698132,-0.174533,-0.174533,-0.0965692,-0.693523,-0.16078,-0.198788,1.86055,-0.258114,-0.412573,0.727652
28,40,-0.0872665,-0.698132,-0.174533,-0.174533,-0.0965692,-0.693523,-0.16078,-0.198788,1.86055,-0.258114,-0.412573,0.727652
28,40,-0.0872665,-0.698132,-0.174533,-0.174533,-0.0965692,-0.693523,-0.16078,-0.198788,1.86055,-0.258114,-0.412573,0.727652
28,40,-0.0872665,-0.698132,-0.174533,-0.174533,-0.0965692,-0.693523,-0.16078,-0.198788,1.86055,-0.258114,-0.412573,0.727652
28,40,-0.0872665,-0.698132,-0.174533,-0.174533,-0.0965692,-0.693523,-0.16078,-0.198788,1.86055,-0.258114,-0.412573,0.727652
28,40,-0.0872665,-0.698132,-0.174533,-0.174533,-0.0965692,-0.693523,-0.16078,-0.198788,1.86055,-0.258114,-0.412573,0.727652
28,40,-0.0872665,-0.698132,-0.174533,-0.174533,-0.0965692,-0.693523,-0.16078,-0.198788,1.86055,-0.258114,-0.412573,0.727652
28,40,-0.0872665,-0.698132,-0.174533,-0.174533,-0.0965692,-0.693523,-0.16078,-0.198788,1.86055,-0.258114,-0.412573,0.727652
28,40,-0.0872665,-0.698132,-0.174533,-0.174533,-0.0965692,-0.693523,-0.16078,-0.198788,1.86055,-0.258114,-0.412573,0.727652
28,40,-0.0872665,-0.698132,-0.174533,-0.174533,-0.0965692,-0.693523,-0.16078,-0.198788,1.86055,-0.258114,-0.412573,0.727652
28,40,-0.0872665,-0.698132,-0.174533,-0.174533,-0.0965692,-0.693523,-0.16078,-0.198788,1.86055,-0.258114,-0.412573,0.727652
28,40,-0.0872665,-0.698132,-0.174533,-0.174533,-0.0965692,-0.693523,-0.16078,-0.198788,1.86055,-0.258114,-0.412573,0.727652
28,40,-0.0872665,-0.698132,-0.174533,-0.174533,-0.0965692,-0.693523,-0.16078,-0.198788,1.86055,-0.258114,-0.412573,0.727652
28,40,-0.0872665,-0.698132,-0.174533,-0.174533,-0.0965692,-0.693523,-0.16078,-0.198788,1.86055,-0.258114,-0.412573,0.727652
28,40,-0.0872665,-0.698132,-0.174533,-0.174533,-0.0965692,-0.693523,-0.16078,-0.198788,1.86055,-0.258114,-0.412573,0.727652
28,40,-0.0872665,-0.698132,-0.174533,-0.174533,-0.0965692,-0.693523,-0.16078,-0.198788,1.86055,-0.258114,-0.412573,0.727652
28,40,-0.0872665,-0.698132,-0.174533,-0.174533,-0.0965692,-0.693523,-0.16078,-0.198788,1.86055,-0.258114,-0.412573,0.727652
28,40,-0.0872665,-0.698132,-0.174533,-0.174533,-0.0965692,-0.693523,-0.16078,-0.198788,1.86055,-0.258114,-0.412573,0.727652
28,40,-0.0872665,-0.698132,-0.174533,-0.174533,-0.0965692,-0.693523,-0.16078,-0.198788,1.86055,-0.258114,-0.412573,0.727652
28,40,-0.0872665,-0.698132,-0.174533,-0.174533,-0.0965692,-0.693523,-0.16078,-0.198788,1.86055,-0.258114,-0.412573,0.727652
28,40,-0.0872665,-0.698132,-0.174533,-0.174533,-0.0965692,-0.693523,-0.16078,-0.198788,1.86055,-0.258114,-0.412573,0.727652
28,40,-0.0872665,-0.698132,-0.174533,-0.174533,-0.0965692,-0.693523,-0.16078,-0.198788,1.86055,-0.258114,-0.412573,0.727652
28,40,-0.0872665,-0.698132,-0.174533,-0.174533,-0.0965692,-0.693523,-0.16078,-0.198788,1.86055,-0.258114,-0.412573,0.727652
28,40,-0.0872665,-0.698132,-0.174533,-0.174533,-0.0965692,-0.693523,-0.16078,-0.198788,1.86055,-0.258114,-0.412573,0.727652
28,40,-0.0872665,-0.698132,-0.174533,-0.174533,-0.0965692,-0.693523,-0.16078,-0.198788,1.86055,-0.258114,-0.412573,0.727652
28,40,-0.0872665,-0.698132,-0.174533,-0.174533,-0.0965692,-0.693523,-0.16078,-0.198788,1.86055,-0.258114,-0.412573,0.727652
28,40,-0.0872665,-0.698132,-0.174533,-0.174533,-0.0965692,-0.693523,-0.16078,-0.198788,1.86055,-0.258114,-0.412573,0.727652
28,40,-0.0872665,-0.698132,-0.174533,-0.174533,-0.0965692,-0.693523,-0.16078,-0.198788,1.86055,-0.258114,-0.412573,0.727652
28,40,-0.0872665,-0.698132,-0.174533,-0.174533,-0.0965692,-0.693523,-0.16078,-0.198788,1.86055,-0.258114,-0.412573,0.727652
28,40,-0.0872665,-0.698132,-0.174533,-0.174533,-0.0965692,-0.693523,-0.16078,-0.198788,1.86055,-0.258114,-0.412573,0.727652
28,40,-0.0872665,-0.698132,-0.174533,-0.174533,-0.0965692,-0.693523,-0.160847,-0.19883,1.86055,-0.258114,-0.41057,0.728923
28,40,-0.0872665,-0.698132,-0.174533,-0.174533,-0.0965692,-0.693523,-0.160847,-0.19883,1.86055,-0.258114,-0.41057,0.728923
28,40,-0.0872665,-0.698132,-0.174533,-0.174533,-0.0965692,-0.693523,-0.160847,-0.19883,1.86055,-0.258114,-0.41057,0.728923
28,40,-0.0872665,-0.698132,-0.174533,-0.174533,-0.0965692,-0.693523,-0.160847,-0.19883,1.86055,-0.258114,-0.41057,0.728923
28,40,-0.0872665,-0.698132,-0.174533,-0.174533,-0.0965692,-0.693523,-0.160847,-0.19883,1.86055,-0.258114,-0.41057,0.728923
28,40,-0.0872665,-0.698132,-0.174533,-0.174533,-0.0965692,-0.693523,-0.160847,-0.19883,1.86055,-0.258114,-0.41057,0.728923
28,40,-0.0872665,-0.698132,-0.174533,-0.174533,-0.0965692,-0.693523,-0.160847,-0.19883,1.86055,-0.258114,-0.41057,0.728923
28,40,-0.0872665,-0.698132,-0.174533,-0.174533,-0.0965692,-0.693523,-0.160847,-0.19883,1.86055,-0.258114,-0.41057,0.728923
28,40,-0.0872665,-0.698132,-0.174533,-0.174533,-0.0965692,-0.693523,-0.160847,-0.19883,1.86055,-0.258114,-0.41057,0.728923
28,40,-0.0872665,-0.698132,-0.174533,-0.174533,-0.0965692,-0.693523,-0.160847,-0.19883,1.86055,-0.258114,-0.41057,0.728923
28,40,-0.0872665,-0.698132,-0.174533,-0.174533,-0.0965692,-0.693523,-0.160847,-0.19883,1.86055,-0.258114,-0.41057,0.728923
28,40,-0.0872665,-0.698132,-0.174533,-0.174533,-0.0965692,-0.693523,-0.160847,-0.19883,1.86055,-0.258114,-0.41057,0.728923
28,40,-0.0872665,-0.698132,-0.174533,-0.174533,-0.0965692,-0.693523,-0.160847,-0.19883,1.86055,-0.258114,-0.41057,0.728923
28,40,-0.0872665,-0.698132,-0.174533,-0.174533,-0.0965692,-0.693523,-0.160847,-0.19883,1.86055,-0.258114,-0.41057,0.728923
28,40,-0.0872665,-0.698132,-0.174533,-0.174533,-0.0965692,-0.693523,-0.160847,-0.19883,1.86055,-0.258114,-0.41057,0.728923
28,40,-0.0872665,-0.698132,-0.174533,-0.174533,-0.0965692,-0.693523,-0.160847,-0.19883,1.86055,-0.258114,-0.41057,0.728923
28,40,-0.0872665,-0.698132,-0.174533,-0.174533,-0.0965692,-0.693523,-0.160783,-0.19879,1.86055,-0.258114,-0.412488,0.727714
28,40,-0.0872665,-0.698132,-0.174533,-0.174533,-0.0965692,-0.693523,-0.160783,-0.19879,1.86055,-0.258114,-0.412488,0.727714
28,40,-0.0872665,-0.698132,-0.174533,-0.174533,-0.0965692,-0.693523,-0.160783,-0.19879,1.86055,-0.258114,-0.412488,0.727714
28,40,-0.0872665,-0.698132,-0.174533,-0.174533,-0.0965692,-0.693523,-0.160783,-0.19879,1.86055,-0.258114,-0.412488,0.727714
28,40,-0.0872665,-0.698132,-0.174533,-0.174533,-0.0965692,-0.693523,-0.160783,-0.19879,1.86055,-0.258114,-0.412488,0.727714
28,40,-0.0872665,-0.698132,-0.174533,-0.174533,-0.0965692,-0.693523,-0.160783,-0.19879,1.86055,-0.258114,-0.412488,0.727714
28,40,-0.0872665,-0.698132,-0.174533,-0.174533,-0.0965692,-0.693523,-0.160783,-0.19879,1.86055,-0.258114,-0.412488,0.727714
28,40,-0.0872665,-0.698132,-0.174533,-0.174533,-0.0965692,-0.693523,-0.160783,-0.19879,1.86055,-0.258114,-0.412488,0.727714
28,40,-0.0872665,-0.698132,-0.174533,-0.174533,-0.0965692,-0.693523,-0.160783,-0.19879,1.86055,-0.258114,-0.412488,0.727714
28,40,-0.0872665,-0.698132,-0.174533,-0.174533,-0.0965692,-0.693523,-0.160783,-0.19879,1.86055,-0.258114,-0.412488,0.727714
28,40,-0.0872665,-0.698132,-0.174533,-0.174533,-0.0965692,-0.693523,-0.160783,-0.19879,1.86055,-0.258114,-0.412488,0.727714
28,40,-0.0872665,-0.698132,-0.174533,-0.174533,-0.0965692,-0.693523,-0.160783,-0.19879,1.86055,-0.258114,-0.412488,0.727714
28,40,-0.0872665,-0.698132,-0.174533,-0.174533,-0.0965692,-0.693523,-0.160783,-0.19879,1.86055,-0.258114,-0.412488,0.727714
28,40,-0.0872665,-0.698132,-0.174533,-0.174533,-0.0965692,-0.693523,-0.160783,-0.19879,1.86055,-0.258114,-0.412488,0.727714
28,40,-0.0872665,-0.698132,-0.174533,-0.174533,-0.0965692,-0.693523,-0.160783,-0.19879,1.86055,-0.258114,-0.412488,0.727714
28,40,-0.0872665,-0.698132,-0.174533,-0.174533,-0.0965692,-0.693523,-0.160783,-0.19879,1.86055,-0.258114,-0.412488,0.727714
28,40,-0.0872665,-0.698132,-0.174533,-0.174533,-0.0965692,-0.693523,-0.160783,-0.19879,1.86055,-0.258114,-0.412488,0.727714
28,40,-0.0872665,-0.698132,-0.174533,-0.174533,-0.0965692,-0.693523,-0.160783,-0.19879,1.86055,-0.258114,-0.412488,0.727714
28,40,-0.0872665,-0.698132,-0.174533,-0.174533,-0.0965692,-0.693523,-0.160783,-0.19879,1.86055,-0.258114,-0.412488,0.727714
28,40,-0.0872665,-0.698132,-0.174533,-0.174533,-0.0965692,-0.693523,-0.160783,-0.19879,1.86055,-0.258114,-0.412488,0.727714
28,40,-0.0872665,-0.698132,-0.174533,-0.174533,-0.0965692,-0.693523,-0.160783,-0.19879,1.86055,-0.258114,-0.412488,0.727714
28,40,-0.0872665,-0.698132,-0.174533,-0.174533,-0.0965692,-0.693523,-0.160783,-0.19879,1.86055,-0.258114,-0.412488,0.727714
28,40,-0.0872665,-0.698132,-0.174533,-0.174533,-0.0965692,-0.693523,-0.160783,-0.19879,1.86055,-0.258114,-0.412488,0.727714
28,40,-0.0872665,-0.698132,-0.174533,-0.174533,-0.0965692,-0.693523,-0.160783,-0.19879,1.86055,-0.258114,-0.412488,0.727714
28,40,-0.0872665,-0.698132,-0.174533,-0.174533,-0.0965692,-0.693523,-0.160783,-0.19879,1.86055,-0.258114,-0.412488,0.727714
28,40,-0.0872665,-0.698132,-0.174533,-0.174533,-0.0965692,-0.693523,-0.160783,-0.19879,1.86055,-0.258114,-0.412488,0.727714
28,40,-0.0872665,-0.698132,-0.174533,-0.174533,-0.0965692,-0.693523,-0.160783,-0.19879,1.86055,-0.258114,-0.412488,0.727714
28,40,-0.0872665,-0.698132,-0.174533,-0.174533,-0.0965692,-0.693523,-0.160783,-0.19879,1.86055,-0.258114,-0.412488,0.727714
28,40,-0.0872665,-0.698132,-0.174533,-0.174533,-0.0965692,-0.693523,-0.160783,-0.19879,1.86055,-0.258114,-0.412488,0.727714
28,40,-0.0872665,-0.698132,-0.174533,-0.174533,-0.0965692,-0.693523,-0.160783,-0.19879,1.86055,-0.258114,-0.412488,0.727714
28,40,-0.0872665,-0.698132,-0.174533,-0.174533,-0.0965692,-0.693523,-0.160783,-0.19879,1.86055,-0.258114,-0.412488,0.727714
28,40,-0.0872665,-0.698132,-0.174533,-0.174533,-0.0965692,-0.693523,-0.160783,-0.19879,1.86055,-0.258114,-0.412488,0.727714
28,40,-0.0872665,-0.698132,-0.174533,-0.174533,-0.0965692,-0.693523,-0.160783,-0.19879,1.86055,-0.258114,-0.412488,0.727714
28,40,-0.0872665,-0.698132,-0.174533,-0.174533,-0.0965692,-0.693523,-0.160783,-0.19879,1.86055,-0.258114,-0.412488,0.727714
28,40,-0.0872665,-0.698132,-0.174533,-0.174533,-0.0965692,-0.693523,-0.160783,-0.19879,1.86055,-0.258114,-0.412488,0.727714
28,40,-0.0872665,-0.698132,-0.174533,-0.174533,-0.0965692,-0.693523,-0.160783,-0.19879,1.86055,-0.258114,-0.412488,0.727714
28,40,-0.0872665,-0.698132,-0.174533,-0.174533,-0.0965692,-0.693523,-0.16078,-0.198731,1.86055,-0.258114,-0.412576,0.725932
28,40,-0.0872665,-0.698132,-0.174533,-0.174533,-0.0965692,-0.693523,-0.16078,-0.198731,1.86055,-0.258114,-0.412576,0.725932
28,40,-0.0872665,-0.698132,-0.174533,-0.174533,-0.0965692,-0.693523,-0.16078,-0.198731,1.86055,-0.258114,-0.412576,0.725932
28,40,-0.0872665,-0.698132,-0.174533,-0.174533,-0.0965692,-0.693523,-0.16078,-0.198731,1.86055,-0.258114,-0.412576,0.725932
28,40,-0.0872665,-0.698132,-0.174533,-0.174533,-0.0965692,-0.693523,-0.16078,-0.198731,1.86055,-0.258114,-0.412576,0.725932
28,40,-0.0872665,-0.698132,-0.174533,-0.174533,-0.0965692,-0.693523,-0.16078,-0.198731,1.86055,-0.258114,-0.412576,0.725932
28,40,-0.0872665,-0.698132,-0.174533,-0.174533,-0.0965692,-0.693523,-0.16078,-0.198731,1.86055,-0.258114,-0.412576,0.725932
28,40,-0.0872665,-0.698132,-0.174533,-0.174533,-0.0965692,-0.693523,-0.16078,-0.198731,1.86055,-0.258114,-0.412576,0.725932
28,40,-0.0872665,-0.698132,-0.174533,-0.174533,-0.0965692,-0.693523,-0.16078,-0.198731,1.86055,-0.258114,-0.412576,0.725932
28,40,-0.0872665,-0.698132,-0.174533,-0.174533,-0.0965692,-0.693523,-0.160777,-0.198671,1.86055,-0.258114,-0.412663,0.724149
28,40,-0.0872665,-0.698132,-0.174533,-0.174533,-0.0965692,-0.693523,-0.160777,-0.198671,1.86055,-0.258114,-0.412663,0.724149
28,40,-0.0872665,-0.698132,-0.174533,-0.174533,-0.0965692,-0.693523,-0.160777,-0.198671,1.86055,-0.258114,-0.412663,0.724149
28,40,-0.0872665,-0.698132,-0.174533,-0.174533,-0.0965692,-0.693523,-0.160777,-0.198671,1.86055,-0.258114,-0.412663,0.724149
28,40,-0.0872665,-0.698132,-0.174533,-0.174533,-0.0965692,-0.693523,-0.160777,-0.198671,1.86055,-0.258114,-0.412663,0.724149
28,40,-0.0872665,-0.698132,-0.174533,-0.174533,-0.0965692,-0.693523,-0.160777,-0.198671,1.86055,-0.258114,-0.412663,0.724149
28,40,-0.0872665,-0.698132,-0.174533,-0.174533,-0.0965692,-0.693523,-0.160777,-0.198671,1.86055,-0.258114,-0.412663,0.724149
28,40,-0.0872665,-0.698132,-0.174533,-0.174533,-0.0965692,-0.693523,-0.160777,-0.198671,1.86055,-0.258114,-0.412663,0.724149
28,40,-0.0872665,-0.698132,-0.174533,-0.174533,-0.0965692,-0.693523,-0.160844,-0.198714,1.86055,-0.258114,-0.41066,0.72542
28,40,-0.0872665,-0.698132,-0.174533,-0.174533,-0.0965692,-0.693523,-0.160844,-0.198714,1.86055,-0.258114,-0.41066,0.72542
28,40,-0.0872665,-0.698132,-0.174533,-0.174533,-0.0965692,-0.693523,-0.160844,-0.198714,1.86055,-0.258114,-0.41066,0.72542
28,40,-0.0872665,-0.698132,-0.174533,-0.174533,-0.0965692,-0.693523,-0.160844,-0.198714,1.86055,-0.258114,-0.41066,0.72542
28,40,-0.0872665,-0.698132,-0.174533,-0.174533,-0.0965692,-0.693523,-0.160844,-0.198714,1.86055,-0.258114,-0.41066,0.72542
28,40,-0.0872665,-0.698132,-0.174533,-0.174533,-0.0965692,-0.693523,-0.160844,-0.198714,1.86055,-0.258114,-0.41066,0.72542
28,40,-0.0872665,-0.698132,-0.174533,-0.174533,-0.0965692,-0.693523,-0.160844,-0.198714,1.86055,-0.258114,-0.41066,0.72542
28,40,-0.0872665,-0.698132,-0.174533,-0.174533,-0.0965692,-0.693523,-0.160844,-0.198714,1.86055,-0.258114,-0.41066,0.72542
28,40,-0.0872665,-0.698132,-0.174533,-0.174533,-0.0965692,-0.693523,-0.160844,-0.198714,1.86055,-0.258114,-0.41066,0.72542
28,40,-0.0872665,-0.698132,-0.174533,-0.174533,-0.0965692,-0.693523,-0.160844,-0.198714,1.86055,-0.258114,-0.41066,0.72542
28,40,-0.0872665,-0.698132,-0.174533,-0.174533,-0.0965692,-0.693523,-0.160844,-0.198714,1.86055,-0.258114,-0.41066,0.72542
28,40,-0.0872665,-0.698132,-0.174533,-0.174533,-0.0965692,-0.693523,-0.160844,-0.198714,1.86055,-0.258114,-0.41066,0.72542
28,40,-0.0872665,-0.698132,-0.174533,-0.174533,-0.0965692,-0.693523,-0.160844,-0.198714,1.86055,-0.258114,-0.41066,0.72542
28,40,-0.0872665,-0.698132,-0.174533,-0.174533,-0.0965692,-0.693523,-0.160844,-0.198714,1.86055,-0.258114,-0.41066,0.72542
28,40,-0.0872665,-0.698132,-0.174533,-0.174533,-0.0965692,-0.693523,-0.160844,-0.198714,1.86055,-0.258114,-0.41066,0.72542
28,40,-0.0872665,-0.698132,-0.174533,-0.174533,-0.0965692,-0.693523,-0.160844,-0.198714,1.86055,-0.258114,-0.41066,0.72542
28,40,-0.0872665,-0.698132,-0.174533,-0.174533,-0.0965692,-0.693523,-0.160844,-0.198714,1.86055,-0.258114,-0.41066,0.72542
28,40,-0.0872665,-0.698132,-0.174533,-0.174533,-0.0965692,-0.693523,-0.160783,-0.198733,1.86055,-0.258114,-0.41249,0.725994
28,40,-0.0872665,-0.698132,-0.174533,-0.174533,-0.0965692,-0.693523,-0.160783,-0.198733,1.86055,-0.258114,-0.41249,0.725994
28,40,-0.0872665,-0.698132,-0.174533,-0.174533,-0.0965692,-0.693523,-0.160783,-0.198733,1.86055,-0.258114,-0.41249,0.725994
28,40,-0.0872665,-0.698132,-0.174533,-0.174533,-0.0965692,-0.693523,-0.160783,-0.198733,1.86055,-0.258114,-0.41249,0.725994
28,40,-0.0872665,-0.698132,-0.174533,-0.174533,-0.0965692,-0.693523,-0.160783,-0.198733,1.86055,-0.258114,-0.41249,0.725994
28,40,-0.0872665,-0.698132,-0.174533,-0.174533,-0.0965692,-0.693523,-0.160783,-0.198733,1.86055,-0.258114,-0.41249,0.725994
28,40,-0.0872665,-0.698132,-0.174533,-0.174533,-0.0965692,-0.693523,-0.160783,-0.198733,1.86055,-0.258114,-0.41249,0.725994
28,40,-0.0872665,-0.698132,-0.174533,-0.174533,-0.0965692,-0.693523,-0.160783,-0.198733,1.86055,-0.258114,-0.41249,0.725994
28,40,-0.0872665,-0.698132,-0.174533,-0.174533,-0.0965692,-0.693523,-0.160783,-0.198733,1.86055,-0.258114,-0.41249,0.725994
28,40,-0.0872665,-0.698132,-0.174533,-0.174533,-0.0965692,-0.693523,-0.160783,-0.198733,1.86055,-0.258114,-0.41249,0.725994
28,40,-0.0872665,-0.698132,-0.174533,-0.174533,-0.0965692,-0.693523,-0.160783,-0.198733,1.86055,-0.258114,-0.41249,0.725994
28,40,-0.0872665,-0.698132,-0.174533,-0.174533,-0.0965692,-0.693523,-0.160783,-0.198733,1.86055,-0.258114,-0.41249,0.725994
28,40,-0.0872665,-0.698132,-0.174533,-0.174533,-0.0965692,-0.693523,-0.160783,-0.198733,1.86055,-0.258114,-0.41249,0.725994
28,40,-0.0872665,-0.698132,-0.174533,-0.174533,-0.0965692,-0.693523,-0.160783,-0.198733,1.86055,-0.258114,-0.41249,0.725994
28,40,-0.0872665,-0.698132,-0.174533,-0.174533,-0.0965692,-0.693523,-0.160783,-0.198733,1.86055,-0.258114,-0.41249,0.725994
28,40,-0.0872665,-0.698132,-0.174533,-0.174533,-0.0965692,-0.693523,-0.160783,-0.198733,1.86055,-0.258114,-0.41249,0.725994
28,40,-0.0872665,-0.698132,-0.174533,-0.174533,-0.0965692,-0.693523,-0.16078,-0.198673,1.86055,-0.258114,-0.412578,0.724211
28,40,-0.0872665,-0.698132,-0.174533,-0.174533,-0.0965692,-0.693523,-0.16078,-0.198673,1.86055,-0.258114,-0.412578,0.724211
28,40,-0.0872665,-0.698132,-0.174533,-0.174533,-0.0965692,-0.693523,-0.160847,-0.198716,1.86055,-0.258114,-0.410574,0.725482
28,40,-0.0872665,-0.698132,-0.174533,-0.174533,-0.0965692,-0.693523,-0.160847,-0.198716,1.86055,-0.258114,-0.410574,0.725482
28,40,-0.0872665,-0.698132,-0.174533,-0.174533,-0.0965692,-0.693523,-0.160847,-0.198716,1.86055,-0.258114,-0.410574,0.725482
28,40,-0.0872665,-0.698132,-0.174533,-0.174533,-0.0965692,-0.693523,-0.160847,-0.198716,1.86055,-0.258114,-0.410574,0.725482
28,40,-0.0872665,-0.698132,-0.174533,-0.174533,-0.0965692,-0.693523,-0.160847,-0.198716,1.86055,-0.258114,-0.410574,0.725482
28,40,-0.0872665,-0.698132,-0.174533,-0.174533,-0.0965692,-0.693523,-0.160847,-0.198716,1.86055,-0.258114,-0.410574,0.725482
28,40,-0.0872665,-0.698132,-0.174533,-0.174533,-0.0965692,-0.693523,-0.160847,-0.198716,1.86055,-0.258114,-0.410574,0.725482
28,40,-0.0872665,-0.698132,-0.174533,-0.174533,-0.0965692,-0.693523,-0.160847,-0.198716,1.86055,-0.258114,-0.410574,0.725482
28,40,-0.0872665,-0.698132,-0.174533,-0.174533,-0.0965692,-0.693523,-0.160847,-0.198716,1.86055,-0.258114,-0.410574,0.725482
28,40,-0.0872665,-0.698132,-0.174533,-0.174533,-0.0965692,-0.693523,-0.160847,-0.198716,1.86055,-0.258114,-0.410574,0.725482
28,40,-0.0872665,-0.698132,-0.174533,-0.174533,-0.0965692,-0.693523,-0.160847,-0.198716,1.86055,-0.258114,-0.410574,0.725482
28,40,-0.0872665,-0.698132,-0.174533,-0.174533,-0.0965692,-0.693523,-0.160847,-0.198716,1.86055,-0.258114,-0.410574,0.725482
28,40,-0.0872665,-0.698132,-0.174533,-0.174533,-0.0965692,-0.693523,-0.160847,-0.198716,1.86055,-0.258114,-0.410574,0.725482
28,40,-0.0872665,-0.698132,-0.174533,-0.174533,-0.0965692,-0.693523,-0.160847,-0.198716,1.86055,-0.258114,-0.410574,0.725482
28,40,-0.0872665,-0.698132,-0.174533,-0.174533,-0.0965692,-0.693523,-0.160847,-0.198716,1.86055,-0.258114,-0.410574,0.725482
28,40,-0.0872665,-0.698132,-0.174533,-0.174533,-0.0965692,-0.693523,-0.160847,-0.198716,1.86055,-0.258114,-0.410574,0.725482
28,40,-0.0872665,-0.698132,-0.174533,-0.174533,-0.0965692,-0.693523,-0.160847,-0.198716,1.86055,-0.258114,-0.410574,0.725482
28,40,-0.0872665,-0.698132,-0.174533,-0.174533,-0.0965692,-0.693523,-0.160847,-0.198716,1.86055,-0.258114,-0.410574,0.725482
28,40,-0.0872665,-0.698132,-0.174533,-0.174533,-0.0965692,-0.693523,-0.160847,-0.198716,1.86055,-0.258114,-0.410574,0.725482
28,40,-0.0872665,-0.698132,-0.174533,-0.174533,-0.0965692,-0.693523,-0.160847,-0.198716,1.86055,-0.258114,-0.410574,0.725482
28,40,-0.0872665,-0.698132,-0.174533,-0.174533,-0.0965692,-0.693523,-0.160847,-0.198716,1.86055,-0.258114,-0.410574,0.725482
28,40,-0.0872665,-0.698132,-0.174533,-0.174533,-0.0965692,-0.693523,-0.160847,-0.198716,1.86055,-0.258114,-0.410574,0.725482
28,40,-0.0872665,-0.698132,-0.174533,-0.174533,-0.0965692,-0.693523,-0.160914,-0.198758,1.86055,-0.258114,-0.40857,0.726753
28,40,-0.0872665,-0.698132,-0.174533,-0.174533,-0.0965692,-0.693523,-0.160914,-0.198758,1.86055,-0.258114,-0.40857,0.726753
28,40,-0.0872665,-0.698132,-0.174533,-0.174533,-0.0965692,-0.693523,-0.160914,-0.198758,1.86055,-0.258114,-0.40857,0.726753
28,40,-0.0872665,-0.698132,-0.174533,-0.174533,-0.0965692,-0.693523,-0.160914,-0.198758,1.86055,-0.258114,-0.40857,0.726753
28,40,-0.0872665,-0.698132,-0.174533,-0.174533,-0.0965692,-0.693523,-0.160914,-0.198758,1.86055,-0.258114,-0.40857,0.726753
28,40,-0.0872665,-0.698132,-0.174533,-0.174533,-0.0965692,-0.693523,-0.160914,-0.198758,1.86055,-0.258114,-0.40857,0.726753
28,40,-0.0872665,-0.698132,-0.174533,-0.174533,-0.0965692,-0.693523,-0.160914,-0.198758,1.86055,-0.258114,-0.40857,0.726753
28,40,-0.0872665,-0.698132,-0.174533,-0.174533,-0.0965692,-0.693523,-0.160914,-0.198758,1.86055,-0.258114,-0.40857,0.726753
28,40,-0.0872665,-0.698132,-0.174533,-0.174533,-0.0965692,-0.693523,-0.160914,-0.198758,1.86055,-0.258114,-0.40857,0.726753
28,40,-0.0872665,-0.698132,-0.174533,-0.174533,-0.0965692,-0.693523,-0.160914,-0.198758,1.86055,-0.258114,-0.40857,0.726753
28,40,-0.0872665,-0.698132,-0.174533,-0.174533,-0.0965692,-0.693523,-0.160914,-0.198758,1.86055,-0.258114,-0.40857,0.726753
28,40,-0.0872665,-0.698132,-0.174533,-0.174533,-0.0965692,-0.693523,-0.160914,-0.198758,1.86055,-0.258114,-0.40857,0.726753
28,40,-0.0872665,-0.698132,-0.174533,-0.174533,-0.0965692,-0.693523,-0.16085,-0.198718,1.86055,-0.258114,-0.410489,0.725544
28,40,-0.0872665,-0.698132,-0.174533,-0.174533,-0.0965692,-0.693523,-0.16085,-0.198718,1.86055,-0.258114,-0.410489,0.725544
28,40,-0.0872665,-0.698132,-0.174533,-0.174533,-0.0965692,-0.693523,-0.16085,-0.198718,1.86055,-0.258114,-0.410489,0.725544
28,40,-0.0872665,-0.698132,-0.174533,-0.174533,-0.0965692,-0.693523,-0.16085,-0.198718,1.86055,-0.258114,-0.410489,0.725544
28,40,-0.0872665,-0.698132,-0.174533,-0.174533,-0.0965692,-0.693523,-0.16085,-0.198718,1.86055,-0.258114,-0.410489,0.725544
28,40,-0.0872665,-0.698132,-0.174533,-0.174533,-0.0965692,-0.693523,-0.16085,-0.198718,1.86055,-0.258114,-0.410489,0.725544
28,40,-0.0872665,-0.698132,-0.174533,-0.174533,-0.0965692,-0.693523,-0.16085,-0.198718,1.86055,-0.258114,-0.410489,0.725544
28,40,-0.0872665,-0.698132,-0.174533,-0.174533,-0.0965692,-0.693523,-0.16085,-0.198718,1.86055,-0.258114,-0.410489,0.725544
28,40,-0.0872665,-0.698132,-0.174533,-0.174533,-0.0965692,-0.693523,-0.16085,-0.198718,1.86055,-0.258114,-0.410489,0.725544
28,40,-0.0872665,-0.698132,-0.174533,-0.174533,-0.0965692,-0.693523,-0.16085,-0.198718,1.86055,-0.258114,-0.410489,0.725544
28,40,-0.0872665,-0.698132,-0.174533,-0.174533,-0.0965692,-0.693523,-0.16085,-0.198718,1.86055,-0.258114,-0.410489,0.725544
28,40,-0.0872665,-0.698132,-0.174533,-0.174533,-0.0965692,-0.693523,-0.16085,-0.198718,1.86055,-0.258114,-0.410489,0.725544
28,40,-0.0872665,-0.698132,-0.174533,-0.174533,-0.0965692,-0.693523,-0.16085,-0.198718,1.86055,-0.258114,-0.410489,0.725544
28,40,-0.0872665,-0.698132,-0.174533,-0.174533,-0.0965692,-0.693523,-0.16085,-0.198718,1.86055,-0.258114,-0.410489,0.725544
28,40,-0.0872665,-0.698132,-0.174533,-0.174533,-0.0965692,-0.693523,-0.16085,-0.198718,1.86055,-0.258114,-0.410489,0.725544
28,40,-0.0872665,-0.698132,-0.174533,-0.174533,-0.0965692,-0.693523,-0.16085,-0.198718,1.86055,-0.258114,-0.410489,0.725544
28,40,-0.0872665,-0.698132,-0.174533,-0.174533,-0.0965692,-0.693523,-0.16085,-0.198718,1.86055,-0.258114,-0.410489,0.725544
28,40,-0.0872665,-0.698132,-0.174533,-0.174533,-0.0965692,-0.693523,-0.16085,-0.198718,1.86055,-0.258114,-0.410489,0.725544
28,40,-0.0872665,-0.698132,-0.174533,-0.174533,-0.0965692,-0.693523,-0.16085,-0.198718,1.86055,-0.258114,-0.410489,0.725544
28,40,-0.0872665,-0.698132,-0.174533,-0.174533,-0.0965692,-0.693523,-0.16085,-0.198718,1.86055,-0.258114,-0.410489,0.725544
28,40,-0.0872665,-0.698132,-0.174533,-0.174533,-0.0965692,-0.693523,-0.16085,-0.198718,1.86055,-0.258114,-0.410489,0.725544
28,40,-0.0872665,-0.698132,-0.174533,-0.174533,-0.0965692,-0.693523,-0.16085,-0.198718,1.86055,-0.258114,-0.410489,0.725544
28,40,-0.0872665,-0.698132,-0.174533,-0.174533,-0.0965692,-0.693523,-0.16085,-0.198718,1.86055,-0.258114,-0.410489,0.725544
28,40,-0.0872665,-0.698132,-0.174533,-0.174533,-0.0965692,-0.693523,-0.160847,-0.198658,1.86055,-0.258114,-0.410577,0.723761
28,40,-0.0872665,-0.698132,-0.174533,-0.174533,-0.0965692,-0.693523,-0.160847,-0.198658,1.86055,-0.258114,-0.410577,0.723761
28,40,-0.0872665,-0.698132,-0.174533,-0.174533,-0.0965692,-0.693523,-0.160847,-0.198658,1.86055,-0.258114,-0.410577,0.723761
28,40,-0.0872665,-0.698132,-0.174533,-0.174533,-0.0965692,-0.693523,-0.160847,-0.198658,1.86055,-0.258114,-0.410577,0.723761
28,40,-0.0872665,-0.698132,-0.174533,-0.174533,-0.0965692,-0.693523,-0.160847,-0.198658,1.86055,-0.258114,-0.410577,0.723761
28,40,-0.0872665,-0.698132,-0.174533,-0.174533,-0.0965692,-0.693523,-0.160847,-0.198658,1.86055,-0.258114,-0.410577,0.723761
28,40,-0.0872665,-0.698132,-0.174533,-0.174533,-0.0965692,-0.693523,-0.160847,-0.198658,1.86055,-0.258114,-0.410577,0.723761
28,40,-0.0872665,-0.698132,-0.174533,-0.174533,-0.0965692,-0.693523,-0.160914,-0.198701,1.86055,-0.258114,-0.408573,0.725032
28,40,-0.0872665,-0.698132,-0.174533,-0.174533,-0.0965692,-0.693523,-0.160914,-0.198701,1.86055,-0.258114,-0.408573,0.725032
28,40,-0.0872665,-0.698132,-0.174533,-0.174533,-0.0965692,-0.693523,-0.160914,-0.198701,1.86055,-0.258114,-0.408573,0.725032
28,40,-0.0872665,-0.698132,-0.174533,-0.174533,-0.0965692,-0.693523,-0.160914,-0.198701,1.86055,-0.258114,-0.408573,0.725032
28,40,-0.0872665,-0.698132,-0.174533,-0.174533,-0.0965692,-0.693523,-0.160914,-0.198701,1.86055,-0.258114,-0.408573,0.725032
28,40,-0.0872665,-0.698132,-0.174533,-0.174533,-0.0965692,-0.693523,-0.160914,-0.198701,1.86055,-0.258114,-0.408573,0.725032
28,40,-0.0872665,-0.698132,-0.174533,-0.174533,-0.0965692,-0.693523,-0.160914,-0.198701,1.86055,-0.258114,-0.408573,0.725032
28,40,-0.0872665,-0.698132,-0.174533,-0.174533,-0.0965692,-0.693523,-0.160914,-0.198701,1.86055,-0.258114,-0.408573,0.725032
28,40,-0.0872665,-0.698132,-0.174533,-0.174533,-0.0965692,-0.693523,-0.160914,-0.198701,1.86055,-0.258114,-0.408573,0.725032
28,40,-0.0872665,-0.698132,-0.174533,-0.174533,-0.0965692,-0.693523,-0.160914,-0.198701,1.86055,-0.258114,-0.408573,0.725032
28,40,-0.0872665,-0.698132,-0.174533,-0.174533,-0.0965692,-0.693523,-0.160914,-0.198701,1.86055,-0.258114,-0.408573,0.725032
28,40,-0.0872665,-0.698132,-0.174533,-0.174533,-0.0965692,-0.693523,-0.160914,-0.198701,1.86055,-0.258114,-0.408573,0.725032
28,40,-0.0872665,-0.698132,-0.174533,-0.174533,-0.0965692,-0.693523,-0.160914,-0.198701,1.86055,-0.258114,-0.408573,0.725032
28,40,-0.0872665,-0.698132,-0.174533,-0.174533,-0.0965692,-0.693523,-0.160914,-0.198701,1.86055,-0.258114,-0.408573,0.725032
28,40,-0.0872665,-0.698132,-0.174533,-0.174533,-0.0965692,-0.693523,-0.160911,-0.198641,1.86055,-0.258114,-0.408661,0.723249
28,40,-0.0872665,-0.698132,-0.174533,-0.174533,-0.0965692,-0.693523,-0.160911,-0.198641,1.86055,-0.258114,-0.408661,0.723249
28,40,-0.0872665,-0.698132,-0.174533,-0.174533,-0.0965692,-0.693523,-0.160911,-0.198641,1.86055,-0.258114,-0.408661,0.723249
28,40,-0.0872665,-0.698132,-0.174533,-0.174533,-0.0965692,-0.693523,-0.160911,-0.198641,1.86055,-0.258114,-0.408661,0.723249
28,40,-0.0872665,-0.698132,-0.174533,-0.174533,-0.0965692,-0.693523,-0.160911,-0.198641,1.86055,-0.258114,-0.408661,0.723249
28,40,-0.0872665,-0.698132,-0.174533,-0.174533,-0.0965692,-0.693523,-0.160911,-0.198641,1.86055,-0.258114,-0.408661,0.723249
28,40,-0.0872665,-0.698132,-0.174533,-0.174533,-0.0965692,-0.693523,-0.160911,-0.198641,1.86055,-0.258114,-0.408661,0.723249
28,40,-0.0872665,-0.698132,-0.174533,-0.174533,-0.0965692,-0.693523,-0.160911,-0.198641,1.86055,-0.258114,-0.408661,0.723249
28,40,-0.0872665,-0.698132,-0.174533,-0.174533,-0.0965692,-0.693523,-0.160911,-0.198641,1.86055,-0.258114,-0.408661,0.723249
28,40,-0.0872665,-0.698132,-0.174533,-0.174533,-0.0965692,-0.693523,-0.160911,-0.198641,1.86055,-0.258114,-0.408661,0.723249
28,40,-0.0872665,-0.698132,-0.174533,-0.174533,-0.0965692,-0.693523,-0.160911,-0.198641,1.86055,-0.258114,-0.408661,0.723249
28,40,-0.0872665,-0.698132,-0.174533,-0.174533,-0.0965692,-0.693523,-0.160911,-0.198641,1.86055,-0.258114,-0.408661,0.723249
28,40,-0.0872665,-0.698132,-0.174533,-0.174533,-0.0965692,-0.693523,-0.160908,-0.198582,1.86055,-0.258114,-0.408749,0.721466
28,40,-0.0872665,-0.698132,-0.174533,-0.174533,-0.0965692,-0.693523,-0.160908,-0.198582,1.86055,-0.258114,-0.408749,0.721466
28,40,-0.0872665,-0.698132,-0.174533,-0.174533,-0.0965692,-0.693523,-0.160908,-0.198582,1.86055,-0.258114,-0.408749,0.721466
28,40,-0.0872665,-0.698132,-0.174533,-0.174533,-0.0965692,-0.693523,-0.160908,-0.198582,1.86055,-0.258114,-0.408749,0.721466
28,40,-0.0872665,-0.698132,-0.174533,-0.174533,-0.0965692,-0.693523,-0.160908,-0.198582,1.86055,-0.258114,-0.408749,0.721466
28,40,-0.0872665,-0.698132,-0.174533,-0.174533,-0.0965692,-0.693523,-0.160908,-0.198582,1.86055,-0.258114,-0.408749,0.721466
28,40,-0.0872665,-0.698132,-0.174533,-0.174533,-0.0965692,-0.693523,-0.160908,-0.198582,1.86055,-0.258114,-0.408749,0.721466
28,40,-0.0872665,-0.698132,-0.174533,-0.174533,-0.0965692,-0.693523,-0.160908,-0.198582,1.86055,-0.258114,-0.408749,0.721466
28,40,-0.0872665,-0.698132,-0.174533,-0.174533,-0.0965692,-0.693523,-0.160908,-0.198582,1.86055,-0.258114,-0.408749,0.721466
28,40,-0.0872665,-0.698132,-0.174533,-0.174533,-0.0965692,-0.693523,-0.160908,-0.198582,1.86055,-0.258114,-0.408749,0.721466
28,40,-0.0872665,-0.698132,-0.174533,-0.174533,-0.0965692,-0.693523,-0.160908,-0.198582,1.86055,-0.258114,-0.408749,0.721466
28,40,-0.0872665,-0.698132,-0.174533,-0.174533,-0.0965692,-0.693523,-0.160908,-0.198582,1.86055,-0.258114,-0.408749,0.721466
28,40,-0.0872665,-0.698132,-0.174533,-0.174533,-0.0965692,-0.693523,-0.160908,-0.198582,1.86055,-0.258114,-0.408749,0.721466
28,40,-0.0872665,-0.698132,-0.174533,-0.174533,-0.0965692,-0.693523,-0.160908,-0.198582,1.86055,-0.258114,-0.408749,0.721466
28,40,-0.0872665,-0.698132,-0.174533,-0.174533,-0.0965692,-0.693523,-0.160908,-0.198582,1.86055,-0.258114,-0.408749,0.721466
28,40,-0.0872665,-0.698132,-0.174533,-0.174533,-0.0965692,-0.693523,-0.160908,-0.198582,1.86055,-0.258114,-0.408749,0.721466
28,40,-0.0872665,-0.698132,-0.174533,-0.174533,-0.0965692,-0.693523,-0.160908,-0.198582,1.86055,-0.258114,-0.408749,0.721466
28,40,-0.0872665,-0.698132,-0.174533,-0.174533,-0.0965692,-0.693523,-0.160908,-0.198582,1.86055,-0.258114,-0.408749,0.721466
28,40,-0.0872665,-0.698132,-0.174533,-0.174533,-0.0965692,-0.693523,-0.160908,-0.198582,1.86055,-0.258114,-0.408749,0.721466
28,40,-0.0872665,-0.698132,-0.174533,-0.174533,-0.0965692,-0.693523,-0.160975,-0.198624,1.86055,-0.258114,-0.406745,0.722738
28,40,-0.0872665,-0.698132,-0.174533,-0.174533,-0.0965692,-0.693523,-0.160975,-0.198624,1.86055,-0.258114,-0.406745,0.722738
28,40,-0.0872665,-0.698132,-0.174533,-0.174533,-0.0965692,-0.693523,-0.160975,-0.198624,1.86055,-0.258114,-0.406745,0.722738
28,40,-0.0872665,-0.698132,-0.174533,-0.174533,-0.0965692,-0.693523,-0.160972,-0.198565,1.86055,-0.258114,-0.406836,0.720894
28,40,-0.0872665,-0.698132,-0.174533,-0.174533,-0.0965692,-0.693523,-0.160972,-0.198565,1.86055,-0.258114,-0.406836,0.720894
28,40,-0.0872665,-0.698132,-0.174533,-0.174533,-0.0965692,-0.693523,-0.160972,-0.198565,1.86055,-0.258114,-0.406836,0.720894
28,40,-0.0872665,-0.698132,-0.174533,-0.174533,-0.0965692,-0.693523,-0.160972,-0.198565,1.86055,-0.258114,-0.406836,0.720894
28,40,-0.0872665,-0.698132,-0.174533,-0.174533,-0.0965692,-0.693523,-0.160972,-0.198565,1.86055,-0.258114,-0.406836,0.720894
28,40,-0.0872665,-0.698132,-0.174533,-0.174533,-0.0965692,-0.693523,-0.160972,-0.198565,1.86055,-0.258114,-0.406836,0.720894
28,40,-0.0872665,-0.698132,-0.174533,-0.174533,-0.0965692,-0.693523,-0.160972,-0.198565,1.86055,-0.258114,-0.406836,0.720894
28,40,-0.0872665,-0.698132,-0.174533,-0.174533,-0.0965692,-0.693523,-0.160972,-0.198565,1.86055,-0.258114,-0.406836,0.720894
28,40,-0.0872665,-0.698132,-0.174533,-0.174533,-0.0965692,-0.693523,-0.160972,-0.198565,1.86055,-0.258114,-0.406836,0.720894
28,40,-0.0872665,-0.698132,-0.174533,-0.174533,-0.0965692,-0.693523,-0.160972,-0.198565,1.86055,-0.258114,-0.406836,0.720894
28,40,-0.0872665,-0.698132,-0.174533,-0.174533,-0.0965692,-0.693523,-0.160972,-0.198565,1.86055,-0.258114,-0.406836,0.720894
28,40,-0.0872665,-0.698132,-0.174533,-0.174533,-0.0965692,-0.693523,-0.160972,-0.198565,1.86055,-0.258114,-0.406836,0.720894
28,40,-0.0872665,-0.698132,-0.174533,-0.174533,-0.0965692,-0.693523,-0.160972,-0.198565,1.86055,-0.258114,-0.406836,0.720894
28,40,-0.0872665,-0.698132,-0.174533,-0.174533,-0.0965692,-0.693523,-0.160972,-0.198565,1.86055,-0.258114,-0.406836,0.720894
28,40,-0.0872665,-0.698132,-0.174533,-0.174533,-0.0965692,-0.693523,-0.160969,-0.198505,1.86055,-0.258114,-0.406924,0.719103
28,40,-0.0872665,-0.698132,-0.174533,-0.174533,-0.0965692,-0.693523,-0.160969,-0.198505,1.86055,-0.258114,-0.406924,0.719103
28,40,-0.0872665,-0.698132,-0.174533,-0.174533,-0.0965692,-0.693523,-0.160969,-0.198505,1.86055,-0.258114,-0.406924,0.719103
28,40,-0.0872665,-0.698132,-0.174533,-0.174533,-0.0965692,-0.693523,-0.160969,-0.198505,1.86055,-0.258114,-0.406924,0.719103
28,40,-0.0872665,-0.698132,-0.174533,-0.174533,-0.0965692,-0.693523,-0.160969,-0.198505,1.86055,-0.258114,-0.406924,0.719103
28,40,-0.0872665,-0.698132,-0.174533,-0.174533,-0.0965692,-0.693523,-0.160969,-0.198505,1.86055,-0.258114,-0.406924,0.719103
28,40,-0.0872665,-0.698132,-0.174533,-0.174533,-0.0965692,-0.693523,-0.160969,-0.198505,1.86055,-0.258114,-0.406924,0.719103
28,40,-0.0872665,-0.698132,-0.174533,-0.174533,-0.0965692,-0.693523,-0.160969,-0.198505,1.86055,-0.258114,-0.406924,0.719103
28,40,-0.0872665,-0.698132,-0.174533,-0.174533,-0.0965692,-0.693523,-0.160969,-0.198505,1.86055,-0.258114,-0.406924,0.719103
28,40,-0.0872665,-0.698132,-0.174533,-0.174533,-0.0965692,-0.693523,-0.160969,-0.198505,1.86055,-0.258114,-0.406924,0.719103
28,40,-0.0872665,-0.698132,-0.174533,-0.174533,-0.0965692,-0.693523,-0.160969,-0.198505,1.86055,-0.258114,-0.406924,0.719103
28,40,-0.0872665,-0.698132,-0.174533,-0.174533,-0.0965692,-0.693523,-0.160969,-0.198505,1.86055,-0.258114,-0.406924,0.719103
28,40,-0.0872665,-0.698132,-0.174533,-0.174533,-0.0965692,-0.693523,-0.160969,-0.198505,1.86055,-0.258114,-0.406924,0.719103
28,40,-0.0872665,-0.698132,-0.174533,-0.174533,-0.0965692,-0.693523,-0.160969,-0.198505,1.86055,-0.258114,-0.406924,0.719103
28,40,-0.0872665,-0.698132,-0.174533,-0.174533,-0.0965692,-0.693523,-0.160969,-0.198505,1.86055,-0.258114,-0.406924,0.719103
28,40,-0.0872665,-0.698132,-0.174533,-0.174533,-0.0965692,-0.693523,-0.160969,-0.198505,1.86055,-0.258114,-0.406924,0.719103
28,40,-0.0872665,-0.698132,-0.174533,-0.174533,-0.0965692,-0.693523,-0.160905,-0.198465,1.86055,-0.258114,-0.408843,0.717888
28,40,-0.0872665,-0.698132,-0.174533,-0.174533,-0.0965692,-0.693523,-0.160905,-0.198465,1.86055,-0.258114,-0.408843,0.717888
28,40,-0.0872665,-0.698132,-0.174533,-0.174533,-0.0965692,-0.693523,-0.160905,-0.198465,1.86055,-0.258114,-0.408843,0.717888
28,40,-0.0872665,-0.698132,-0.174533,-0.174533,-0.0965692,-0.693523,-0.160905,-0.198465,1.86055,-0.258114,-0.408843,0.717888
28,40,-0.0872665,-0.698132,-0.174533,-0.174533,-0.0965692,-0.693523,-0.160905,-0.198465,1.86055,-0.258114,-0.408843,0.717888
28,40,-0.0872665,-0.698132,-0.174533,-0.174533,-0.0965692,-0.693523,-0.160905,-0.198465,1.86055,-0.258114,-0.408843,0.717888
28,40,-0.0872665,-0.698132,-0.174533,-0.174533,-0.0965692,-0.693523,-0.160905,-0.198465,1.86055,-0.258114,-0.408843,0.717888
28,40,-0.0872665,-0.698132,-0.174533,-0.174533,-0.0965692,-0.693523,-0.160905,-0.198465,1.86055,-0.258114,-0.408843,0.717888
28,40,-0.0872665,-0.698132,-0.174533,-0.174533,-0.0965692,-0.693523,-0.160905,-0.198465,1.86055,-0.258114,-0.408843,0.717888
28,40,-0.0872665,-0.698132,-0.174533,-0.174533,-0.0965692,-0.693523,-0.160905,-0.198465,1.86055,-0.258114,-0.408843,0.717888
28,40,-0.0872665,-0.698132,-0.174533,-0.174533,-0.0965692,-0.693523,-0.160905,-0.198465,1.86055,-0.258114,-0.408843,0.717888
28,40,-0.0872665,-0.698132,-0.174533,-0.174533,-0.0965692,-0.693523,-0.160905,-0.198465,1.86055,-0.258114,-0.408843,0.717888
28,40,-0.0872665,-0.698132,-0.174533,-0.174533,-0.0965692,-0.693523,-0.160905,-0.198465,1.86055,-0.258114,-0.408843,0.717888
28,40,-0.0872665,-0.698132,-0.174533,-0.174533,-0.0965692,-0.693523,-0.160905,-0.198465,1.86055,-0.258114,-0.408843,0.717888
28,40,-0.0872665,-0.698132,-0.174533,-0.174533,-0.0965692,-0.693523,-0.160905,-0.198465,1.86055,-0.258114,-0.408843,0.717888
28,40,-0.0872665,-0.698132,-0.174533,-0.174533,-0.0965692,-0.693523,-0.160905,-0.198465,1.86055,-0.258114,-0.408843,0.717888
