stim_pw [us],stim_amp [mA],com_elbow_fe [rad],com_forearm_ps [rad],com_wrist_fe [rad],com_wrist_ru [rad],act_elbow_fe [rad],act_forearm_ps [rad],act_wrist_fe [rad],act_wrist_ru [rad],elbow_fe_trq [Nm],forearm_ps_trq [Nm],wrist_fe_trq [Nm],wrist_ru_trq [Nm]
28,60,-0.0872665,-0.698132,-0.174533,-0.174533,-0.0967124,-0.694997,-0.173146,-0.189682,1.88918,-0.175548,-0.0415604,0.454418
28,60,-0.0872665,-0.698132,-0.174533,-0.174533,-0.0967124,-0.694997,-0.17315,-0.189742,1.88918,-0.175548,-0.0414481,0.456222
28,60,-0.0872665,-0.698132,-0.174533,-0.174533,-0.0967124,-0.694997,-0.17315,-0.189742,1.88918,-0.175548,-0.0414481,0.456222
28,60,-0.0872665,-0.698132,-0.174533,-0.174533,-0.0967124,-0.694997,-0.173082,-0.189698,1.88918,-0.175548,-0.043483,0.45492
28,60,-0.0872665,-0.698132,-0.174533,-0.174533,-0.0967124,-0.694997,-0.173082,-0.189698,1.88918,-0.175548,-0.043483,0.45492
28,60,-0.0872665,-0.698132,-0.174533,-0.174533,-0.0967124,-0.694997,-0.173082,-0.189698,1.88918,-0.175548,-0.043483,0.45492
28,60,-0.0872665,-0.698132,-0.174533,-0.174533,-0.0967124,-0.694997,-0.173082,-0.189698,1.88918,-0.175548,-0.043483,0.45492
28,60,-0.0872665,-0.698132,-0.174533,-0.174533,-0.0967124,-0.694997,-0.173082,-0.189698,1.88918,-0.175548,-0.043483,0.45492
28,60,-0.0872665,-0.698132,-0.174533,-0.174533,-0.0967124,-0.694997,-0.173082,-0.189698,1.88918,-0.175548,-0.043483,0.45492
28,60,-0.0872665,-0.698132,-0.174533,-0.174533,-0.0967124,-0.694997,-0.173082,-0.189698,1.88918,-0.175548,-0.043483,0.45492
28,60,-0.0872665,-0.698132,-0.174533,-0.174533,-0.0967124,-0.694997,-0.173082,-0.189698,1.88918,-0.175548,-0.043483,0.45492
28,60,-0.0872665,-0.698132,-0.174533,-0.174533,-0.0967124,-0.694997,-0.173082,-0.189698,1.88918,-0.175548,-0.043483,0.45492
28,60,-0.0872665,-0.698132,-0.174533,-0.174533,-0.0967124,-0.694997,-0.173082,-0.189698,1.88918,-0.175548,-0.043483,0.45492
28,60,-0.0872665,-0.698132,-0.174533,-0.174533,-0.0967124,-0.694997,-0.173082,-0.189698,1.88918,-0.175548,-0.043483,0.45492
28,60,-0.0872665,-0.698132,-0.174533,-0.174533,-0.0967124,-0.694997,-0.173082,-0.189698,1.88918,-0.175548,-0.043483,0.45492
28,60,-0.0872665,-0.698132,-0.174533,-0.174533,-0.0967124,-0.694997,-0.173013,-0.189654,1.88918,-0.175548,-0.0455343,0.453608
28,60,-0.0872665,-0.698132,-0.174533,-0.174533,-0.0967124,-0.694997,-0.173013,-0.189654,1.88918,-0.175548,-0.0455343,0.453608
28,60,-0.0872665,-0.698132,-0.174533,-0.174533,-0.0967124,-0.694997,-0.173013,-0.189654,1.88918,-0.175548,-0.0455343,0.453608
28,60,-0.0872665,-0.698132,-0.174533,-0.174533,-0.0967124,-0.694997,-0.173013,-0.189654,1.88918,-0.175548,-0.0455343,0.453608
28,60,-0.0872665,-0.698132,-0.174533,-0.174533,-0.0967124,-0.694997,-0.173013,-0.189654,1.88918,-0.175548,-0.0455343,0.453608
28,60,-0.0872665,-0.698132,-0.174533,-0.174533,-0.0967124,-0.694997,-0.173013,-0.189654,1.88918,-0.175548,-0.0455343,0.453608
28,60,-0.0872665,-0.698132,-0.174533,-0.174533,-0.0967124,-0.694997,-0.173013,-0.189654,1.88918,-0.175548,-0.0455343,0.453608
28,60,-0.0872665,-0.698132,-0.174533,-0.174533,-0.0967124,-0.694997,-0.173013,-0.189654,1.88918,-0.175548,-0.0455343,0.453608
28,60,-0.0872665,-0.698132,-0.174533,-0.174533,-0.0967124,-0.694997,-0.173013,-0.189654,1.88918,-0.175548,-0.0455343,0.453608
28,60,-0.0872665,-0.698132,-0.174533,-0.174533,-0.0967124,-0.694997,-0.173013,-0.189654,1.88918,-0.175548,-0.0455343,0.453608
28,60,-0.0872665,-0.698132,-0.174533,-0.174533,-0.0967124,-0.694997,-0.173013,-0.189654,1.88918,-0.175548,-0.0455343,0.453608
28,60,-0.0872665,-0.698132,-0.174533,-0.174533,-0.0967124,-0.694997,-0.173013,-0.189654,1.88918,-0.175548,-0.0455343,0.453608
28,60,-0.0872665,-0.698132,-0.174533,-0.174533,-0.0967124,-0.694997,-0.172945,-0.18961,1.88918,-0.175548,-0.0475949,0.452293
28,60,-0.0872665,-0.698132,-0.174533,-0.174533,-0.0967124,-0.694997,-0.172945,-0.18961,1.88918,-0.175548,-0.0475987,0.452294
28,60,-0.0872665,-0.698132,-0.174533,-0.174533,-0.0967124,-0.694997,-0.173006,-0.189592,1.88918,-0.175548,-0.0457534,0.451729
28,60,-0.0872665,-0.698132,-0.174533,-0.174533,-0.0967124,-0.694997,-0.173006,-0.189592,1.88918,-0.175548,-0.0457534,0.451729
28,60,-0.0872665,-0.698132,-0.174533,-0.174533,-0.0967124,-0.694997,-0.17301,-0.189652,1.88918,-0.175548,-0.0456415,0.453533
28,60,-0.0872665,-0.698132,-0.174533,-0.174533,-0.0967124,-0.694997,-0.17301,-0.189652,1.88918,-0.175548,-0.0456415,0.453533
28,60,-0.0872665,-0.698132,-0.174533,-0.174533,-0.0967124,-0.694997,-0.17301,-0.189652,1.88918,-0.175548,-0.0456415,0.453533
28,60,-0.0872665,-0.698132,-0.174533,-0.174533,-0.0967124,-0.694997,-0.17301,-0.189652,1.88918,-0.175548,-0.0456415,0.453533
28,60,-0.0872665,-0.698132,-0.174533,-0.174533,-0.0967124,-0.694997,-0.17301,-0.189652,1.88918,-0.175548,-0.0456415,0.453533
28,60,-0.0872665,-0.698132,-0.174533,-0.174533,-0.0967124,-0.694997,-0.17301,-0.189652,1.88918,-0.175548,-0.0456415,0.453533
28,60,-0.0872665,-0.698132,-0.174533,-0.174533,-0.0967124,-0.694997,-0.172942,-0.189608,1.88918,-0.175548,-0.0477001,0.452216
28,60,-0.0872665,-0.698132,-0.174533,-0.174533,-0.0967124,-0.694997,-0.172942,-0.189608,1.88918,-0.175548,-0.0477001,0.452216
28,60,-0.0872665,-0.698132,-0.174533,-0.174533,-0.0967124,-0.694997,-0.172942,-0.189608,1.88918,-0.175548,-0.0477001,0.452216
28,60,-0.0872665,-0.698132,-0.174533,-0.174533,-0.0967124,-0.694997,-0.172942,-0.189608,1.88918,-0.175548,-0.0477001,0.452216
28,60,-0.0872665,-0.698132,-0.174533,-0.174533,-0.0967124,-0.694997,-0.172942,-0.189608,1.88918,-0.175548,-0.0477001,0.452216
28,60,-0.0872665,-0.698132,-0.174533,-0.174533,-0.0967124,-0.694997,-0.172942,-0.189608,1.88918,-0.175548,-0.0477001,0.452216
28,60,-0.0872665,-0.698132,-0.174533,-0.174533,-0.0967124,-0.694997,-0.172942,-0.189608,1.88918,-0.175548,-0.0477001,0.452216
28,60,-0.0872665,-0.698132,-0.174533,-0.174533,-0.0967124,-0.694997,-0.172942,-0.189608,1.88918,-0.175548,-0.0477001,0.452216
28,60,-0.0872665,-0.698132,-0.174533,-0.174533,-0.0967124,-0.694997,-0.172873,-0.189564,1.88918,-0.175548,-0.0497836,0.450883
28,60,-0.0872665,-0.698132,-0.174533,-0.174533,-0.0967124,-0.694997,-0.172873,-0.189564,1.88918,-0.175548,-0.0497836,0.450883
28,60,-0.0872665,-0.698132,-0.174533,-0.174533,-0.0967124,-0.694997,-0.172934,-0.189546,1.88918,-0.175548,-0.0479908,0.450334
28,60,-0.0872665,-0.698132,-0.174533,-0.174533,-0.0967124,-0.694997,-0.172934,-0.189546,1.88918,-0.175548,-0.0479908,0.450334
28,60,-0.0872665,-0.698132,-0.174533,-0.174533,-0.0967124,-0.694997,-0.172934,-0.189546,1.88918,-0.175548,-0.0479908,0.450334
28,60,-0.0872665,-0.698132,-0.174533,-0.174533,-0.0967124,-0.694997,-0.172934,-0.189546,1.88918,-0.175548,-0.0479908,0.450334
28,60,-0.0872665,-0.698132,-0.174533,-0.174533,-0.0967124,-0.694997,-0.172938,-0.189606,1.88918,-0.175548,-0.0478796,0.452129
28,60,-0.0872665,-0.698132,-0.174533,-0.174533,-0.0967124,-0.694997,-0.172938,-0.189606,1.88918,-0.175548,-0.0478796,0.452129
28,60,-0.0872665,-0.698132,-0.174533,-0.174533,-0.0967124,-0.694997,-0.172938,-0.189606,1.88918,-0.175548,-0.0478796,0.452129
28,60,-0.0872665,-0.698132,-0.174533,-0.174533,-0.0967124,-0.694997,-0.17287,-0.189562,1.88918,-0.175548,-0.0499409,0.45081
28,60,-0.0872665,-0.698132,-0.174533,-0.174533,-0.0967124,-0.694997,-0.17287,-0.189562,1.88918,-0.175548,-0.0499409,0.45081
28,60,-0.0872665,-0.698132,-0.174533,-0.174533,-0.0967124,-0.694997,-0.17287,-0.189562,1.88918,-0.175548,-0.0499409,0.45081
28,60,-0.0872665,-0.698132,-0.174533,-0.174533,-0.0967124,-0.694997,-0.17287,-0.189562,1.88918,-0.175548,-0.0499409,0.45081
28,60,-0.0872665,-0.698132,-0.174533,-0.174533,-0.0967124,-0.694997,-0.17287,-0.189562,1.88918,-0.175548,-0.0499409,0.45081
28,60,-0.0872665,-0.698132,-0.174533,-0.174533,-0.0967124,-0.694997,-0.17287,-0.189562,1.88918,-0.175548,-0.0499409,0.45081
28,60,-0.0872665,-0.698132,-0.174533,-0.174533,-0.0967124,-0.694997,-0.17287,-0.189562,1.88918,-0.175548,-0.0499409,0.45081
28,60,-0.0872665,-0.698132,-0.174533,-0.174533,-0.0967124,-0.694997,-0.17287,-0.189562,1.88918,-0.175548,-0.0499409,0.45081
28,60,-0.0872665,-0.698132,-0.174533,-0.174533,-0.0967124,-0.694997,-0.172801,-0.189518,1.88918,-0.175548,-0.0519998,0.449492
28,60,-0.0872665,-0.698132,-0.174533,-0.174533,-0.0967124,-0.694997,-0.172801,-0.189518,1.88918,-0.175548,-0.0519998,0.449492
28,60,-0.0872665,-0.698132,-0.174533,-0.174533,-0.0967124,-0.694997,-0.172863,-0.189499,1.88918,-0.175548,-0.050171,0.448933
28,60,-0.0872665,-0.698132,-0.174533,-0.174533,-0.0967124,-0.694997,-0.172863,-0.189499,1.88918,-0.175548,-0.050171,0.448933
28,60,-0.0872665,-0.698132,-0.174533,-0.174533,-0.0967124,-0.694997,-0.172863,-0.189499,1.88918,-0.175548,-0.050171,0.448933
28,60,-0.0872665,-0.698132,-0.174533,-0.174533,-0.0967124,-0.694997,-0.172863,-0.189499,1.88918,-0.175548,-0.050171,0.448933
28,60,-0.0872665,-0.698132,-0.174533,-0.174533,-0.0967124,-0.694997,-0.172863,-0.189499,1.88918,-0.175548,-0.050171,0.448933
28,60,-0.0872665,-0.698132,-0.174533,-0.174533,-0.0967124,-0.694997,-0.172863,-0.189499,1.88918,-0.175548,-0.050171,0.448933
28,60,-0.0872665,-0.698132,-0.174533,-0.174533,-0.0967124,-0.694997,-0.172863,-0.189499,1.88918,-0.175548,-0.050171,0.448933
28,60,-0.0872665,-0.698132,-0.174533,-0.174533,-0.0967124,-0.694997,-0.172863,-0.189499,1.88918,-0.175548,-0.050171,0.448933
28,60,-0.0872665,-0.698132,-0.174533,-0.174533,-0.0967124,-0.694997,-0.172863,-0.189499,1.88918,-0.175548,-0.050171,0.448933
28,60,-0.0872665,-0.698132,-0.174533,-0.174533,-0.0967124,-0.694997,-0.172928,-0.189541,1.88918,-0.175548,-0.0482319,0.450176
28,60,-0.0872665,-0.698132,-0.174533,-0.174533,-0.0967124,-0.694997,-0.172859,-0.189497,1.88918,-0.175548,-0.0503029,0.448851
28,60,-0.0872665,-0.698132,-0.174533,-0.174533,-0.0967124,-0.694997,-0.172859,-0.189497,1.88918,-0.175548,-0.0503029,0.448851
28,60,-0.0872665,-0.698132,-0.174533,-0.174533,-0.0967124,-0.694997,-0.172859,-0.189497,1.88918,-0.175548,-0.0503029,0.448851
28,60,-0.0872665,-0.698132,-0.174533,-0.174533,-0.0967124,-0.694997,-0.172859,-0.189497,1.88918,-0.175548,-0.0503029,0.448851
28,60,-0.0872665,-0.698132,-0.174533,-0.174533,-0.0967124,-0.694997,-0.172859,-0.189497,1.88918,-0.175548,-0.0503029,0.448851
28,60,-0.0872665,-0.698132,-0.174533,-0.174533,-0.0967124,-0.694997,-0.172921,-0.189478,1.88918,-0.175548,-0.0484623,0.448287
28,60,-0.0872665,-0.698132,-0.174533,-0.174533,-0.0967124,-0.694997,-0.172921,-0.189478,1.88918,-0.175548,-0.0484623,0.448287
28,60,-0.0872665,-0.698132,-0.174533,-0.174533,-0.0967124,-0.694997,-0.172921,-0.189478,1.88918,-0.175548,-0.0484623,0.448287
28,60,-0.0872665,-0.698132,-0.174533,-0.174533,-0.0967124,-0.694997,-0.172921,-0.189478,1.88918,-0.175548,-0.0484623,0.448287
28,60,-0.0872665,-0.698132,-0.174533,-0.174533,-0.0967124,-0.694997,-0.172921,-0.189478,1.88918,-0.175548,-0.0484623,0.448287
28,60,-0.0872665,-0.698132,-0.174533,-0.174533,-0.0967124,-0.694997,-0.172921,-0.189478,1.88918,-0.175548,-0.0484623,0.448287
28,60,-0.0872665,-0.698132,-0.174533,-0.174533,-0.0967124,-0.694997,-0.172921,-0.189478,1.88918,-0.175548,-0.0484623,0.448287
28,60,-0.0872665,-0.698132,-0.174533,-0.174533,-0.0967124,-0.694997,-0.172982,-0.18946,1.88918,-0.175548,-0.0465912,0.447715
28,60,-0.0872665,-0.698132,-0.174533,-0.174533,-0.0967124,-0.694997,-0.172982,-0.18946,1.88918,-0.175548,-0.0465912,0.447715
28,60,-0.0872665,-0.698132,-0.174533,-0.174533,-0.0967124,-0.694997,-0.172982,-0.18946,1.88918,-0.175548,-0.0465912,0.447715
28,60,-0.0872665,-0.698132,-0.174533,-0.174533,-0.0967124,-0.694997,-0.172982,-0.18946,1.88918,-0.175548,-0.0465912,0.447715
28,60,-0.0872665,-0.698132,-0.174533,-0.174533,-0.0967124,-0.694997,-0.173047,-0.189501,1.88918,-0.175548,-0.0446168,0.44895
28,60,-0.0872665,-0.698132,-0.174533,-0.174533,-0.0967124,-0.694997,-0.173047,-0.189501,1.88918,-0.175548,-0.0446168,0.44895
28,60,-0.0872665,-0.698132,-0.174533,-0.174533,-0.0967124,-0.694997,-0.173047,-0.189501,1.88918,-0.175548,-0.0446168,0.44895
28,60,-0.0872665,-0.698132,-0.174533,-0.174533,-0.0967124,-0.694997,-0.173047,-0.189501,1.88918,-0.175548,-0.0446168,0.44895
28,60,-0.0872665,-0.698132,-0.174533,-0.174533,-0.0967124,-0.694997,-0.173047,-0.189501,1.88918,-0.175548,-0.0446168,0.44895
28,60,-0.0872665,-0.698132,-0.174533,-0.174533,-0.0967124,-0.694997,-0.173047,-0.189501,1.88918,-0.175548,-0.0446168,0.44895
28,60,-0.0872665,-0.698132,-0.174533,-0.174533,-0.0967124,-0.694997,-0.172978,-0.189457,1.88918,-0.175548,-0.0466537,0.447646
28,60,-0.0872665,-0.698132,-0.174533,-0.174533,-0.0967124,-0.694997,-0.17304,-0.189438,1.88918,-0.175548,-0.0447571,0.447066
28,60,-0.0872665,-0.698132,-0.174533,-0.174533,-0.0967124,-0.694997,-0.17304,-0.189438,1.88918,-0.175548,-0.0447571,0.447066
28,60,-0.0872665,-0.698132,-0.174533,-0.174533,-0.0967124,-0.694997,-0.17304,-0.189438,1.88918,-0.175548,-0.0447571,0.447066
28,60,-0.0872665,-0.698132,-0.174533,-0.174533,-0.0967124,-0.694997,-0.17304,-0.189438,1.88918,-0.175548,-0.0447571,0.447066
28,60,-0.0872665,-0.698132,-0.174533,-0.174533,-0.0967124,-0.694997,-0.17304,-0.189438,1.88918,-0.175548,-0.0447571,0.447066
28,60,-0.0872665,-0.698132,-0.174533,-0.174533,-0.0967124,-0.694997,-0.17304,-0.189438,1.88918,-0.175548,-0.0447571,0.447066
28,60,-0.0872665,-0.698132,-0.174533,-0.174533,-0.0967124,-0.694997,-0.173101,-0.18942,1.88918,-0.175548,-0.0429055,0.446499
28,60,-0.0872665,-0.698132,-0.174533,-0.174533,-0.0967124,-0.694997,-0.173101,-0.18942,1.88918,-0.175548,-0.0429055,0.446499
28,60,-0.0872665,-0.698132,-0.174533,-0.174533,-0.0967124,-0.694997,-0.173101,-0.18942,1.88918,-0.175548,-0.0429055,0.446499
28,60,-0.0872665,-0.698132,-0.174533,-0.174533,-0.0967124,-0.694997,-0.173101,-0.18942,1.88918,-0.175548,-0.0429055,0.446499
28,60,-0.0872665,-0.698132,-0.174533,-0.174533,-0.0967124,-0.694997,-0.173105,-0.18948,1.88918,-0.175548,-0.0427934,0.448306
28,60,-0.0872665,-0.698132,-0.174533,-0.174533,-0.0967124,-0.694997,-0.173105,-0.18948,1.88918,-0.175548,-0.0427934,0.448306
28,60,-0.0872665,-0.698132,-0.174533,-0.174533,-0.0967124,-0.694997,-0.173105,-0.18948,1.88918,-0.175548,-0.0427934,0.448306
28,60,-0.0872665,-0.698132,-0.174533,-0.174533,-0.0967124,-0.694997,-0.173105,-0.18948,1.88918,-0.175548,-0.0427934,0.448306
28,60,-0.0872665,-0.698132,-0.174533,-0.174533,-0.0967124,-0.694997,-0.173105,-0.18948,1.88918,-0.175548,-0.0427934,0.448306
28,60,-0.0872665,-0.698132,-0.174533,-0.174533,-0.0967124,-0.694997,-0.173105,-0.18948,1.88918,-0.175548,-0.0427934,0.448306
28,60,-0.0872665,-0.698132,-0.174533,-0.174533,-0.0967124,-0.694997,-0.173105,-0.18948,1.88918,-0.175548,-0.0427934,0.448306
28,60,-0.0872665,-0.698132,-0.174533,-0.174533,-0.0967124,-0.694997,-0.173105,-0.18948,1.88918,-0.175548,-0.0427934,0.448306
28,60,-0.0872665,-0.698132,-0.174533,-0.174533,-0.0967124,-0.694997,-0.173105,-0.18948,1.88918,-0.175548,-0.0427934,0.448306
28,60,-0.0872665,-0.698132,-0.174533,-0.174533,-0.0967124,-0.694997,-0.173166,-0.189461,1.88918,-0.175548,-0.0409507,0.447743
28,60,-0.0872665,-0.698132,-0.174533,-0.174533,-0.0967124,-0.694997,-0.173166,-0.189461,1.88918,-0.175548,-0.0409507,0.447743
28,60,-0.0872665,-0.698132,-0.174533,-0.174533,-0.0967124,-0.694997,-0.173166,-0.189461,1.88918,-0.175548,-0.0409507,0.447743
28,60,-0.0872665,-0.698132,-0.174533,-0.174533,-0.0967124,-0.694997,-0.173166,-0.189461,1.88918,-0.175548,-0.0409507,0.447743
28,60,-0.0872665,-0.698132,-0.174533,-0.174533,-0.0967124,-0.694997,-0.173166,-0.189461,1.88918,-0.175548,-0.0409507,0.447743
28,60,-0.0872665,-0.698132,-0.174533,-0.174533,-0.0967124,-0.694997,-0.173166,-0.189461,1.88918,-0.175548,-0.0409507,0.447743
28,60,-0.0872665,-0.698132,-0.174533,-0.174533,-0.0967124,-0.694997,-0.173166,-0.189461,1.88918,-0.175548,-0.0409507,0.447743
28,60,-0.0872665,-0.698132,-0.174533,-0.174533,-0.0967124,-0.694997,-0.173166,-0.189461,1.88918,-0.175548,-0.0409507,0.447743
28,60,-0.0872665,-0.698132,-0.174533,-0.174533,-0.0967124,-0.694997,-0.173166,-0.189461,1.88918,-0.175548,-0.0409507,0.447743
28,60,-0.0872665,-0.698132,-0.174533,-0.174533,-0.0967124,-0.694997,-0.173166,-0.189461,1.88918,-0.175548,-0.0409507,0.447743
28,60,-0.0872665,-0.698132,-0.174533,-0.174533,-0.0967124,-0.694997,-0.173166,-0.189461,1.88918,-0.175548,-0.0409507,0.447743
28,60,-0.0872665,-0.698132,-0.174533,-0.174533,-0.0967124,-0.694997,-0.173166,-0.189461,1.88918,-0.175548,-0.0409507,0.447743
28,60,-0.0872665,-0.698132,-0.174533,-0.174533,-0.0967124,-0.694997,-0.173166,-0.189461,1.88918,-0.175548,-0.0409507,0.447743
28,60,-0.0872665,-0.698132,-0.174533,-0.174533,-0.0967124,-0.694997,-0.173166,-0.189461,1.88918,-0.175548,-0.0409507,0.447743
28,60,-0.0872665,-0.698132,-0.174533,-0.174533,-0.0967124,-0.694997,-0.173097,-0.189417,1.88918,-0.175548,-0.0429639,0.446454
28,60,-0.0872665,-0.698132,-0.174533,-0.174533,-0.0967124,-0.694997,-0.173097,-0.189417,1.88918,-0.175548,-0.0429639,0.446454
28,60,-0.0872665,-0.698132,-0.174533,-0.174533,-0.0967124,-0.694997,-0.173097,-0.189417,1.88918,-0.175548,-0.0429639,0.446454
28,60,-0.0872665,-0.698132,-0.174533,-0.174533,-0.0967124,-0.694997,-0.173097,-0.189417,1.88918,-0.175548,-0.0429639,0.446454
28,60,-0.0872665,-0.698132,-0.174533,-0.174533,-0.0967124,-0.694997,-0.173097,-0.189417,1.88918,-0.175548,-0.0429723,0.446457
28,60,-0.0872665,-0.698132,-0.174533,-0.174533,-0.0967124,-0.694997,-0.173097,-0.189417,1.88918,-0.175548,-0.0429822,0.44646
28,60,-0.0872665,-0.698132,-0.174533,-0.174533,-0.0967124,-0.694997,-0.173159,-0.189399,1.88918,-0.175548,-0.0411632,0.445903
28,60,-0.0872665,-0.698132,-0.174533,-0.174533,-0.0967124,-0.694997,-0.173159,-0.189399,1.88918,-0.175548,-0.0411632,0.445903
28,60,-0.0872665,-0.698132,-0.174533,-0.174533,-0.0967124,-0.694997,-0.173159,-0.189399,1.88918,-0.175548,-0.0411632,0.445903
28,60,-0.0872665,-0.698132,-0.174533,-0.174533,-0.0967124,-0.694997,-0.173159,-0.189399,1.88918,-0.175548,-0.0411632,0.445903
28,60,-0.0872665,-0.698132,-0.174533,-0.174533,-0.0967124,-0.694997,-0.173162,-0.189459,1.88918,-0.175548,-0.0410507,0.447714
28,60,-0.0872665,-0.698132,-0.174533,-0.174533,-0.0967124,-0.694997,-0.173162,-0.189459,1.88918,-0.175548,-0.0410507,0.447714
28,60,-0.0872665,-0.698132,-0.174533,-0.174533,-0.0967124,-0.694997,-0.173162,-0.189459,1.88918,-0.175548,-0.0410507,0.447714
28,60,-0.0872665,-0.698132,-0.174533,-0.174533,-0.0967124,-0.694997,-0.173162,-0.189459,1.88918,-0.175548,-0.0410507,0.447714
28,60,-0.0872665,-0.698132,-0.174533,-0.174533,-0.0967124,-0.694997,-0.173162,-0.189459,1.88918,-0.175548,-0.0410507,0.447714
28,60,-0.0872665,-0.698132,-0.174533,-0.174533,-0.0967124,-0.694997,-0.173162,-0.189459,1.88918,-0.175548,-0.0410507,0.447714
28,60,-0.0872665,-0.698132,-0.174533,-0.174533,-0.0967124,-0.694997,-0.173162,-0.189459,1.88918,-0.175548,-0.0410507,0.447714
28,60,-0.0872665,-0.698132,-0.174533,-0.174533,-0.0967124,-0.694997,-0.173162,-0.189459,1.88918,-0.175548,-0.0410507,0.447714
28,60,-0.0872665,-0.698132,-0.174533,-0.174533,-0.0967124,-0.694997,-0.173162,-0.189459,1.88918,-0.175548,-0.0410507,0.447714
28,60,-0.0872665,-0.698132,-0.174533,-0.174533,-0.0967124,-0.694997,-0.173162,-0.189459,1.88918,-0.175548,-0.0410507,0.447714
28,60,-0.0872665,-0.698132,-0.174533,-0.174533,-0.0967124,-0.694997,-0.173162,-0.189459,1.88918,-0.175548,-0.0410507,0.447714
28,60,-0.0872665,-0.698132,-0.174533,-0.174533,-0.0967124,-0.694997,-0.173162,-0.189459,1.88918,-0.175548,-0.0410507,0.447714
28,60,-0.0872665,-0.698132,-0.174533,-0.174533,-0.0967124,-0.694997,-0.173162,-0.189459,1.88918,-0.175548,-0.0410507,0.447714
28,60,-0.0872665,-0.698132,-0.174533,-0.174533,-0.0967124,-0.694997,-0.173162,-0.189459,1.88918,-0.175548,-0.0410507,0.447714
28,60,-0.0872665,-0.698132,-0.174533,-0.174533,-0.0967124,-0.694997,-0.173162,-0.189459,1.88918,-0.175548,-0.0410507,0.447714
28,60,-0.0872665,-0.698132,-0.174533,-0.174533,-0.0967124,-0.694997,-0.173094,-0.189415,1.88918,-0.175548,-0.0430646,0.446426
28,60,-0.0872665,-0.698132,-0.174533,-0.174533,-0.0967124,-0.694997,-0.173094,-0.189415,1.88918,-0.175548,-0.0430646,0.446426
28,60,-0.0872665,-0.698132,-0.174533,-0.174533,-0.0967124,-0.694997,-0.173094,-0.189415,1.88918,-0.175548,-0.0430646,0.446426
28,60,-0.0872665,-0.698132,-0.174533,-0.174533,-0.0967124,-0.694997,-0.173094,-0.189415,1.88918,-0.175548,-0.0430667,0.446426
28,60,-0.0872665,-0.698132,-0.174533,-0.174533,-0.0967124,-0.694997,-0.173094,-0.189415,1.88918,-0.175548,-0.0430739,0.446428
28,60,-0.0872665,-0.698132,-0.174533,-0.174533,-0.0967124,-0.694997,-0.173094,-0.189415,1.88918,-0.175548,-0.0430804,0.44643
28,60,-0.0872665,-0.698132,-0.174533,-0.174533,-0.0967124,-0.694997,-0.173094,-0.189415,1.88918,-0.175548,-0.0430864,0.446432
28,60,-0.0872665,-0.698132,-0.174533,-0.174533,-0.0967124,-0.694997,-0.173094,-0.189415,1.88918,-0.175548,-0.043092,0.446434
28,60,-0.0872665,-0.698132,-0.174533,-0.174533,-0.0967124,-0.694997,-0.173094,-0.189415,1.88918,-0.175548,-0.0430972,0.446436
28,60,-0.0872665,-0.698132,-0.174533,-0.174533,-0.0967124,-0.694997,-0.173094,-0.189415,1.88918,-0.175548,-0.043102,0.446437
28,60,-0.0872665,-0.698132,-0.174533,-0.174533,-0.0967124,-0.694997,-0.173094,-0.189415,1.88918,-0.175548,-0.0431064,0.446438
28,60,-0.0872665,-0.698132,-0.174533,-0.174533,-0.0967124,-0.694997,-0.173094,-0.189415,1.88918,-0.175548,-0.0431106,0.44644
28,60,-0.0872665,-0.698132,-0.174533,-0.174533,-0.0967124,-0.694997,-0.173094,-0.189415,1.88918,-0.175548,-0.0431145,0.446441
28,60,-0.0872665,-0.698132,-0.174533,-0.174533,-0.0967124,-0.694997,-0.173026,-0.189371,1.88918,-0.175548,-0.0451546,0.445139
28,60,-0.0872665,-0.698132,-0.174533,-0.174533,-0.0967124,-0.694997,-0.17303,-0.189431,1.88918,-0.175548,-0.045047,0.446933
28,60,-0.0872665,-0.698132,-0.174533,-0.174533,-0.0967124,-0.694997,-0.17303,-0.189431,1.88918,-0.175548,-0.0450502,0.446934
28,60,-0.0872665,-0.698132,-0.174533,-0.174533,-0.0967124,-0.694997,-0.17303,-0.189431,1.88918,-0.175548,-0.0450533,0.446935
28,60,-0.0872665,-0.698132,-0.174533,-0.174533,-0.0967124,-0.694997,-0.17303,-0.189431,1.88918,-0.175548,-0.0450561,0.446936
28,60,-0.0872665,-0.698132,-0.174533,-0.174533,-0.0967124,-0.694997,-0.17303,-0.189431,1.88918,-0.175548,-0.0450589,0.446936
28,60,-0.0872665,-0.698132,-0.174533,-0.174533,-0.0967124,-0.694997,-0.17303,-0.189431,1.88918,-0.175548,-0.0450615,0.446937
28,60,-0.0872665,-0.698132,-0.174533,-0.174533,-0.0967124,-0.694997,-0.17303,-0.189431,1.88918,-0.175548,-0.0450639,0.446938
28,60,-0.0872665,-0.698132,-0.174533,-0.174533,-0.0967124,-0.694997,-0.17303,-0.189431,1.88918,-0.175548,-0.0450662,0.446939
28,60,-0.0872665,-0.698132,-0.174533,-0.174533,-0.0967124,-0.694997,-0.17303,-0.189431,1.88918,-0.175548,-0.0450685,0.446939
28,60,-0.0872665,-0.698132,-0.174533,-0.174533,-0.0967124,-0.694997,-0.172961,-0.189388,1.88918,-0.175548,-0.0471203,0.445628
28,60,-0.0872665,-0.698132,-0.174533,-0.174533,-0.0967124,-0.694997,-0.172961,-0.189388,1.88918,-0.175548,-0.0471223,0.445629
28,60,-0.0872665,-0.698132,-0.174533,-0.174533,-0.0967124,-0.694997,-0.172961,-0.189388,1.88918,-0.175548,-0.0471242,0.445629
28,60,-0.0872665,-0.698132,-0.174533,-0.174533,-0.0967124,-0.694997,-0.172961,-0.189388,1.88918,-0.175548,-0.0471261,0.44563
28,60,-0.0872665,-0.698132,-0.174533,-0.174533,-0.0967124,-0.694997,-0.172961,-0.189388,1.88918,-0.175548,-0.0471278,0.445631
28,60,-0.0872665,-0.698132,-0.174533,-0.174533,-0.0967124,-0.694997,-0.172961,-0.189388,1.88918,-0.175548,-0.0471295,0.445631
28,60,-0.0872665,-0.698132,-0.174533,-0.174533,-0.0967124,-0.694997,-0.172961,-0.189388,1.88918,-0.175548,-0.0471311,0.445632
28,60,-0.0872665,-0.698132,-0.174533,-0.174533,-0.0967124,-0.694997,-0.173022,-0.189369,1.88918,-0.175548,-0.0452638,0.44506
28,60,-0.0872665,-0.698132,-0.174533,-0.174533,-0.0967124,-0.694997,-0.173022,-0.189369,1.88918,-0.175548,-0.0452638,0.44506
28,60,-0.0872665,-0.698132,-0.174533,-0.174533,-0.0967124,-0.694997,-0.173022,-0.189369,1.88918,-0.175548,-0.0452638,0.44506
28,60,-0.0872665,-0.698132,-0.174533,-0.174533,-0.0967124,-0.694997,-0.173022,-0.189369,1.88918,-0.175548,-0.0452638,0.44506
28,60,-0.0872665,-0.698132,-0.174533,-0.174533,-0.0967124,-0.694997,-0.173022,-0.189369,1.88918,-0.175548,-0.0452638,0.44506
28,60,-0.0872665,-0.698132,-0.174533,-0.174533,-0.0967124,-0.694997,-0.173022,-0.189369,1.88918,-0.175548,-0.0452638,0.44506
28,60,-0.0872665,-0.698132,-0.174533,-0.174533,-0.0967124,-0.694997,-0.173022,-0.189369,1.88918,-0.175548,-0.0452638,0.44506
28,60,-0.0872665,-0.698132,-0.174533,-0.174533,-0.0967124,-0.694997,-0.173022,-0.189369,1.88918,-0.175548,-0.0452638,0.44506
28,60,-0.0872665,-0.698132,-0.174533,-0.174533,-0.0967124,-0.694997,-0.173022,-0.189369,1.88918,-0.175548,-0.0452638,0.44506
28,60,-0.0872665,-0.698132,-0.174533,-0.174533,-0.0967124,-0.694997,-0.173022,-0.189369,1.88918,-0.175548,-0.0452638,0.44506
28,60,-0.0872665,-0.698132,-0.174533,-0.174533,-0.0967124,-0.694997,-0.173022,-0.189369,1.88918,-0.175548,-0.0452638,0.44506
28,60,-0.0872665,-0.698132,-0.174533,-0.174533,-0.0967124,-0.694997,-0.172954,-0.189325,1.88918,-0.175548,-0.0473209,0.443743
28,60,-0.0872665,-0.698132,-0.174533,-0.174533,-0.0967124,-0.694997,-0.172954,-0.189325,1.88918,-0.175548,-0.0473209,0.443743
28,60,-0.0872665,-0.698132,-0.174533,-0.174533,-0.0967124,-0.694997,-0.172954,-0.189325,1.88918,-0.175548,-0.0473209,0.443743
28,60,-0.0872665,-0.698132,-0.174533,-0.174533,-0.0967124,-0.694997,-0.172954,-0.189325,1.88918,-0.175548,-0.0473209,0.443743
28,60,-0.0872665,-0.698132,-0.174533,-0.174533,-0.0967124,-0.694997,-0.172954,-0.189325,1.88918,-0.175548,-0.0473209,0.443743
28,60,-0.0872665,-0.698132,-0.174533,-0.174533,-0.0967124,-0.694997,-0.172958,-0.189385,1.88918,-0.175548,-0.0472096,0.445541
28,60,-0.0872665,-0.698132,-0.174533,-0.174533,-0.0967124,-0.694997,-0.172958,-0.189385,1.88918,-0.175548,-0.0472096,0.445541
28,60,-0.0872665,-0.698132,-0.174533,-0.174533,-0.0967124,-0.694997,-0.172958,-0.189385,1.88918,-0.175548,-0.0472096,0.445541
28,60,-0.0872665,-0.698132,-0.174533,-0.174533,-0.0967124,-0.694997,-0.172958,-0.189385,1.88918,-0.175548,-0.0472096,0.445541
28,60,-0.0872665,-0.698132,-0.174533,-0.174533,-0.0967124,-0.694997,-0.172958,-0.189385,1.88918,-0.175548,-0.0472096,0.445541
28,60,-0.0872665,-0.698132,-0.174533,-0.174533,-0.0967124,-0.694997,-0.172958,-0.189385,1.88918,-0.175548,-0.0472096,0.445541
28,60,-0.0872665,-0.698132,-0.174533,-0.174533,-0.0967124,-0.694997,-0.172958,-0.189385,1.88918,-0.175548,-0.0472096,0.445541
28,60,-0.0872665,-0.698132,-0.174533,-0.174533,-0.0967124,-0.694997,-0.172958,-0.189385,1.88918,-0.175548,-0.0472096,0.445541
28,60,-0.0872665,-0.698132,-0.174533,-0.174533,-0.0967124,-0.694997,-0.172958,-0.189385,1.88918,-0.175548,-0.0472096,0.445541
28,60,-0.0872665,-0.698132,-0.174533,-0.174533,-0.0967124,-0.694997,-0.172958,-0.189385,1.88918,-0.175548,-0.0472096,0.445541
28,60,-0.0872665,-0.698132,-0.174533,-0.174533,-0.0967124,-0.694997,-0.172958,-0.189385,1.88918,-0.175548,-0.0472096,0.445541
28,60,-0.0872665,-0.698132,-0.174533,-0.174533,-0.0967124,-0.694997,-0.172958,-0.189385,1.88918,-0.175548,-0.0472096,0.445541
28,60,-0.0872665,-0.698132,-0.174533,-0.174533,-0.0967124,-0.694997,-0.172958,-0.189385,1.88918,-0.175548,-0.0472096,0.445541
28,60,-0.0872665,-0.698132,-0.174533,-0.174533,-0.0967124,-0.694997,-0.172958,-0.189385,1.88918,-0.175548,-0.0472096,0.445541
28,60,-0.0872665,-0.698132,-0.174533,-0.174533,-0.0967124,-0.694997,-0.172958,-0.189385,1.88918,-0.175548,-0.0472096,0.445541
28,60,-0.0872665,-0.698132,-0.174533,-0.174533,-0.0967124,-0.694997,-0.172958,-0.189385,1.88918,-0.175548,-0.0472096,0.445541
28,60,-0.0872665,-0.698132,-0.174533,-0.174533,-0.0967124,-0.694997,-0.172958,-0.189385,1.88918,-0.175548,-0.0472096,0.445541
28,60,-0.0872665,-0.698132,-0.174533,-0.174533,-0.0967124,-0.694997,-0.173019,-0.189366,1.88918,-0.175548,-0.0454236,0.444995
28,60,-0.0872665,-0.698132,-0.174533,-0.174533,-0.0967124,-0.694997,-0.173019,-0.189366,1.88918,-0.175548,-0.0454236,0.444995
28,60,-0.0872665,-0.698132,-0.174533,-0.174533,-0.0967124,-0.694997,-0.173019,-0.189366,1.88918,-0.175548,-0.0454236,0.444995
28,60,-0.0872665,-0.698132,-0.174533,-0.174533,-0.0967124,-0.694997,-0.173019,-0.189366,1.88918,-0.175548,-0.0454236,0.444995
28,60,-0.0872665,-0.698132,-0.174533,-0.174533,-0.0967124,-0.694997,-0.173019,-0.189366,1.88918,-0.175548,-0.0454236,0.444995
28,60,-0.0872665,-0.698132,-0.174533,-0.174533,-0.0967124,-0.694997,-0.173019,-0.189366,1.88918,-0.175548,-0.0454236,0.444995
28,60,-0.0872665,-0.698132,-0.174533,-0.174533,-0.0967124,-0.694997,-0.173019,-0.189366,1.88918,-0.175548,-0.0454236,0.444995
28,60,-0.0872665,-0.698132,-0.174533,-0.174533,-0.0967124,-0.694997,-0.173019,-0.189366,1.88918,-0.175548,-0.0454236,0.444995
28,60,-0.0872665,-0.698132,-0.174533,-0.174533,-0.0967124,-0.694997,-0.173019,-0.189366,1.88918,-0.175548,-0.0454236,0.444995
28,60,-0.0872665,-0.698132,-0.174533,-0.174533,-0.0967124,-0.694997,-0.173019,-0.189366,1.88918,-0.175548,-0.0454236,0.444995
28,60,-0.0872665,-0.698132,-0.174533,-0.174533,-0.0967124,-0.694997,-0.173019,-0.189366,1.88918,-0.175548,-0.0454236,0.444995
28,60,-0.0872665,-0.698132,-0.174533,-0.174533,-0.0967124,-0.694997,-0.173019,-0.189366,1.88918,-0.175548,-0.0454236,0.444995
28,60,-0.0872665,-0.698132,-0.174533,-0.174533,-0.0967124,-0.694997,-0.173019,-0.189366,1.88918,-0.175548,-0.0454236,0.444995
28,60,-0.0872665,-0.698132,-0.174533,-0.174533,-0.0967124,-0.694997,-0.173019,-0.189366,1.88918,-0.175548,-0.0454236,0.444995
28,60,-0.0872665,-0.698132,-0.174533,-0.174533,-0.0967124,-0.694997,-0.173019,-0.189366,1.88918,-0.175548,-0.0454236,0.444995
28,60,-0.0872665,-0.698132,-0.174533,-0.174533,-0.0967124,-0.694997,-0.173019,-0.189366,1.88918,-0.175548,-0.0454236,0.444995
28,60,-0.0872665,-0.698132,-0.174533,-0.174533,-0.0967124,-0.694997,-0.173019,-0.189366,1.88918,-0.175548,-0.0454236,0.444995
28,60,-0.0872665,-0.698132,-0.174533,-0.174533,-0.0967124,-0.694997,-0.173023,-0.189426,1.88918,-0.175548,-0.0453124,0.44679
28,60,-0.0872665,-0.698132,-0.174533,-0.174533,-0.0967124,-0.694997,-0.173023,-0.189426,1.88918,-0.175548,-0.0453124,0.44679
28,60,-0.0872665,-0.698132,-0.174533,-0.174533,-0.0967124,-0.694997,-0.173023,-0.189426,1.88918,-0.175548,-0.0453124,0.44679
28,60,-0.0872665,-0.698132,-0.174533,-0.174533,-0.0967124,-0.694997,-0.172954,-0.189383,1.88918,-0.175548,-0.0473797,0.445467
28,60,-0.0872665,-0.698132,-0.174533,-0.174533,-0.0967124,-0.694997,-0.172954,-0.189383,1.88918,-0.175548,-0.0473797,0.445467
28,60,-0.0872665,-0.698132,-0.174533,-0.174533,-0.0967124,-0.694997,-0.172954,-0.189383,1.88918,-0.175548,-0.0473797,0.445467
28,60,-0.0872665,-0.698132,-0.174533,-0.174533,-0.0967124,-0.694997,-0.172954,-0.189383,1.88918,-0.175548,-0.0473797,0.445467
28,60,-0.0872665,-0.698132,-0.174533,-0.174533,-0.0967124,-0.694997,-0.172954,-0.189383,1.88918,-0.175548,-0.0473797,0.445467
28,60,-0.0872665,-0.698132,-0.174533,-0.174533,-0.0967124,-0.694997,-0.172954,-0.189383,1.88918,-0.175548,-0.0473797,0.445467
28,60,-0.0872665,-0.698132,-0.174533,-0.174533,-0.0967124,-0.694997,-0.172954,-0.189383,1.88918,-0.175548,-0.0473797,0.445467
28,60,-0.0872665,-0.698132,-0.174533,-0.174533,-0.0967124,-0.694997,-0.172954,-0.189383,1.88918,-0.175548,-0.0473797,0.445467
28,60,-0.0872665,-0.698132,-0.174533,-0.174533,-0.0967124,-0.694997,-0.172954,-0.189383,1.88918,-0.175548,-0.0473797,0.445467
28,60,-0.0872665,-0.698132,-0.174533,-0.174533,-0.0967124,-0.694997,-0.172954,-0.189383,1.88918,-0.175548,-0.0473797,0.445467
28,60,-0.0872665,-0.698132,-0.174533,-0.174533,-0.0967124,-0.694997,-0.172954,-0.189383,1.88918,-0.175548,-0.0473797,0.445467
28,60,-0.0872665,-0.698132,-0.174533,-0.174533,-0.0967124,-0.694997,-0.172954,-0.189383,1.88918,-0.175548,-0.0473797,0.445467
28,60,-0.0872665,-0.698132,-0.174533,-0.174533,-0.0967124,-0.694997,-0.172954,-0.189383,1.88918,-0.175548,-0.0473797,0.445467
28,60,-0.0872665,-0.698132,-0.174533,-0.174533,-0.0967124,-0.694997,-0.172954,-0.189383,1.88918,-0.175548,-0.0473797,0.445467
28,60,-0.0872665,-0.698132,-0.174533,-0.174533,-0.0967124,-0.694997,-0.172954,-0.189383,1.88918,-0.175548,-0.0473797,0.445467
28,60,-0.0872665,-0.698132,-0.174533,-0.174533,-0.0967124,-0.694997,-0.172954,-0.189383,1.88918,-0.175548,-0.0473797,0.445467
28,60,-0.0872665,-0.698132,-0.174533,-0.174533,-0.0967124,-0.694997,-0.172954,-0.189383,1.88918,-0.175548,-0.0473797,0.445467
28,60,-0.0872665,-0.698132,-0.174533,-0.174533,-0.0967124,-0.694997,-0.172954,-0.189383,1.88918,-0.175548,-0.0473797,0.445467
28,60,-0.0872665,-0.698132,-0.174533,-0.174533,-0.0967124,-0.694997,-0.172954,-0.189383,1.88918,-0.175548,-0.0473797,0.445467
28,60,-0.0872665,-0.698132,-0.174533,-0.174533,-0.0967124,-0.694997,-0.172954,-0.189383,1.88918,-0.175548,-0.0473797,0.445467
28,60,-0.0872665,-0.698132,-0.174533,-0.174533,-0.0967124,-0.694997,-0.172954,-0.189383,1.88918,-0.175548,-0.0473797,0.445467
28,60,-0.0872665,-0.698132,-0.174533,-0.174533,-0.0967124,-0.694997,-0.172954,-0.189383,1.88918,-0.175548,-0.0473797,0.445467
28,60,-0.0872665,-0.698132,-0.174533,-0.174533,-0.0967124,-0.694997,-0.172954,-0.189383,1.88918,-0.175548,-0.0473797,0.445467
28,60,-0.0872665,-0.698132,-0.174533,-0.174533,-0.0967124,-0.694997,-0.172954,-0.189383,1.88918,-0.175548,-0.0473797,0.445467
28,60,-0.0872665,-0.698132,-0.174533,-0.174533,-0.0967124,-0.694997,-0.172958,-0.189443,1.88918,-0.175548,-0.0472686,0.447264
28,60,-0.0872665,-0.698132,-0.174533,-0.174533,-0.0967124,-0.694997,-0.172958,-0.189443,1.88918,-0.175548,-0.0472686,0.447264
28,60,-0.0872665,-0.698132,-0.174533,-0.174533,-0.0967124,-0.694997,-0.173019,-0.189424,1.88918,-0.175548,-0.045445,0.446706
28,60,-0.0872665,-0.698132,-0.174533,-0.174533,-0.0967124,-0.694997,-0.173019,-0.189424,1.88918,-0.175548,-0.045445,0.446706
28,60,-0.0872665,-0.698132,-0.174533,-0.174533,-0.0967124,-0.694997,-0.173019,-0.189424,1.88918,-0.175548,-0.045445,0.446706
28,60,-0.0872665,-0.698132,-0.174533,-0.174533,-0.0967124,-0.694997,-0.173019,-0.189424,1.88918,-0.175548,-0.045445,0.446706
28,60,-0.0872665,-0.698132,-0.174533,-0.174533,-0.0967124,-0.694997,-0.173019,-0.189424,1.88918,-0.175548,-0.045445,0.446706
28,60,-0.0872665,-0.698132,-0.174533,-0.174533,-0.0967124,-0.694997,-0.173019,-0.189424,1.88918,-0.175548,-0.045445,0.446706
28,60,-0.0872665,-0.698132,-0.174533,-0.174533,-0.0967124,-0.694997,-0.173019,-0.189424,1.88918,-0.175548,-0.045445,0.446706
28,60,-0.0872665,-0.698132,-0.174533,-0.174533,-0.0967124,-0.694997,-0.173019,-0.189424,1.88918,-0.175548,-0.045445,0.446706
28,60,-0.0872665,-0.698132,-0.174533,-0.174533,-0.0967124,-0.694997,-0.173019,-0.189424,1.88918,-0.175548,-0.045445,0.446706
28,60,-0.0872665,-0.698132,-0.174533,-0.174533,-0.0967124,-0.694997,-0.173019,-0.189424,1.88918,-0.175548,-0.045445,0.446706
28,60,-0.0872665,-0.698132,-0.174533,-0.174533,-0.0967124,-0.694997,-0.173019,-0.189424,1.88918,-0.175548,-0.045445,0.446706
28,60,-0.0872665,-0.698132,-0.174533,-0.174533,-0.0967124,-0.694997,-0.173019,-0.189424,1.88918,-0.175548,-0.045445,0.446706
28,60,-0.0872665,-0.698132,-0.174533,-0.174533,-0.0967124,-0.694997,-0.173019,-0.189424,1.88918,-0.175548,-0.045445,0.446706
28,60,-0.0872665,-0.698132,-0.174533,-0.174533,-0.0967124,-0.694997,-0.173019,-0.189424,1.88918,-0.175548,-0.045445,0.446706
28,60,-0.0872665,-0.698132,-0.174533,-0.174533,-0.0967124,-0.694997,-0.172951,-0.18938,1.88918,-0.175548,-0.0474767,0.445405
28,60,-0.0872665,-0.698132,-0.174533,-0.174533,-0.0967124,-0.694997,-0.172951,-0.18938,1.88918,-0.175548,-0.0474767,0.445405
28,60,-0.0872665,-0.698132,-0.174533,-0.174533,-0.0967124,-0.694997,-0.172951,-0.18938,1.88918,-0.175548,-0.0474767,0.445405
28,60,-0.0872665,-0.698132,-0.174533,-0.174533,-0.0967124,-0.694997,-0.172951,-0.18938,1.88918,-0.175548,-0.0474767,0.445405
28,60,-0.0872665,-0.698132,-0.174533,-0.174533,-0.0967124,-0.694997,-0.172951,-0.18938,1.88918,-0.175548,-0.0474767,0.445405
28,60,-0.0872665,-0.698132,-0.174533,-0.174533,-0.0967124,-0.694997,-0.172951,-0.18938,1.88918,-0.175548,-0.0474767,0.445405
28,60,-0.0872665,-0.698132,-0.174533,-0.174533,-0.0967124,-0.694997,-0.172951,-0.18938,1.88918,-0.175548,-0.0474767,0.445405
28,60,-0.0872665,-0.698132,-0.174533,-0.174533,-0.0967124,-0.694997,-0.172951,-0.18938,1.88918,-0.175548,-0.0474767,0.445405
28,60,-0.0872665,-0.698132,-0.174533,-0.174533,-0.0967124,-0.694997,-0.172951,-0.18938,1.88918,-0.175548,-0.0474767,0.445405
28,60,-0.0872665,-0.698132,-0.174533,-0.174533,-0.0967124,-0.694997,-0.172951,-0.18938,1.88918,-0.175548,-0.0474767,0.445405
28,60,-0.0872665,-0.698132,-0.174533,-0.174533,-0.0967124,-0.694997,-0.172951,-0.18938,1.88918,-0.175548,-0.0474767,0.445405
28,60,-0.0872665,-0.698132,-0.174533,-0.174533,-0.0967124,-0.694997,-0.172951,-0.18938,1.88918,-0.175548,-0.0474767,0.445405
28,60,-0.0872665,-0.698132,-0.174533,-0.174533,-0.0967124,-0.694997,-0.172951,-0.18938,1.88918,-0.175548,-0.0474767,0.445405
28,60,-0.0872665,-0.698132,-0.174533,-0.174533,-0.0967124,-0.694997,-0.172951,-0.18938,1.88918,-0.175548,-0.0474767,0.445405
28,60,-0.0872665,-0.698132,-0.174533,-0.174533,-0.0967124,-0.694997,-0.172951,-0.18938,1.88918,-0.175548,-0.0474767,0.445405
28,60,-0.0872665,-0.698132,-0.174533,-0.174533,-0.0967124,-0.694997,-0.172951,-0.18938,1.88918,-0.175548,-0.0474767,0.445405
28,60,-0.0872665,-0.698132,-0.174533,-0.174533,-0.0967124,-0.694997,-0.172951,-0.18938,1.88918,-0.175548,-0.0474767,0.445405
28,60,-0.0872665,-0.698132,-0.174533,-0.174533,-0.0967124,-0.694997,-0.172951,-0.18938,1.88918,-0.175548,-0.0474767,0.445405
28,60,-0.0872665,-0.698132,-0.174533,-0.174533,-0.0967124,-0.694997,-0.172951,-0.18938,1.88918,-0.175548,-0.0474767,0.445405
28,60,-0.0872665,-0.698132,-0.174533,-0.174533,-0.0967124,-0.694997,-0.172955,-0.18944,1.88918,-0.175548,-0.0473651,0.447209
28,60,-0.0872665,-0.698132,-0.174533,-0.174533,-0.0967124,-0.694997,-0.172955,-0.18944,1.88918,-0.175548,-0.0473651,0.447209
28,60,-0.0872665,-0.698132,-0.174533,-0.174533,-0.0967124,-0.694997,-0.172955,-0.18944,1.88918,-0.175548,-0.0473651,0.447209
28,60,-0.0872665,-0.698132,-0.174533,-0.174533,-0.0967124,-0.694997,-0.172955,-0.18944,1.88918,-0.175548,-0.0473651,0.447209
28,60,-0.0872665,-0.698132,-0.174533,-0.174533,-0.0967124,-0.694997,-0.172955,-0.18944,1.88918,-0.175548,-0.0473651,0.447209
28,60,-0.0872665,-0.698132,-0.174533,-0.174533,-0.0967124,-0.694997,-0.172955,-0.18944,1.88918,-0.175548,-0.0473651,0.447209
28,60,-0.0872665,-0.698132,-0.174533,-0.174533,-0.0967124,-0.694997,-0.172955,-0.18944,1.88918,-0.175548,-0.0473651,0.447209
28,60,-0.0872665,-0.698132,-0.174533,-0.174533,-0.0967124,-0.694997,-0.172955,-0.18944,1.88918,-0.175548,-0.0473651,0.447209
28,60,-0.0872665,-0.698132,-0.174533,-0.174533,-0.0967124,-0.694997,-0.172955,-0.18944,1.88918,-0.175548,-0.0473651,0.447209
28,60,-0.0872665,-0.698132,-0.174533,-0.174533,-0.0967124,-0.694997,-0.172955,-0.18944,1.88918,-0.175548,-0.0473651,0.447209
28,60,-0.0872665,-0.698132,-0.174533,-0.174533,-0.0967124,-0.694997,-0.172955,-0.18944,1.88918,-0.175548,-0.0473651,0.447209
28,60,-0.0872665,-0.698132,-0.174533,-0.174533,-0.0967124,-0.694997,-0.172955,-0.18944,1.88918,-0.175548,-0.0473651,0.447209
28,60,-0.0872665,-0.698132,-0.174533,-0.174533,-0.0967124,-0.694997,-0.172955,-0.18944,1.88918,-0.175548,-0.0473651,0.447209
28,60,-0.0872665,-0.698132,-0.174533,-0.174533,-0.0967124,-0.694997,-0.172955,-0.18944,1.88918,-0.175548,-0.0473651,0.447209
28,60,-0.0872665,-0.698132,-0.174533,-0.174533,-0.0967124,-0.694997,-0.172955,-0.18944,1.88918,-0.175548,-0.0473651,0.447209
28,60,-0.0872665,-0.698132,-0.174533,-0.174533,-0.0967124,-0.694997,-0.172955,-0.18944,1.88918,-0.175548,-0.0473651,0.447209
28,60,-0.0872665,-0.698132,-0.174533,-0.174533,-0.0967124,-0.694997,-0.172955,-0.18944,1.88918,-0.175548,-0.0473651,0.447209
28,60,-0.0872665,-0.698132,-0.174533,-0.174533,-0.0967124,-0.694997,-0.172955,-0.18944,1.88918,-0.175548,-0.0473651,0.447209
28,60,-0.0872665,-0.698132,-0.174533,-0.174533,-0.0967124,-0.694997,-0.172955,-0.18944,1.88918,-0.175548,-0.0473651,0.447209
28,60,-0.0872665,-0.698132,-0.174533,-0.174533,-0.0967124,-0.694997,-0.172955,-0.18944,1.88918,-0.175548,-0.0473651,0.447209
28,60,-0.0872665,-0.698132,-0.174533,-0.174533,-0.0967124,-0.694997,-0.172955,-0.18944,1.88918,-0.175548,-0.0473651,0.447209
28,60,-0.0872665,-0.698132,-0.174533,-0.174533,-0.0967124,-0.694997,-0.172955,-0.18944,1.88918,-0.175548,-0.0473651,0.447209
28,60,-0.0872665,-0.698132,-0.174533,-0.174533,-0.0967124,-0.694997,-0.172955,-0.18944,1.88918,-0.175548,-0.0473651,0.447209
28,60,-0.0872665,-0.698132,-0.174533,-0.174533,-0.0967124,-0.694997,-0.172955,-0.18944,1.88918,-0.175548,-0.0473651,0.447209
28,60,-0.0872665,-0.698132,-0.174533,-0.174533,-0.0967124,-0.694997,-0.172955,-0.18944,1.88918,-0.175548,-0.0473651,0.447209
28,60,-0.0872665,-0.698132,-0.174533,-0.174533,-0.0967124,-0.694997,-0.172955,-0.18944,1.88918,-0.175548,-0.0473651,0.447209
28,60,-0.0872665,-0.698132,-0.174533,-0.174533,-0.0967124,-0.694997,-0.172955,-0.18944,1.88918,-0.175548,-0.0473651,0.447209
28,60,-0.0872665,-0.698132,-0.174533,-0.174533,-0.0967124,-0.694997,-0.172955,-0.18944,1.88918,-0.175548,-0.0473651,0.447209
28,60,-0.0872665,-0.698132,-0.174533,-0.174533,-0.0967124,-0.694997,-0.172955,-0.18944,1.88918,-0.175548,-0.0473651,0.447209
28,60,-0.0872665,-0.698132,-0.174533,-0.174533,-0.0967124,-0.694997,-0.172955,-0.18944,1.88918,-0.175548,-0.0473651,0.447209
28,60,-0.0872665,-0.698132,-0.174533,-0.174533,-0.0967124,-0.694997,-0.172955,-0.18944,1.88918,-0.175548,-0.0473651,0.447209
28,60,-0.0872665,-0.698132,-0.174533,-0.174533,-0.0967124,-0.694997,-0.172955,-0.18944,1.88918,-0.175548,-0.0473651,0.447209
28,60,-0.0872665,-0.698132,-0.174533,-0.174533,-0.0967124,-0.694997,-0.172955,-0.18944,1.88918,-0.175548,-0.0473651,0.447209
28,60,-0.0872665,-0.698132,-0.174533,-0.174533,-0.0967124,-0.694997,-0.172955,-0.18944,1.88918,-0.175548,-0.0473651,0.447209
28,60,-0.0872665,-0.698132,-0.174533,-0.174533,-0.0967124,-0.694997,-0.172955,-0.18944,1.88918,-0.175548,-0.0473651,0.447209
28,60,-0.0872665,-0.698132,-0.174533,-0.174533,-0.0967124,-0.694997,-0.172955,-0.18944,1.88918,-0.175548,-0.0473651,0.447209
28,60,-0.0872665,-0.698132,-0.174533,-0.174533,-0.0967124,-0.694997,-0.172955,-0.18944,1.88918,-0.175548,-0.0473651,0.447209
28,60,-0.0872665,-0.698132,-0.174533,-0.174533,-0.0967124,-0.694997,-0.172955,-0.18944,1.88918,-0.175548,-0.0473651,0.447209
28,60,-0.0872665,-0.698132,-0.174533,-0.174533,-0.0967124,-0.694997,-0.172959,-0.1895,1.88918,-0.175548,-0.0472536,0.449009
28,60,-0.0872665,-0.698132,-0.174533,-0.174533,-0.0967124,-0.694997,-0.172959,-0.1895,1.88918,-0.175548,-0.0472536,0.449009
28,60,-0.0872665,-0.698132,-0.174533,-0.174533,-0.0967124,-0.694997,-0.172959,-0.1895,1.88918,-0.175548,-0.0472536,0.449009
28,60,-0.0872665,-0.698132,-0.174533,-0.174533,-0.0967124,-0.694997,-0.172959,-0.1895,1.88918,-0.175548,-0.0472536,0.449009
28,60,-0.0872665,-0.698132,-0.174533,-0.174533,-0.0967124,-0.694997,-0.172959,-0.1895,1.88918,-0.175548,-0.0472536,0.449009
28,60,-0.0872665,-0.698132,-0.174533,-0.174533,-0.0967124,-0.694997,-0.172959,-0.1895,1.88918,-0.175548,-0.0472536,0.449009
28,60,-0.0872665,-0.698132,-0.174533,-0.174533,-0.0967124,-0.694997,-0.172959,-0.1895,1.88918,-0.175548,-0.0472536,0.449009
28,60,-0.0872665,-0.698132,-0.174533,-0.174533,-0.0967124,-0.694997,-0.172959,-0.1895,1.88918,-0.175548,-0.0472536,0.449009
28,60,-0.0872665,-0.698132,-0.174533,-0.174533,-0.0967124,-0.694997,-0.172959,-0.1895,1.88918,-0.175548,-0.0472536,0.449009
28,60,-0.0872665,-0.698132,-0.174533,-0.174533,-0.0967124,-0.694997,-0.172959,-0.1895,1.88918,-0.175548,-0.0472536,0.449009
28,60,-0.0872665,-0.698132,-0.174533,-0.174533,-0.0967124,-0.694997,-0.172959,-0.1895,1.88918,-0.175548,-0.0472536,0.449009
28,60,-0.0872665,-0.698132,-0.174533,-0.174533,-0.0967124,-0.694997,-0.172959,-0.1895,1.88918,-0.175548,-0.0472536,0.449009
28,60,-0.0872665,-0.698132,-0.174533,-0.174533,-0.0967124,-0.694997,-0.172959,-0.1895,1.88918,-0.175548,-0.0472536,0.449009
28,60,-0.0872665,-0.698132,-0.174533,-0.174533,-0.0967124,-0.694997,-0.172959,-0.1895,1.88918,-0.175548,-0.0472536,0.449009
28,60,-0.0872665,-0.698132,-0.174533,-0.174533,-0.0967124,-0.694997,-0.17302,-0.189482,1.88918,-0.175548,-0.0454263,0.44845
28,60,-0.0872665,-0.698132,-0.174533,-0.174533,-0.0967124,-0.694997,-0.17302,-0.189482,1.88918,-0.175548,-0.0454263,0.44845
28,60,-0.0872665,-0.698132,-0.174533,-0.174533,-0.0967124,-0.694997,-0.17302,-0.189482,1.88918,-0.175548,-0.0454263,0.44845
28,60,-0.0872665,-0.698132,-0.174533,-0.174533,-0.0967124,-0.694997,-0.17302,-0.189482,1.88918,-0.175548,-0.0454263,0.44845
28,60,-0.0872665,-0.698132,-0.174533,-0.174533,-0.0967124,-0.694997,-0.172951,-0.189438,1.88918,-0.175548,-0.0474599,0.447149
28,60,-0.0872665,-0.698132,-0.174533,-0.174533,-0.0967124,-0.694997,-0.172951,-0.189438,1.88918,-0.175548,-0.0474599,0.447149
28,60,-0.0872665,-0.698132,-0.174533,-0.174533,-0.0967124,-0.694997,-0.172951,-0.189438,1.88918,-0.175548,-0.0474599,0.447149
28,60,-0.0872665,-0.698132,-0.174533,-0.174533,-0.0967124,-0.694997,-0.172951,-0.189438,1.88918,-0.175548,-0.0474599,0.447149
28,60,-0.0872665,-0.698132,-0.174533,-0.174533,-0.0967124,-0.694997,-0.172951,-0.189438,1.88918,-0.175548,-0.0474599,0.447149
28,60,-0.0872665,-0.698132,-0.174533,-0.174533,-0.0967124,-0.694997,-0.172951,-0.189438,1.88918,-0.175548,-0.0474599,0.447149
28,60,-0.0872665,-0.698132,-0.174533,-0.174533,-0.0967124,-0.694997,-0.172951,-0.189438,1.88918,-0.175548,-0.0474599,0.447149
28,60,-0.0872665,-0.698132,-0.174533,-0.174533,-0.0967124,-0.694997,-0.172951,-0.189438,1.88918,-0.175548,-0.0474599,0.447149
28,60,-0.0872665,-0.698132,-0.174533,-0.174533,-0.0967124,-0.694997,-0.172951,-0.189438,1.88918,-0.175548,-0.0474599,0.447149
28,60,-0.0872665,-0.698132,-0.174533,-0.174533,-0.0967124,-0.694997,-0.172951,-0.189438,1.88918,-0.175548,-0.0474599,0.447149
28,60,-0.0872665,-0.698132,-0.174533,-0.174533,-0.0967124,-0.694997,-0.172951,-0.189438,1.88918,-0.175548,-0.0474599,0.447149
28,60,-0.0872665,-0.698132,-0.174533,-0.174533,-0.0967124,-0.694997,-0.172951,-0.189438,1.88918,-0.175548,-0.0474599,0.447149
28,60,-0.0872665,-0.698132,-0.174533,-0.174533,-0.0967124,-0.694997,-0.172951,-0.189438,1.88918,-0.175548,-0.0474599,0.447149
28,60,-0.0872665,-0.698132,-0.174533,-0.174533,-0.0967124,-0.694997,-0.172951,-0.189438,1.88918,-0.175548,-0.0474599,0.447149
28,60,-0.0872665,-0.698132,-0.174533,-0.174533,-0.0967124,-0.694997,-0.172951,-0.189438,1.88918,-0.175548,-0.0474599,0.447149
28,60,-0.0872665,-0.698132,-0.174533,-0.174533,-0.0967124,-0.694997,-0.172951,-0.189438,1.88918,-0.175548,-0.0474599,0.447149
28,60,-0.0872665,-0.698132,-0.174533,-0.174533,-0.0967124,-0.694997,-0.172951,-0.189438,1.88918,-0.175548,-0.0474599,0.447149
28,60,-0.0872665,-0.698132,-0.174533,-0.174533,-0.0967124,-0.694997,-0.172951,-0.189438,1.88918,-0.175548,-0.0474599,0.447149
28,60,-0.0872665,-0.698132,-0.174533,-0.174533,-0.0967124,-0.694997,-0.172951,-0.189438,1.88918,-0.175548,-0.0474599,0.447149
28,60,-0.0872665,-0.698132,-0.174533,-0.174533,-0.0967124,-0.694997,-0.172951,-0.189438,1.88918,-0.175548,-0.0474599,0.447149
28,60,-0.0872665,-0.698132,-0.174533,-0.174533,-0.0967124,-0.694997,-0.172951,-0.189438,1.88918,-0.175548,-0.0474599,0.447149
28,60,-0.0872665,-0.698132,-0.174533,-0.174533,-0.0967124,-0.694997,-0.172955,-0.189498,1.88918,-0.175548,-0.0473485,0.448949
28,60,-0.0872665,-0.698132,-0.174533,-0.174533,-0.0967124,-0.694997,-0.172955,-0.189498,1.88918,-0.175548,-0.0473485,0.448949
28,60,-0.0872665,-0.698132,-0.174533,-0.174533,-0.0967124,-0.694997,-0.172955,-0.189498,1.88918,-0.175548,-0.0473485,0.448949
28,60,-0.0872665,-0.698132,-0.174533,-0.174533,-0.0967124,-0.694997,-0.172955,-0.189498,1.88918,-0.175548,-0.0473485,0.448949
28,60,-0.0872665,-0.698132,-0.174533,-0.174533,-0.0967124,-0.694997,-0.172955,-0.189498,1.88918,-0.175548,-0.0473485,0.448949
28,60,-0.0872665,-0.698132,-0.174533,-0.174533,-0.0967124,-0.694997,-0.172955,-0.189498,1.88918,-0.175548,-0.0473485,0.448949
28,60,-0.0872665,-0.698132,-0.174533,-0.174533,-0.0967124,-0.694997,-0.172955,-0.189498,1.88918,-0.175548,-0.0473485,0.448949
28,60,-0.0872665,-0.698132,-0.174533,-0.174533,-0.0967124,-0.694997,-0.172955,-0.189498,1.88918,-0.175548,-0.0473485,0.448949
28,60,-0.0872665,-0.698132,-0.174533,-0.174533,-0.0967124,-0.694997,-0.172887,-0.189454,1.88918,-0.175548,-0.0493795,0.447649
28,60,-0.0872665,-0.698132,-0.174533,-0.174533,-0.0967124,-0.694997,-0.172887,-0.189454,1.88918,-0.175548,-0.0493795,0.447649
28,60,-0.0872665,-0.698132,-0.174533,-0.174533,-0.0967124,-0.694997,-0.172887,-0.189454,1.88918,-0.175548,-0.0493795,0.447649
28,60,-0.0872665,-0.698132,-0.174533,-0.174533,-0.0967124,-0.694997,-0.172887,-0.189454,1.88918,-0.175548,-0.0493795,0.447649
28,60,-0.0872665,-0.698132,-0.174533,-0.174533,-0.0967124,-0.694997,-0.172887,-0.189454,1.88918,-0.175548,-0.0493795,0.447649
28,60,-0.0872665,-0.698132,-0.174533,-0.174533,-0.0967124,-0.694997,-0.172887,-0.189454,1.88918,-0.175548,-0.0493795,0.447649
28,60,-0.0872665,-0.698132,-0.174533,-0.174533,-0.0967124,-0.694997,-0.172887,-0.189454,1.88918,-0.175548,-0.0493795,0.447649
28,60,-0.0872665,-0.698132,-0.174533,-0.174533,-0.0967124,-0.694997,-0.172887,-0.189454,1.88918,-0.175548,-0.0493795,0.447649
28,60,-0.0872665,-0.698132,-0.174533,-0.174533,-0.0967124,-0.694997,-0.172887,-0.189454,1.88918,-0.175548,-0.0493795,0.447649
28,60,-0.0872665,-0.698132,-0.174533,-0.174533,-0.0967124,-0.694997,-0.172887,-0.189454,1.88918,-0.175548,-0.0493795,0.447649
28,60,-0.0872665,-0.698132,-0.174533,-0.174533,-0.0967124,-0.694997,-0.172887,-0.189454,1.88918,-0.175548,-0.0493795,0.447649
28,60,-0.0872665,-0.698132,-0.174533,-0.174533,-0.0967124,-0.694997,-0.172887,-0.189454,1.88918,-0.175548,-0.0493795,0.447649
28,60,-0.0872665,-0.698132,-0.174533,-0.174533,-0.0967124,-0.694997,-0.172887,-0.189454,1.88918,-0.175548,-0.0493795,0.447649
28,60,-0.0872665,-0.698132,-0.174533,-0.174533,-0.0967124,-0.694997,-0.172887,-0.189454,1.88918,-0.175548,-0.0493795,0.447649
28,60,-0.0872665,-0.698132,-0.174533,-0.174533,-0.0967124,-0.694997,-0.172887,-0.189454,1.88918,-0.175548,-0.0493795,0.447649
28,60,-0.0872665,-0.698132,-0.174533,-0.174533,-0.0967124,-0.694997,-0.172887,-0.189454,1.88918,-0.175548,-0.0493795,0.447649
28,60,-0.0872665,-0.698132,-0.174533,-0.174533,-0.0967124,-0.694997,-0.172887,-0.189454,1.88918,-0.175548,-0.0493795,0.447649
28,60,-0.0872665,-0.698132,-0.174533,-0.174533,-0.0967124,-0.694997,-0.172887,-0.189454,1.88918,-0.175548,-0.0493795,0.447649
28,60,-0.0872665,-0.698132,-0.174533,-0.174533,-0.0967124,-0.694997,-0.172887,-0.189454,1.88918,-0.175548,-0.0493795,0.447649
28,60,-0.0872665,-0.698132,-0.174533,-0.174533,-0.0967124,-0.694997,-0.172887,-0.189454,1.88918,-0.175548,-0.0493795,0.447649
28,60,-0.0872665,-0.698132,-0.174533,-0.174533,-0.0967124,-0.694997,-0.172887,-0.189454,1.88918,-0.175548,-0.0493795,0.447649
28,60,-0.0872665,-0.698132,-0.174533,-0.174533,-0.0967124,-0.694997,-0.172887,-0.189454,1.88918,-0.175548,-0.0493795,0.447649
28,60,-0.0872665,-0.698132,-0.174533,-0.174533,-0.0967124,-0.694997,-0.172887,-0.189454,1.88918,-0.175548,-0.0493795,0.447649
28,60,-0.0872665,-0.698132,-0.174533,-0.174533,-0.0967124,-0.694997,-0.172887,-0.189454,1.88918,-0.175548,-0.0493795,0.447649
28,60,-0.0872665,-0.698132,-0.174533,-0.174533,-0.0967124,-0.694997,-0.172887,-0.189454,1.88918,-0.175548,-0.0493795,0.447649
28,60,-0.0872665,-0.698132,-0.174533,-0.174533,-0.0967124,-0.694997,-0.172887,-0.189454,1.88918,-0.175548,-0.0493795,0.447649
28,60,-0.0872665,-0.698132,-0.174533,-0.174533,-0.0967124,-0.694997,-0.172887,-0.189454,1.88918,-0.175548,-0.0493795,0.447649
28,60,-0.0872665,-0.698132,-0.174533,-0.174533,-0.0967124,-0.694997,-0.172887,-0.189454,1.88918,-0.175548,-0.0493795,0.447649
28,60,-0.0872665,-0.698132,-0.174533,-0.174533,-0.0967124,-0.694997,-0.172887,-0.189454,1.88918,-0.175548,-0.0493795,0.447649
28,60,-0.0872665,-0.698132,-0.174533,-0.174533,-0.0967124,-0.694997,-0.172887,-0.189454,1.88918,-0.175548,-0.0493795,0.447649
28,60,-0.0872665,-0.698132,-0.174533,-0.174533,-0.0967124,-0.694997,-0.172887,-0.189454,1.88918,-0.175548,-0.0493795,0.447649
28,60,-0.0872665,-0.698132,-0.174533,-0.174533,-0.0967124,-0.694997,-0.172887,-0.189454,1.88918,-0.175548,-0.0493795,0.447649
28,60,-0.0872665,-0.698132,-0.174533,-0.174533,-0.0967124,-0.694997,-0.172887,-0.189454,1.88918,-0.175548,-0.0493795,0.447649
28,60,-0.0872665,-0.698132,-0.174533,-0.174533,-0.0967124,-0.694997,-0.172887,-0.189454,1.88918,-0.175548,-0.0493795,0.447649
28,60,-0.0872665,-0.698132,-0.174533,-0.174533,-0.0967124,-0.694997,-0.172887,-0.189454,1.88918,-0.175548,-0.0493795,0.447649
28,60,-0.0872665,-0.698132,-0.174533,-0.174533,-0.0967124,-0.694997,-0.172887,-0.189454,1.88918,-0.175548,-0.0493795,0.447649
28,60,-0.0872665,-0.698132,-0.174533,-0.174533,-0.0967124,-0.694997,-0.172887,-0.189454,1.88918,-0.175548,-0.0493795,0.447649
28,60,-0.0872665,-0.698132,-0.174533,-0.174533,-0.0967124,-0.694997,-0.172887,-0.189454,1.88918,-0.175548,-0.0493795,0.447649
28,60,-0.0872665,-0.698132,-0.174533,-0.174533,-0.0967124,-0.694997,-0.172887,-0.189454,1.88918,-0.175548,-0.0493795,0.447649
28,60,-0.0872665,-0.698132,-0.174533,-0.174533,-0.0967124,-0.694997,-0.172887,-0.189454,1.88918,-0.175548,-0.0493795,0.447649
28,60,-0.0872665,-0.698132,-0.174533,-0.174533,-0.0967124,-0.694997,-0.172887,-0.189454,1.88918,-0.175548,-0.0493795,0.447649
28,60,-0.0872665,-0.698132,-0.174533,-0.174533,-0.0967124,-0.694997,-0.172948,-0.189436,1.88918,-0.175548,-0.0475526,0.44709
28,60,-0.0872665,-0.698132,-0.174533,-0.174533,-0.0967124,-0.694997,-0.172948,-0.189436,1.88918,-0.175548,-0.0475526,0.44709
28,60,-0.0872665,-0.698132,-0.174533,-0.174533,-0.0967124,-0.694997,-0.172948,-0.189436,1.88918,-0.175548,-0.0475526,0.44709
28,60,-0.0872665,-0.698132,-0.174533,-0.174533,-0.0967124,-0.694997,-0.172948,-0.189436,1.88918,-0.175548,-0.0475526,0.44709
28,60,-0.0872665,-0.698132,-0.174533,-0.174533,-0.0967124,-0.694997,-0.172948,-0.189436,1.88918,-0.175548,-0.0475526,0.44709
28,60,-0.0872665,-0.698132,-0.174533,-0.174533,-0.0967124,-0.694997,-0.172948,-0.189436,1.88918,-0.175548,-0.0475526,0.44709
28,60,-0.0872665,-0.698132,-0.174533,-0.174533,-0.0967124,-0.694997,-0.17288,-0.189392,1.88918,-0.175548,-0.0495999,0.44578
28,60,-0.0872665,-0.698132,-0.174533,-0.174533,-0.0967124,-0.694997,-0.17288,-0.189392,1.88918,-0.175548,-0.0495999,0.44578
28,60,-0.0872665,-0.698132,-0.174533,-0.174533,-0.0967124,-0.694997,-0.17288,-0.189392,1.88918,-0.175548,-0.0495999,0.44578
28,60,-0.0872665,-0.698132,-0.174533,-0.174533,-0.0967124,-0.694997,-0.17288,-0.189392,1.88918,-0.175548,-0.0495999,0.44578
28,60,-0.0872665,-0.698132,-0.174533,-0.174533,-0.0967124,-0.694997,-0.17288,-0.189392,1.88918,-0.175548,-0.0495999,0.44578
28,60,-0.0872665,-0.698132,-0.174533,-0.174533,-0.0967124,-0.694997,-0.17288,-0.189392,1.88918,-0.175548,-0.0495999,0.44578
28,60,-0.0872665,-0.698132,-0.174533,-0.174533,-0.0967124,-0.694997,-0.17288,-0.189392,1.88918,-0.175548,-0.0495999,0.44578
28,60,-0.0872665,-0.698132,-0.174533,-0.174533,-0.0967124,-0.694997,-0.17288,-0.189392,1.88918,-0.175548,-0.0495999,0.44578
28,60,-0.0872665,-0.698132,-0.174533,-0.174533,-0.0967124,-0.694997,-0.17288,-0.189392,1.88918,-0.175548,-0.0495999,0.44578
28,60,-0.0872665,-0.698132,-0.174533,-0.174533,-0.0967124,-0.694997,-0.17288,-0.189392,1.88918,-0.175548,-0.0495999,0.44578
28,60,-0.0872665,-0.698132,-0.174533,-0.174533,-0.0967124,-0.694997,-0.172883,-0.189452,1.88918,-0.175548,-0.0494887,0.447581
28,60,-0.0872665,-0.698132,-0.174533,-0.174533,-0.0967124,-0.694997,-0.172883,-0.189452,1.88918,-0.175548,-0.0494887,0.447581
28,60,-0.0872665,-0.698132,-0.174533,-0.174533,-0.0967124,-0.694997,-0.172883,-0.189452,1.88918,-0.175548,-0.0494887,0.447581
28,60,-0.0872665,-0.698132,-0.174533,-0.174533,-0.0967124,-0.694997,-0.172883,-0.189452,1.88918,-0.175548,-0.0494887,0.447581
28,60,-0.0872665,-0.698132,-0.174533,-0.174533,-0.0967124,-0.694997,-0.172883,-0.189452,1.88918,-0.175548,-0.0494887,0.447581
28,60,-0.0872665,-0.698132,-0.174533,-0.174533,-0.0967124,-0.694997,-0.172883,-0.189452,1.88918,-0.175548,-0.0494887,0.447581
28,60,-0.0872665,-0.698132,-0.174533,-0.174533,-0.0967124,-0.694997,-0.172883,-0.189452,1.88918,-0.175548,-0.0494887,0.447581
28,60,-0.0872665,-0.698132,-0.174533,-0.174533,-0.0967124,-0.694997,-0.172883,-0.189452,1.88918,-0.175548,-0.0494887,0.447581
28,60,-0.0872665,-0.698132,-0.174533,-0.174533,-0.0967124,-0.694997,-0.172883,-0.189452,1.88918,-0.175548,-0.0494887,0.447581
28,60,-0.0872665,-0.698132,-0.174533,-0.174533,-0.0967124,-0.694997,-0.172883,-0.189452,1.88918,-0.175548,-0.0494887,0.447581
28,60,-0.0872665,-0.698132,-0.174533,-0.174533,-0.0967124,-0.694997,-0.172883,-0.189452,1.88918,-0.175548,-0.0494887,0.447581
28,60,-0.0872665,-0.698132,-0.174533,-0.174533,-0.0967124,-0.694997,-0.172883,-0.189452,1.88918,-0.175548,-0.0494887,0.447581
28,60,-0.0872665,-0.698132,-0.174533,-0.174533,-0.0967124,-0.694997,-0.172883,-0.189452,1.88918,-0.175548,-0.0494887,0.447581
28,60,-0.0872665,-0.698132,-0.174533,-0.174533,-0.0967124,-0.694997,-0.172883,-0.189452,1.88918,-0.175548,-0.0494887,0.447581
28,60,-0.0872665,-0.698132,-0.174533,-0.174533,-0.0967124,-0.694997,-0.172883,-0.189452,1.88918,-0.175548,-0.0494887,0.447581
28,60,-0.0872665,-0.698132,-0.174533,-0.174533,-0.0967124,-0.694997,-0.172883,-0.189452,1.88918,-0.175548,-0.0494887,0.447581
28,60,-0.0872665,-0.698132,-0.174533,-0.174533,-0.0967124,-0.694997,-0.172883,-0.189452,1.88918,-0.175548,-0.0494887,0.447581
28,60,-0.0872665,-0.698132,-0.174533,-0.174533,-0.0967124,-0.694997,-0.172883,-0.189452,1.88918,-0.175548,-0.0494887,0.447581
28,60,-0.0872665,-0.698132,-0.174533,-0.174533,-0.0967124,-0.694997,-0.172883,-0.189452,1.88918,-0.175548,-0.0494887,0.447581
28,60,-0.0872665,-0.698132,-0.174533,-0.174533,-0.0967124,-0.694997,-0.172883,-0.189452,1.88918,-0.175548,-0.0494887,0.447581
28,60,-0.0872665,-0.698132,-0.174533,-0.174533,-0.0967124,-0.694997,-0.172883,-0.189452,1.88918,-0.175548,-0.0494887,0.447581
28,60,-0.0872665,-0.698132,-0.174533,-0.174533,-0.0967124,-0.694997,-0.172883,-0.189452,1.88918,-0.175548,-0.0494887,0.447581
28,60,-0.0872665,-0.698132,-0.174533,-0.174533,-0.0967124,-0.694997,-0.172883,-0.189452,1.88918,-0.175548,-0.0494887,0.447581
28,60,-0.0872665,-0.698132,-0.174533,-0.174533,-0.0967124,-0.694997,-0.172883,-0.189452,1.88918,-0.175548,-0.0494887,0.447581
28,60,-0.0872665,-0.698132,-0.174533,-0.174533,-0.0967124,-0.694997,-0.172883,-0.189452,1.88918,-0.175548,-0.0494887,0.447581
28,60,-0.0872665,-0.698132,-0.174533,-0.174533,-0.0967124,-0.694997,-0.172815,-0.189408,1.88918,-0.175548,-0.0515372,0.44627
28,60,-0.0872665,-0.698132,-0.174533,-0.174533,-0.0967124,-0.694997,-0.172815,-0.189408,1.88918,-0.175548,-0.0515372,0.44627
28,60,-0.0872665,-0.698132,-0.174533,-0.174533,-0.0967124,-0.694997,-0.172815,-0.189408,1.88918,-0.175548,-0.0515372,0.44627
28,60,-0.0872665,-0.698132,-0.174533,-0.174533,-0.0967124,-0.694997,-0.172815,-0.189408,1.88918,-0.175548,-0.0515372,0.44627
28,60,-0.0872665,-0.698132,-0.174533,-0.174533,-0.0967124,-0.694997,-0.172815,-0.189408,1.88918,-0.175548,-0.0515372,0.44627
28,60,-0.0872665,-0.698132,-0.174533,-0.174533,-0.0967124,-0.694997,-0.172815,-0.189408,1.88918,-0.175548,-0.0515372,0.44627
28,60,-0.0872665,-0.698132,-0.174533,-0.174533,-0.0967124,-0.694997,-0.172815,-0.189408,1.88918,-0.175548,-0.0515372,0.44627
28,60,-0.0872665,-0.698132,-0.174533,-0.174533,-0.0967124,-0.694997,-0.172815,-0.189408,1.88918,-0.175548,-0.0515372,0.44627
28,60,-0.0872665,-0.698132,-0.174533,-0.174533,-0.0967124,-0.694997,-0.172815,-0.189408,1.88918,-0.175548,-0.0515372,0.44627
28,60,-0.0872665,-0.698132,-0.174533,-0.174533,-0.0967124,-0.694997,-0.172815,-0.189408,1.88918,-0.175548,-0.0515372,0.44627
28,60,-0.0872665,-0.698132,-0.174533,-0.174533,-0.0967124,-0.694997,-0.172815,-0.189408,1.88918,-0.175548,-0.0515372,0.44627
28,60,-0.0872665,-0.698132,-0.174533,-0.174533,-0.0967124,-0.694997,-0.172815,-0.189408,1.88918,-0.175548,-0.0515372,0.44627
28,60,-0.0872665,-0.698132,-0.174533,-0.174533,-0.0967124,-0.694997,-0.172815,-0.189408,1.88918,-0.175548,-0.0515372,0.44627
28,60,-0.0872665,-0.698132,-0.174533,-0.174533,-0.0967124,-0.694997,-0.172815,-0.189408,1.88918,-0.175548,-0.0515372,0.44627
28,60,-0.0872665,-0.698132,-0.174533,-0.174533,-0.0967124,-0.694997,-0.172815,-0.189408,1.88918,-0.175548,-0.0515372,0.44627
28,60,-0.0872665,-0.698132,-0.174533,-0.174533,-0.0967124,-0.694997,-0.172815,-0.189408,1.88918,-0.175548,-0.0515372,0.44627
28,60,-0.0872665,-0.698132,-0.174533,-0.174533,-0.0967124,-0.694997,-0.172815,-0.189408,1.88918,-0.175548,-0.0515372,0.44627
28,60,-0.0872665,-0.698132,-0.174533,-0.174533,-0.0967124,-0.694997,-0.172815,-0.189408,1.88918,-0.175548,-0.0515372,0.44627
28,60,-0.0872665,-0.698132,-0.174533,-0.174533,-0.0967124,-0.694997,-0.172815,-0.189408,1.88918,-0.175548,-0.0515372,0.44627
28,60,-0.0872665,-0.698132,-0.174533,-0.174533,-0.0967124,-0.694997,-0.172815,-0.189408,1.88918,-0.175548,-0.0515372,0.44627
28,60,-0.0872665,-0.698132,-0.174533,-0.174533,-0.0967124,-0.694997,-0.172815,-0.189408,1.88918,-0.175548,-0.0515372,0.44627
28,60,-0.0872665,-0.698132,-0.174533,-0.174533,-0.0967124,-0.694997,-0.172815,-0.189408,1.88918,-0.175548,-0.0515372,0.44627
28,60,-0.0872665,-0.698132,-0.174533,-0.174533,-0.0967124,-0.694997,-0.172815,-0.189408,1.88918,-0.175548,-0.0515372,0.44627
28,60,-0.0872665,-0.698132,-0.174533,-0.174533,-0.0967124,-0.694997,-0.172815,-0.189408,1.88918,-0.175548,-0.0515372,0.44627
28,60,-0.0872665,-0.698132,-0.174533,-0.174533,-0.0967124,-0.694997,-0.172815,-0.189408,1.88918,-0.175548,-0.0515372,0.44627
28,60,-0.0872665,-0.698132,-0.174533,-0.174533,-0.0967124,-0.694997,-0.172747,-0.189365,1.88918,-0.175548,-0.0535867,0.444958
28,60,-0.0872665,-0.698132,-0.174533,-0.174533,-0.0967124,-0.694997,-0.172747,-0.189365,1.88918,-0.175548,-0.0535867,0.444958
28,60,-0.0872665,-0.698132,-0.174533,-0.174533,-0.0967124,-0.694997,-0.172747,-0.189365,1.88918,-0.175548,-0.0535867,0.444958
28,60,-0.0872665,-0.698132,-0.174533,-0.174533,-0.0967124,-0.694997,-0.172747,-0.189365,1.88918,-0.175548,-0.0535867,0.444958
28,60,-0.0872665,-0.698132,-0.174533,-0.174533,-0.0967124,-0.694997,-0.172747,-0.189365,1.88918,-0.175548,-0.0535867,0.444958
28,60,-0.0872665,-0.698132,-0.174533,-0.174533,-0.0967124,-0.694997,-0.172747,-0.189365,1.88918,-0.175548,-0.0535867,0.444958
28,60,-0.0872665,-0.698132,-0.174533,-0.174533,-0.0967124,-0.694997,-0.172747,-0.189365,1.88918,-0.175548,-0.0535867,0.444958
28,60,-0.0872665,-0.698132,-0.174533,-0.174533,-0.0967124,-0.694997,-0.172747,-0.189365,1.88918,-0.175548,-0.0535867,0.444958
28,60,-0.0872665,-0.698132,-0.174533,-0.174533,-0.0967124,-0.694997,-0.172747,-0.189365,1.88918,-0.175548,-0.0535867,0.444958
28,60,-0.0872665,-0.698132,-0.174533,-0.174533,-0.0967124,-0.694997,-0.172747,-0.189365,1.88918,-0.175548,-0.0535867,0.444958
28,60,-0.0872665,-0.698132,-0.174533,-0.174533,-0.0967124,-0.694997,-0.172747,-0.189365,1.88918,-0.175548,-0.0535867,0.444958
28,60,-0.0872665,-0.698132,-0.174533,-0.174533,-0.0967124,-0.694997,-0.172747,-0.189365,1.88918,-0.175548,-0.0535867,0.444958
28,60,-0.0872665,-0.698132,-0.174533,-0.174533,-0.0967124,-0.694997,-0.172747,-0.189365,1.88918,-0.175548,-0.0535867,0.444958
28,60,-0.0872665,-0.698132,-0.174533,-0.174533,-0.0967124,-0.694997,-0.172747,-0.189365,1.88918,-0.175548,-0.0535867,0.444958
28,60,-0.0872665,-0.698132,-0.174533,-0.174533,-0.0967124,-0.694997,-0.172747,-0.189365,1.88918,-0.175548,-0.0535867,0.444958
28,60,-0.0872665,-0.698132,-0.174533,-0.174533,-0.0967124,-0.694997,-0.172751,-0.189425,1.88918,-0.175548,-0.053476,0.446753
28,60,-0.0872665,-0.698132,-0.174533,-0.174533,-0.0967124,-0.694997,-0.172751,-0.189425,1.88918,-0.175548,-0.053476,0.446753
28,60,-0.0872665,-0.698132,-0.174533,-0.174533,-0.0967124,-0.694997,-0.172751,-0.189425,1.88918,-0.175548,-0.053476,0.446753
28,60,-0.0872665,-0.698132,-0.174533,-0.174533,-0.0967124,-0.694997,-0.172751,-0.189425,1.88918,-0.175548,-0.053476,0.446753
28,60,-0.0872665,-0.698132,-0.174533,-0.174533,-0.0967124,-0.694997,-0.172751,-0.189425,1.88918,-0.175548,-0.053476,0.446753
28,60,-0.0872665,-0.698132,-0.174533,-0.174533,-0.0967124,-0.694997,-0.172751,-0.189425,1.88918,-0.175548,-0.053476,0.446753
28,60,-0.0872665,-0.698132,-0.174533,-0.174533,-0.0967124,-0.694997,-0.172751,-0.189425,1.88918,-0.175548,-0.053476,0.446753
28,60,-0.0872665,-0.698132,-0.174533,-0.174533,-0.0967124,-0.694997,-0.172751,-0.189425,1.88918,-0.175548,-0.053476,0.446753
28,60,-0.0872665,-0.698132,-0.174533,-0.174533,-0.0967124,-0.694997,-0.172751,-0.189425,1.88918,-0.175548,-0.053476,0.446753
28,60,-0.0872665,-0.698132,-0.174533,-0.174533,-0.0967124,-0.694997,-0.172751,-0.189425,1.88918,-0.175548,-0.053476,0.446753
28,60,-0.0872665,-0.698132,-0.174533,-0.174533,-0.0967124,-0.694997,-0.172751,-0.189425,1.88918,-0.175548,-0.053476,0.446753
28,60,-0.0872665,-0.698132,-0.174533,-0.174533,-0.0967124,-0.694997,-0.172751,-0.189425,1.88918,-0.175548,-0.053476,0.446753
28,60,-0.0872665,-0.698132,-0.174533,-0.174533,-0.0967124,-0.694997,-0.172751,-0.189425,1.88918,-0.175548,-0.053476,0.446753
28,60,-0.0872665,-0.698132,-0.174533,-0.174533,-0.0967124,-0.694997,-0.172751,-0.189425,1.88918,-0.175548,-0.053476,0.446753
28,60,-0.0872665,-0.698132,-0.174533,-0.174533,-0.0967124,-0.694997,-0.172812,-0.189406,1.88918,-0.175548,-0.0516417,0.446191
28,60,-0.0872665,-0.698132,-0.174533,-0.174533,-0.0967124,-0.694997,-0.172812,-0.189406,1.88918,-0.175548,-0.0516417,0.446191
28,60,-0.0872665,-0.698132,-0.174533,-0.174533,-0.0967124,-0.694997,-0.172812,-0.189406,1.88918,-0.175548,-0.0516417,0.446191
28,60,-0.0872665,-0.698132,-0.174533,-0.174533,-0.0967124,-0.694997,-0.172812,-0.189406,1.88918,-0.175548,-0.0516417,0.446191
28,60,-0.0872665,-0.698132,-0.174533,-0.174533,-0.0967124,-0.694997,-0.172812,-0.189406,1.88918,-0.175548,-0.0516417,0.446191
28,60,-0.0872665,-0.698132,-0.174533,-0.174533,-0.0967124,-0.694997,-0.172812,-0.189406,1.88918,-0.175548,-0.0516417,0.446191
28,60,-0.0872665,-0.698132,-0.174533,-0.174533,-0.0967124,-0.694997,-0.172812,-0.189406,1.88918,-0.175548,-0.0516417,0.446191
28,60,-0.0872665,-0.698132,-0.174533,-0.174533,-0.0967124,-0.694997,-0.172812,-0.189406,1.88918,-0.175548,-0.0516417,0.446191
28,60,-0.0872665,-0.698132,-0.174533,-0.174533,-0.0967124,-0.694997,-0.172812,-0.189406,1.88918,-0.175548,-0.0516417,0.446191
28,60,-0.0872665,-0.698132,-0.174533,-0.174533,-0.0967124,-0.694997,-0.172812,-0.189406,1.88918,-0.175548,-0.0516417,0.446191
28,60,-0.0872665,-0.698132,-0.174533,-0.174533,-0.0967124,-0.694997,-0.172812,-0.189406,1.88918,-0.175548,-0.0516417,0.446191
28,60,-0.0872665,-0.698132,-0.174533,-0.174533,-0.0967124,-0.694997,-0.172812,-0.189406,1.88918,-0.175548,-0.0516417,0.446191
28,60,-0.0872665,-0.698132,-0.174533,-0.174533,-0.0967124,-0.694997,-0.172812,-0.189406,1.88918,-0.175548,-0.0516417,0.446191
28,60,-0.0872665,-0.698132,-0.174533,-0.174533,-0.0967124,-0.694997,-0.172812,-0.189406,1.88918,-0.175548,-0.0516417,0.446191
28,60,-0.0872665,-0.698132,-0.174533,-0.174533,-0.0967124,-0.694997,-0.172812,-0.189406,1.88918,-0.175548,-0.0516417,0.446191
28,60,-0.0872665,-0.698132,-0.174533,-0.174533,-0.0967124,-0.694997,-0.172812,-0.189406,1.88918,-0.175548,-0.0516417,0.446191
28,60,-0.0872665,-0.698132,-0.174533,-0.174533,-0.0967124,-0.694997,-0.172812,-0.189406,1.88918,-0.175548,-0.0516417,0.446191
28,60,-0.0872665,-0.698132,-0.174533,-0.174533,-0.0967124,-0.694997,-0.172812,-0.189406,1.88918,-0.175548,-0.0516417,0.446191
28,60,-0.0872665,-0.698132,-0.174533,-0.174533,-0.0967124,-0.694997,-0.172812,-0.189406,1.88918,-0.175548,-0.0516417,0.446191
28,60,-0.0872665,-0.698132,-0.174533,-0.174533,-0.0967124,-0.694997,-0.172812,-0.189406,1.88918,-0.175548,-0.0516417,0.446191
28,60,-0.0872665,-0.698132,-0.174533,-0.174533,-0.0967124,-0.694997,-0.172812,-0.189406,1.88918,-0.175548,-0.0516417,0.446191
28,60,-0.0872665,-0.698132,-0.174533,-0.174533,-0.0967124,-0.694997,-0.172812,-0.189406,1.88918,-0.175548,-0.0516417,0.446191
28,60,-0.0872665,-0.698132,-0.174533,-0.174533,-0.0967124,-0.694997,-0.172812,-0.189406,1.88918,-0.175548,-0.0516417,0.446191
28,60,-0.0872665,-0.698132,-0.174533,-0.174533,-0.0967124,-0.694997,-0.172812,-0.189406,1.88918,-0.175548,-0.0516417,0.446191
28,60,-0.0872665,-0.698132,-0.174533,-0.174533,-0.0967124,-0.694997,-0.172812,-0.189406,1.88918,-0.175548,-0.0516417,0.446191
28,60,-0.0872665,-0.698132,-0.174533,-0.174533,-0.0967124,-0.694997,-0.172812,-0.189406,1.88918,-0.175548,-0.0516417,0.446191
28,60,-0.0872665,-0.698132,-0.174533,-0.174533,-0.0967124,-0.694997,-0.172812,-0.189406,1.88918,-0.175548,-0.0516417,0.446191
28,60,-0.0872665,-0.698132,-0.174533,-0.174533,-0.0967124,-0.694997,-0.172812,-0.189406,1.88918,-0.175548,-0.0516417,0.446191
28,60,-0.0872665,-0.698132,-0.174533,-0.174533,-0.0967124,-0.694997,-0.172812,-0.189406,1.88918,-0.175548,-0.0516417,0.446191
28,60,-0.0872665,-0.698132,-0.174533,-0.174533,-0.0967124,-0.694997,-0.172812,-0.189406,1.88918,-0.175548,-0.0516417,0.446191
28,60,-0.0872665,-0.698132,-0.174533,-0.174533,-0.0967124,-0.694997,-0.172812,-0.189406,1.88918,-0.175548,-0.0516417,0.446191
28,60,-0.0872665,-0.698132,-0.174533,-0.174533,-0.0967124,-0.694997,-0.172812,-0.189406,1.88918,-0.175548,-0.0516417,0.446191
28,60,-0.0872665,-0.698132,-0.174533,-0.174533,-0.0967124,-0.694997,-0.172812,-0.189406,1.88918,-0.175548,-0.0516417,0.446191
28,60,-0.0872665,-0.698132,-0.174533,-0.174533,-0.0967124,-0.694997,-0.172812,-0.189406,1.88918,-0.175548,-0.0516417,0.446191
28,60,-0.0872665,-0.698132,-0.174533,-0.174533,-0.0967124,-0.694997,-0.172812,-0.189406,1.88918,-0.175548,-0.0516417,0.446191
28,60,-0.0872665,-0.698132,-0.174533,-0.174533,-0.0967124,-0.694997,-0.172812,-0.189406,1.88918,-0.175548,-0.0516417,0.446191
28,60,-0.0872665,-0.698132,-0.174533,-0.174533,-0.0967124,-0.694997,-0.172812,-0.189406,1.88918,-0.175548,-0.0516417,0.446191
28,60,-0.0872665,-0.698132,-0.174533,-0.174533,-0.0967124,-0.694997,-0.172812,-0.189406,1.88918,-0.175548,-0.0516417,0.446191
28,60,-0.0872665,-0.698132,-0.174533,-0.174533,-0.0967124,-0.694997,-0.172812,-0.189406,1.88918,-0.175548,-0.0516417,0.446191
28,60,-0.0872665,-0.698132,-0.174533,-0.174533,-0.0967124,-0.694997,-0.172812,-0.189406,1.88918,-0.175548,-0.0516417,0.446191
28,60,-0.0872665,-0.698132,-0.174533,-0.174533,-0.0967124,-0.694997,-0.172812,-0.189406,1.88918,-0.175548,-0.0516417,0.446191
28,60,-0.0872665,-0.698132,-0.174533,-0.174533,-0.0967124,-0.694997,-0.172812,-0.189406,1.88918,-0.175548,-0.0516417,0.446191
28,60,-0.0872665,-0.698132,-0.174533,-0.174533,-0.0967124,-0.694997,-0.172815,-0.189466,1.88918,-0.175548,-0.0515308,0.447989
28,60,-0.0872665,-0.698132,-0.174533,-0.174533,-0.0967124,-0.694997,-0.172815,-0.189466,1.88918,-0.175548,-0.0515308,0.447989
28,60,-0.0872665,-0.698132,-0.174533,-0.174533,-0.0967124,-0.694997,-0.172815,-0.189466,1.88918,-0.175548,-0.0515308,0.447989
28,60,-0.0872665,-0.698132,-0.174533,-0.174533,-0.0967124,-0.694997,-0.172815,-0.189466,1.88918,-0.175548,-0.0515308,0.447989
28,60,-0.0872665,-0.698132,-0.174533,-0.174533,-0.0967124,-0.694997,-0.172815,-0.189466,1.88918,-0.175548,-0.0515308,0.447989
28,60,-0.0872665,-0.698132,-0.174533,-0.174533,-0.0967124,-0.694997,-0.172815,-0.189466,1.88918,-0.175548,-0.0515308,0.447989
28,60,-0.0872665,-0.698132,-0.174533,-0.174533,-0.0967124,-0.694997,-0.172877,-0.189447,1.88918,-0.175548,-0.0496983,0.447428
28,60,-0.0872665,-0.698132,-0.174533,-0.174533,-0.0967124,-0.694997,-0.172877,-0.189447,1.88918,-0.175548,-0.0496983,0.447428
28,60,-0.0872665,-0.698132,-0.174533,-0.174533,-0.0967124,-0.694997,-0.172808,-0.189403,1.88918,-0.175548,-0.0517581,0.44611
28,60,-0.0872665,-0.698132,-0.174533,-0.174533,-0.0967124,-0.694997,-0.172808,-0.189403,1.88918,-0.175548,-0.0517581,0.44611
28,60,-0.0872665,-0.698132,-0.174533,-0.174533,-0.0967124,-0.694997,-0.172808,-0.189403,1.88918,-0.175548,-0.0517581,0.44611
28,60,-0.0872665,-0.698132,-0.174533,-0.174533,-0.0967124,-0.694997,-0.172808,-0.189403,1.88918,-0.175548,-0.0517581,0.44611
28,60,-0.0872665,-0.698132,-0.174533,-0.174533,-0.0967124,-0.694997,-0.172808,-0.189403,1.88918,-0.175548,-0.0517581,0.44611
28,60,-0.0872665,-0.698132,-0.174533,-0.174533,-0.0967124,-0.694997,-0.172808,-0.189403,1.88918,-0.175548,-0.0517581,0.44611
28,60,-0.0872665,-0.698132,-0.174533,-0.174533,-0.0967124,-0.694997,-0.172808,-0.189403,1.88918,-0.175548,-0.0517581,0.44611
28,60,-0.0872665,-0.698132,-0.174533,-0.174533,-0.0967124,-0.694997,-0.172808,-0.189403,1.88918,-0.175548,-0.0517581,0.44611
28,60,-0.0872665,-0.698132,-0.174533,-0.174533,-0.0967124,-0.694997,-0.172808,-0.189403,1.88918,-0.175548,-0.0517581,0.44611
28,60,-0.0872665,-0.698132,-0.174533,-0.174533,-0.0967124,-0.694997,-0.172808,-0.189403,1.88918,-0.175548,-0.0517581,0.44611
28,60,-0.0872665,-0.698132,-0.174533,-0.174533,-0.0967124,-0.694997,-0.172808,-0.189403,1.88918,-0.175548,-0.0517581,0.44611
28,60,-0.0872665,-0.698132,-0.174533,-0.174533,-0.0967124,-0.694997,-0.172808,-0.189403,1.88918,-0.175548,-0.0517581,0.44611
28,60,-0.0872665,-0.698132,-0.174533,-0.174533,-0.0967124,-0.694997,-0.172808,-0.189403,1.88918,-0.175548,-0.0517581,0.44611
28,60,-0.0872665,-0.698132,-0.174533,-0.174533,-0.0967124,-0.694997,-0.172808,-0.189403,1.88918,-0.175548,-0.0517581,0.44611
28,60,-0.0872665,-0.698132,-0.174533,-0.174533,-0.0967124,-0.694997,-0.172808,-0.189403,1.88918,-0.175548,-0.0517581,0.44611
28,60,-0.0872665,-0.698132,-0.174533,-0.174533,-0.0967124,-0.694997,-0.172808,-0.189403,1.88918,-0.175548,-0.0517581,0.44611
28,60,-0.0872665,-0.698132,-0.174533,-0.174533,-0.0967124,-0.694997,-0.17287,-0.189385,1.88918,-0.175548,-0.0499215,0.445547
28,60,-0.0872665,-0.698132,-0.174533,-0.174533,-0.0967124,-0.694997,-0.17287,-0.189385,1.88918,-0.175548,-0.0499215,0.445547
28,60,-0.0872665,-0.698132,-0.174533,-0.174533,-0.0967124,-0.694997,-0.17287,-0.189385,1.88918,-0.175548,-0.0499215,0.445547
28,60,-0.0872665,-0.698132,-0.174533,-0.174533,-0.0967124,-0.694997,-0.17287,-0.189385,1.88918,-0.175548,-0.0499215,0.445547
28,60,-0.0872665,-0.698132,-0.174533,-0.174533,-0.0967124,-0.694997,-0.17287,-0.189385,1.88918,-0.175548,-0.0499215,0.445547
28,60,-0.0872665,-0.698132,-0.174533,-0.174533,-0.0967124,-0.694997,-0.17287,-0.189385,1.88918,-0.175548,-0.0499215,0.445547
28,60,-0.0872665,-0.698132,-0.174533,-0.174533,-0.0967124,-0.694997,-0.17287,-0.189385,1.88918,-0.175548,-0.0499215,0.445547
28,60,-0.0872665,-0.698132,-0.174533,-0.174533,-0.0967124,-0.694997,-0.17287,-0.189385,1.88918,-0.175548,-0.0499215,0.445547
28,60,-0.0872665,-0.698132,-0.174533,-0.174533,-0.0967124,-0.694997,-0.17287,-0.189385,1.88918,-0.175548,-0.0499215,0.445547
28,60,-0.0872665,-0.698132,-0.174533,-0.174533,-0.0967124,-0.694997,-0.17287,-0.189385,1.88918,-0.175548,-0.0499215,0.445547
28,60,-0.0872665,-0.698132,-0.174533,-0.174533,-0.0967124,-0.694997,-0.17287,-0.189385,1.88918,-0.175548,-0.0499215,0.445547
28,60,-0.0872665,-0.698132,-0.174533,-0.174533,-0.0967124,-0.694997,-0.17287,-0.189385,1.88918,-0.175548,-0.0499215,0.445547
28,60,-0.0872665,-0.698132,-0.174533,-0.174533,-0.0967124,-0.694997,-0.17287,-0.189385,1.88918,-0.175548,-0.0499215,0.445547
28,60,-0.0872665,-0.698132,-0.174533,-0.174533,-0.0967124,-0.694997,-0.17287,-0.189385,1.88918,-0.175548,-0.0499215,0.445547
28,60,-0.0872665,-0.698132,-0.174533,-0.174533,-0.0967124,-0.694997,-0.17287,-0.189385,1.88918,-0.175548,-0.0499215,0.445547
28,60,-0.0872665,-0.698132,-0.174533,-0.174533,-0.0967124,-0.694997,-0.17287,-0.189385,1.88918,-0.175548,-0.0499215,0.445547
28,60,-0.0872665,-0.698132,-0.174533,-0.174533,-0.0967124,-0.694997,-0.17287,-0.189385,1.88918,-0.175548,-0.0499215,0.445547
28,60,-0.0872665,-0.698132,-0.174533,-0.174533,-0.0967124,-0.694997,-0.17287,-0.189385,1.88918,-0.175548,-0.0499215,0.445547
28,60,-0.0872665,-0.698132,-0.174533,-0.174533,-0.0967124,-0.694997,-0.172873,-0.189445,1.88918,-0.175548,-0.0498103,0.447347
28,60,-0.0872665,-0.698132,-0.174533,-0.174533,-0.0967124,-0.694997,-0.172873,-0.189445,1.88918,-0.175548,-0.0498103,0.447347
28,60,-0.0872665,-0.698132,-0.174533,-0.174533,-0.0967124,-0.694997,-0.172873,-0.189445,1.88918,-0.175548,-0.0498103,0.447347
28,60,-0.0872665,-0.698132,-0.174533,-0.174533,-0.0967124,-0.694997,-0.172873,-0.189445,1.88918,-0.175548,-0.0498103,0.447347
28,60,-0.0872665,-0.698132,-0.174533,-0.174533,-0.0967124,-0.694997,-0.172873,-0.189445,1.88918,-0.175548,-0.0498103,0.447347
28,60,-0.0872665,-0.698132,-0.174533,-0.174533,-0.0967124,-0.694997,-0.172805,-0.189401,1.88918,-0.175548,-0.0518484,0.446043
28,60,-0.0872665,-0.698132,-0.174533,-0.174533,-0.0967124,-0.694997,-0.172805,-0.189401,1.88918,-0.175548,-0.0518484,0.446043
28,60,-0.0872665,-0.698132,-0.174533,-0.174533,-0.0967124,-0.694997,-0.172805,-0.189401,1.88918,-0.175548,-0.0518484,0.446043
28,60,-0.0872665,-0.698132,-0.174533,-0.174533,-0.0967124,-0.694997,-0.172805,-0.189401,1.88918,-0.175548,-0.0518484,0.446043
28,60,-0.0872665,-0.698132,-0.174533,-0.174533,-0.0967124,-0.694997,-0.172805,-0.189401,1.88918,-0.175548,-0.0518484,0.446043
28,60,-0.0872665,-0.698132,-0.174533,-0.174533,-0.0967124,-0.694997,-0.172805,-0.189401,1.88918,-0.175548,-0.0518484,0.446043
28,60,-0.0872665,-0.698132,-0.174533,-0.174533,-0.0967124,-0.694997,-0.172805,-0.189401,1.88918,-0.175548,-0.0518484,0.446043
28,60,-0.0872665,-0.698132,-0.174533,-0.174533,-0.0967124,-0.694997,-0.172866,-0.189382,1.88918,-0.175548,-0.0500071,0.445479
28,60,-0.0872665,-0.698132,-0.174533,-0.174533,-0.0967124,-0.694997,-0.172866,-0.189382,1.88918,-0.175548,-0.0500071,0.445479
28,60,-0.0872665,-0.698132,-0.174533,-0.174533,-0.0967124,-0.694997,-0.172866,-0.189382,1.88918,-0.175548,-0.0500071,0.445479
28,60,-0.0872665,-0.698132,-0.174533,-0.174533,-0.0967124,-0.694997,-0.172866,-0.189382,1.88918,-0.175548,-0.0500071,0.445479
28,60,-0.0872665,-0.698132,-0.174533,-0.174533,-0.0967124,-0.694997,-0.172866,-0.189382,1.88918,-0.175548,-0.0500071,0.445479
28,60,-0.0872665,-0.698132,-0.174533,-0.174533,-0.0967124,-0.694997,-0.172866,-0.189382,1.88918,-0.175548,-0.0500071,0.445479
28,60,-0.0872665,-0.698132,-0.174533,-0.174533,-0.0967124,-0.694997,-0.172866,-0.189382,1.88918,-0.175548,-0.0500071,0.445479
28,60,-0.0872665,-0.698132,-0.174533,-0.174533,-0.0967124,-0.694997,-0.172866,-0.189382,1.88918,-0.175548,-0.0500071,0.445479
28,60,-0.0872665,-0.698132,-0.174533,-0.174533,-0.0967124,-0.694997,-0.172866,-0.189382,1.88918,-0.175548,-0.0500071,0.445479
28,60,-0.0872665,-0.698132,-0.174533,-0.174533,-0.0967124,-0.694997,-0.172866,-0.189382,1.88918,-0.175548,-0.0500071,0.445479
28,60,-0.0872665,-0.698132,-0.174533,-0.174533,-0.0967124,-0.694997,-0.172866,-0.189382,1.88918,-0.175548,-0.0500071,0.445479
28,60,-0.0872665,-0.698132,-0.174533,-0.174533,-0.0967124,-0.694997,-0.172866,-0.189382,1.88918,-0.175548,-0.0500071,0.445479
28,60,-0.0872665,-0.698132,-0.174533,-0.174533,-0.0967124,-0.694997,-0.172866,-0.189382,1.88918,-0.175548,-0.0500071,0.445479
28,60,-0.0872665,-0.698132,-0.174533,-0.174533,-0.0967124,-0.694997,-0.172866,-0.189382,1.88918,-0.175548,-0.0500071,0.445479
28,60,-0.0872665,-0.698132,-0.174533,-0.174533,-0.0967124,-0.694997,-0.172866,-0.189382,1.88918,-0.175548,-0.0500071,0.445479
28,60,-0.0872665,-0.698132,-0.174533,-0.174533,-0.0967124,-0.694997,-0.172866,-0.189382,1.88918,-0.175548,-0.0500071,0.445479
28,60,-0.0872665,-0.698132,-0.174533,-0.174533,-0.0967124,-0.694997,-0.172866,-0.189382,1.88918,-0.175548,-0.0500071,0.445479
28,60,-0.0872665,-0.698132,-0.174533,-0.174533,-0.0967124,-0.694997,-0.172798,-0.189339,1.88918,-0.175548,-0.0520571,0.444167
28,60,-0.0872665,-0.698132,-0.174533,-0.174533,-0.0967124,-0.694997,-0.172798,-0.189339,1.88918,-0.175548,-0.0520571,0.444167
28,60,-0.0872665,-0.698132,-0.174533,-0.174533,-0.0967124,-0.694997,-0.172798,-0.189339,1.88918,-0.175548,-0.0520571,0.444167
28,60,-0.0872665,-0.698132,-0.174533,-0.174533,-0.0967124,-0.694997,-0.172798,-0.189339,1.88918,-0.175548,-0.0520571,0.444167
28,60,-0.0872665,-0.698132,-0.174533,-0.174533,-0.0967124,-0.694997,-0.172798,-0.189339,1.88918,-0.175548,-0.0520571,0.444167
28,60,-0.0872665,-0.698132,-0.174533,-0.174533,-0.0967124,-0.694997,-0.172798,-0.189339,1.88918,-0.175548,-0.0520571,0.444167
28,60,-0.0872665,-0.698132,-0.174533,-0.174533,-0.0967124,-0.694997,-0.172798,-0.189339,1.88918,-0.175548,-0.0520571,0.444167
28,60,-0.0872665,-0.698132,-0.174533,-0.174533,-0.0967124,-0.694997,-0.172798,-0.189339,1.88918,-0.175548,-0.0520571,0.444167
28,60,-0.0872665,-0.698132,-0.174533,-0.174533,-0.0967124,-0.694997,-0.172798,-0.189339,1.88918,-0.175548,-0.0520571,0.444167
28,60,-0.0872665,-0.698132,-0.174533,-0.174533,-0.0967124,-0.694997,-0.172798,-0.189339,1.88918,-0.175548,-0.0520571,0.444167
28,60,-0.0872665,-0.698132,-0.174533,-0.174533,-0.0967124,-0.694997,-0.172798,-0.189339,1.88918,-0.175548,-0.0520571,0.444167
28,60,-0.0872665,-0.698132,-0.174533,-0.174533,-0.0967124,-0.694997,-0.172798,-0.189339,1.88918,-0.175548,-0.0520571,0.444167
28,60,-0.0872665,-0.698132,-0.174533,-0.174533,-0.0967124,-0.694997,-0.172798,-0.189339,1.88918,-0.175548,-0.0520571,0.444167
28,60,-0.0872665,-0.698132,-0.174533,-0.174533,-0.0967124,-0.694997,-0.172798,-0.189339,1.88918,-0.175548,-0.0520571,0.444167
28,60,-0.0872665,-0.698132,-0.174533,-0.174533,-0.0967124,-0.694997,-0.172798,-0.189339,1.88918,-0.175548,-0.0520571,0.444167
28,60,-0.0872665,-0.698132,-0.174533,-0.174533,-0.0967124,-0.694997,-0.172798,-0.189339,1.88918,-0.175548,-0.0520571,0.444167
28,60,-0.0872665,-0.698132,-0.174533,-0.174533,-0.0967124,-0.694997,-0.172798,-0.189339,1.88918,-0.175548,-0.0520571,0.444167
28,60,-0.0872665,-0.698132,-0.174533,-0.174533,-0.0967124,-0.694997,-0.172798,-0.189339,1.88918,-0.175548,-0.0520571,0.444167
28,60,-0.0872665,-0.698132,-0.174533,-0.174533,-0.0967124,-0.694997,-0.172798,-0.189339,1.88918,-0.175548,-0.0520571,0.444167
28,60,-0.0872665,-0.698132,-0.174533,-0.174533,-0.0967124,-0.694997,-0.172798,-0.189339,1.88918,-0.175548,-0.0520571,0.444167
28,60,-0.0872665,-0.698132,-0.174533,-0.174533,-0.0967124,-0.694997,-0.172798,-0.189339,1.88918,-0.175548,-0.0520571,0.444167
28,60,-0.0872665,-0.698132,-0.174533,-0.174533,-0.0967124,-0.694997,-0.172798,-0.189339,1.88918,-0.175548,-0.0520571,0.444167
28,60,-0.0872665,-0.698132,-0.174533,-0.174533,-0.0967124,-0.694997,-0.172798,-0.189339,1.88918,-0.175548,-0.0520571,0.444167
28,60,-0.0872665,-0.698132,-0.174533,-0.174533,-0.0967124,-0.694997,-0.172798,-0.189339,1.88918,-0.175548,-0.0520571,0.444167
28,60,-0.0872665,-0.698132,-0.174533,-0.174533,-0.0967124,-0.694997,-0.172798,-0.189339,1.88918,-0.175548,-0.0520571,0.444167
28,60,-0.0872665,-0.698132,-0.174533,-0.174533,-0.0967124,-0.694997,-0.172798,-0.189339,1.88918,-0.175548,-0.0520571,0.444167
28,60,-0.0872665,-0.698132,-0.174533,-0.174533,-0.0967124,-0.694997,-0.17273,-0.189295,1.88918,-0.175548,-0.0541075,0.442855
28,60,-0.0872665,-0.698132,-0.174533,-0.174533,-0.0967124,-0.694997,-0.17273,-0.189295,1.88918,-0.175548,-0.0541075,0.442855
28,60,-0.0872665,-0.698132,-0.174533,-0.174533,-0.0967124,-0.694997,-0.17273,-0.189295,1.88918,-0.175548,-0.0541075,0.442855
28,60,-0.0872665,-0.698132,-0.174533,-0.174533,-0.0967124,-0.694997,-0.17273,-0.189295,1.88918,-0.175548,-0.0541075,0.442855
28,60,-0.0872665,-0.698132,-0.174533,-0.174533,-0.0967124,-0.694997,-0.17273,-0.189295,1.88918,-0.175548,-0.0541075,0.442855
28,60,-0.0872665,-0.698132,-0.174533,-0.174533,-0.0967124,-0.694997,-0.17273,-0.189295,1.88918,-0.175548,-0.0541075,0.442855
28,60,-0.0872665,-0.698132,-0.174533,-0.174533,-0.0967124,-0.694997,-0.17273,-0.189295,1.88918,-0.175548,-0.0541075,0.442855
28,60,-0.0872665,-0.698132,-0.174533,-0.174533,-0.0967124,-0.694997,-0.172733,-0.189355,1.88918,-0.175548,-0.0539966,0.444656
28,60,-0.0872665,-0.698132,-0.174533,-0.174533,-0.0967124,-0.694997,-0.172733,-0.189355,1.88918,-0.175548,-0.0539966,0.444656
28,60,-0.0872665,-0.698132,-0.174533,-0.174533,-0.0967124,-0.694997,-0.172733,-0.189355,1.88918,-0.175548,-0.0539966,0.444656
28,60,-0.0872665,-0.698132,-0.174533,-0.174533,-0.0967124,-0.694997,-0.172733,-0.189355,1.88918,-0.175548,-0.0539966,0.444656
28,60,-0.0872665,-0.698132,-0.174533,-0.174533,-0.0967124,-0.694997,-0.172733,-0.189355,1.88918,-0.175548,-0.0539966,0.444656
28,60,-0.0872665,-0.698132,-0.174533,-0.174533,-0.0967124,-0.694997,-0.172733,-0.189355,1.88918,-0.175548,-0.0539966,0.444656
28,60,-0.0872665,-0.698132,-0.174533,-0.174533,-0.0967124,-0.694997,-0.172733,-0.189355,1.88918,-0.175548,-0.0539966,0.444656
28,60,-0.0872665,-0.698132,-0.174533,-0.174533,-0.0967124,-0.694997,-0.172733,-0.189355,1.88918,-0.175548,-0.0539966,0.444656
28,60,-0.0872665,-0.698132,-0.174533,-0.174533,-0.0967124,-0.694997,-0.172733,-0.189355,1.88918,-0.175548,-0.0539966,0.444656
28,60,-0.0872665,-0.698132,-0.174533,-0.174533,-0.0967124,-0.694997,-0.172733,-0.189355,1.88918,-0.175548,-0.0539966,0.444656
28,60,-0.0872665,-0.698132,-0.174533,-0.174533,-0.0967124,-0.694997,-0.172733,-0.189355,1.88918,-0.175548,-0.0539966,0.444656
28,60,-0.0872665,-0.698132,-0.174533,-0.174533,-0.0967124,-0.694997,-0.172733,-0.189355,1.88918,-0.175548,-0.0539966,0.444656
28,60,-0.0872665,-0.698132,-0.174533,-0.174533,-0.0967124,-0.694997,-0.172733,-0.189355,1.88918,-0.175548,-0.0539966,0.444656
28,60,-0.0872665,-0.698132,-0.174533,-0.174533,-0.0967124,-0.694997,-0.172733,-0.189355,1.88918,-0.175548,-0.0539966,0.444656
28,60,-0.0872665,-0.698132,-0.174533,-0.174533,-0.0967124,-0.694997,-0.172733,-0.189355,1.88918,-0.175548,-0.0539966,0.444656
28,60,-0.0872665,-0.698132,-0.174533,-0.174533,-0.0967124,-0.694997,-0.172733,-0.189355,1.88918,-0.175548,-0.0539966,0.444656
28,60,-0.0872665,-0.698132,-0.174533,-0.174533,-0.0967124,-0.694997,-0.172733,-0.189355,1.88918,-0.175548,-0.0539966,0.444656
28,60,-0.0872665,-0.698132,-0.174533,-0.174533,-0.0967124,-0.694997,-0.172733,-0.189355,1.88918,-0.175548,-0.0539966,0.444656
28,60,-0.0872665,-0.698132,-0.174533,-0.174533,-0.0967124,-0.694997,-0.172733,-0.189355,1.88918,-0.175548,-0.0539966,0.444656
28,60,-0.0872665,-0.698132,-0.174533,-0.174533,-0.0967124,-0.694997,-0.172733,-0.189355,1.88918,-0.175548,-0.0539966,0.444656
28,60,-0.0872665,-0.698132,-0.174533,-0.174533,-0.0967124,-0.694997,-0.172733,-0.189355,1.88918,-0.175548,-0.0539966,0.444656
28,60,-0.0872665,-0.698132,-0.174533,-0.174533,-0.0967124,-0.694997,-0.172733,-0.189355,1.88918,-0.175548,-0.0539966,0.444656
28,60,-0.0872665,-0.698132,-0.174533,-0.174533,-0.0967124,-0.694997,-0.172733,-0.189355,1.88918,-0.175548,-0.0539966,0.444656
28,60,-0.0872665,-0.698132,-0.174533,-0.174533,-0.0967124,-0.694997,-0.172733,-0.189355,1.88918,-0.175548,-0.0539966,0.444656
28,60,-0.0872665,-0.698132,-0.174533,-0.174533,-0.0967124,-0.694997,-0.172733,-0.189355,1.88918,-0.175548,-0.0539966,0.444656
28,60,-0.0872665,-0.698132,-0.174533,-0.174533,-0.0967124,-0.694997,-0.172733,-0.189355,1.88918,-0.175548,-0.0539966,0.444656
28,60,-0.0872665,-0.698132,-0.174533,-0.174533,-0.0967124,-0.694997,-0.172733,-0.189355,1.88918,-0.175548,-0.0539966,0.444656
28,60,-0.0872665,-0.698132,-0.174533,-0.174533,-0.0967124,-0.694997,-0.172733,-0.189355,1.88918,-0.175548,-0.0539966,0.444656
28,60,-0.0872665,-0.698132,-0.174533,-0.174533,-0.0967124,-0.694997,-0.172733,-0.189355,1.88918,-0.175548,-0.0539966,0.444656
28,60,-0.0872665,-0.698132,-0.174533,-0.174533,-0.0967124,-0.694997,-0.172733,-0.189355,1.88918,-0.175548,-0.0539966,0.444656
28,60,-0.0872665,-0.698132,-0.174533,-0.174533,-0.0967124,-0.694997,-0.172733,-0.189355,1.88918,-0.175548,-0.0539966,0.444656
28,60,-0.0872665,-0.698132,-0.174533,-0.174533,-0.0967124,-0.694997,-0.172733,-0.189355,1.88918,-0.175548,-0.0539966,0.444656
28,60,-0.0872665,-0.698132,-0.174533,-0.174533,-0.0967124,-0.694997,-0.172733,-0.189355,1.88918,-0.175548,-0.0539966,0.444656
28,60,-0.0872665,-0.698132,-0.174533,-0.174533,-0.0967124,-0.694997,-0.172733,-0.189355,1.88918,-0.175548,-0.0539966,0.444656
28,60,-0.0872665,-0.698132,-0.174533,-0.174533,-0.0967124,-0.694997,-0.172733,-0.189355,1.88918,-0.175548,-0.0539966,0.444656
28,60,-0.0872665,-0.698132,-0.174533,-0.174533,-0.0967124,-0.694997,-0.172733,-0.189355,1.88918,-0.175548,-0.0539966,0.444656
28,60,-0.0872665,-0.698132,-0.174533,-0.174533,-0.0967124,-0.694997,-0.172733,-0.189355,1.88918,-0.175548,-0.0539966,0.444656
28,60,-0.0872665,-0.698132,-0.174533,-0.174533,-0.0967124,-0.694997,-0.172733,-0.189355,1.88918,-0.175548,-0.0539966,0.444656
28,60,-0.0872665,-0.698132,-0.174533,-0.174533,-0.0967124,-0.694997,-0.172733,-0.189355,1.88918,-0.175548,-0.0539966,0.444656
28,60,-0.0872665,-0.698132,-0.174533,-0.174533,-0.0967124,-0.694997,-0.172733,-0.189355,1.88918,-0.175548,-0.0539966,0.444656
28,60,-0.0872665,-0.698132,-0.174533,-0.174533,-0.0967124,-0.694997,-0.172733,-0.189355,1.88918,-0.175548,-0.0539966,0.444656
28,60,-0.0872665,-0.698132,-0.174533,-0.174533,-0.0967124,-0.694997,-0.172665,-0.189311,1.88918,-0.175548,-0.0560448,0.443346
28,60,-0.0872665,-0.698132,-0.174533,-0.174533,-0.0967124,-0.694997,-0.172665,-0.189311,1.88918,-0.175548,-0.0560448,0.443346
28,60,-0.0872665,-0.698132,-0.174533,-0.174533,-0.0967124,-0.694997,-0.172665,-0.189311,1.88918,-0.175548,-0.0560448,0.443346
28,60,-0.0872665,-0.698132,-0.174533,-0.174533,-0.0967124,-0.694997,-0.172726,-0.189293,1.88918,-0.175548,-0.0542035,0.442782
28,60,-0.0872665,-0.698132,-0.174533,-0.174533,-0.0967124,-0.694997,-0.172726,-0.189293,1.88918,-0.175548,-0.0542035,0.442782
28,60,-0.0872665,-0.698132,-0.174533,-0.174533,-0.0967124,-0.694997,-0.172726,-0.189293,1.88918,-0.175548,-0.0542035,0.442782
28,60,-0.0872665,-0.698132,-0.174533,-0.174533,-0.0967124,-0.694997,-0.172726,-0.189293,1.88918,-0.175548,-0.0542035,0.442782
28,60,-0.0872665,-0.698132,-0.174533,-0.174533,-0.0967124,-0.694997,-0.172726,-0.189293,1.88918,-0.175548,-0.0542035,0.442782
28,60,-0.0872665,-0.698132,-0.174533,-0.174533,-0.0967124,-0.694997,-0.172726,-0.189293,1.88918,-0.175548,-0.0542035,0.442782
28,60,-0.0872665,-0.698132,-0.174533,-0.174533,-0.0967124,-0.694997,-0.172726,-0.189293,1.88918,-0.175548,-0.0542035,0.442782
28,60,-0.0872665,-0.698132,-0.174533,-0.174533,-0.0967124,-0.694997,-0.172726,-0.189293,1.88918,-0.175548,-0.0542035,0.442782
28,60,-0.0872665,-0.698132,-0.174533,-0.174533,-0.0967124,-0.694997,-0.172726,-0.189293,1.88918,-0.175548,-0.0542035,0.442782
28,60,-0.0872665,-0.698132,-0.174533,-0.174533,-0.0967124,-0.694997,-0.172726,-0.189293,1.88918,-0.175548,-0.0542035,0.442782
28,60,-0.0872665,-0.698132,-0.174533,-0.174533,-0.0967124,-0.694997,-0.172726,-0.189293,1.88918,-0.175548,-0.0542035,0.442782
28,60,-0.0872665,-0.698132,-0.174533,-0.174533,-0.0967124,-0.694997,-0.172726,-0.189293,1.88918,-0.175548,-0.0542035,0.442782
28,60,-0.0872665,-0.698132,-0.174533,-0.174533,-0.0967124,-0.694997,-0.172726,-0.189293,1.88918,-0.175548,-0.0542035,0.442782
28,60,-0.0872665,-0.698132,-0.174533,-0.174533,-0.0967124,-0.694997,-0.172726,-0.189293,1.88918,-0.175548,-0.0542035,0.442782
28,60,-0.0872665,-0.698132,-0.174533,-0.174533,-0.0967124,-0.694997,-0.172726,-0.189293,1.88918,-0.175548,-0.0542035,0.442782
28,60,-0.0872665,-0.698132,-0.174533,-0.174533,-0.0967124,-0.694997,-0.172726,-0.189293,1.88918,-0.175548,-0.0542035,0.442782
28,60,-0.0872665,-0.698132,-0.174533,-0.174533,-0.0967124,-0.694997,-0.172726,-0.189293,1.88918,-0.175548,-0.0542035,0.442782
28,60,-0.0872665,-0.698132,-0.174533,-0.174533,-0.0967124,-0.694997,-0.172726,-0.189293,1.88918,-0.175548,-0.0542035,0.442782
28,60,-0.0872665,-0.698132,-0.174533,-0.174533,-0.0967124,-0.694997,-0.172726,-0.189293,1.88918,-0.175548,-0.0542035,0.442782
28,60,-0.0872665,-0.698132,-0.174533,-0.174533,-0.0967124,-0.694997,-0.172726,-0.189293,1.88918,-0.175548,-0.0542035,0.442782
28,60,-0.0872665,-0.698132,-0.174533,-0.174533,-0.0967124,-0.694997,-0.17273,-0.189353,1.88918,-0.175548,-0.0540925,0.444584
28,60,-0.0872665,-0.698132,-0.174533,-0.174533,-0.0967124,-0.694997,-0.17273,-0.189353,1.88918,-0.175548,-0.0540925,0.444584
28,60,-0.0872665,-0.698132,-0.174533,-0.174533,-0.0967124,-0.694997,-0.17273,-0.189353,1.88918,-0.175548,-0.0540925,0.444584
28,60,-0.0872665,-0.698132,-0.174533,-0.174533,-0.0967124,-0.694997,-0.17273,-0.189353,1.88918,-0.175548,-0.0540925,0.444584
28,60,-0.0872665,-0.698132,-0.174533,-0.174533,-0.0967124,-0.694997,-0.172791,-0.189334,1.88918,-0.175548,-0.0522559,0.444021
28,60,-0.0872665,-0.698132,-0.174533,-0.174533,-0.0967124,-0.694997,-0.172791,-0.189334,1.88918,-0.175548,-0.0522559,0.444021
28,60,-0.0872665,-0.698132,-0.174533,-0.174533,-0.0967124,-0.694997,-0.172791,-0.189334,1.88918,-0.175548,-0.0522559,0.444021
28,60,-0.0872665,-0.698132,-0.174533,-0.174533,-0.0967124,-0.694997,-0.172791,-0.189334,1.88918,-0.175548,-0.0522559,0.444021
28,60,-0.0872665,-0.698132,-0.174533,-0.174533,-0.0967124,-0.694997,-0.172791,-0.189334,1.88918,-0.175548,-0.0522559,0.444021
28,60,-0.0872665,-0.698132,-0.174533,-0.174533,-0.0967124,-0.694997,-0.172791,-0.189334,1.88918,-0.175548,-0.0522559,0.444021
28,60,-0.0872665,-0.698132,-0.174533,-0.174533,-0.0967124,-0.694997,-0.172791,-0.189334,1.88918,-0.175548,-0.0522559,0.444021
28,60,-0.0872665,-0.698132,-0.174533,-0.174533,-0.0967124,-0.694997,-0.172791,-0.189334,1.88918,-0.175548,-0.0522559,0.444021
28,60,-0.0872665,-0.698132,-0.174533,-0.174533,-0.0967124,-0.694997,-0.172791,-0.189334,1.88918,-0.175548,-0.0522559,0.444021
28,60,-0.0872665,-0.698132,-0.174533,-0.174533,-0.0967124,-0.694997,-0.172791,-0.189334,1.88918,-0.175548,-0.0522559,0.444021
28,60,-0.0872665,-0.698132,-0.174533,-0.174533,-0.0967124,-0.694997,-0.172791,-0.189334,1.88918,-0.175548,-0.0522559,0.444021
28,60,-0.0872665,-0.698132,-0.174533,-0.174533,-0.0967124,-0.694997,-0.172791,-0.189334,1.88918,-0.175548,-0.0522559,0.444021
28,60,-0.0872665,-0.698132,-0.174533,-0.174533,-0.0967124,-0.694997,-0.172791,-0.189334,1.88918,-0.175548,-0.0522559,0.444021
28,60,-0.0872665,-0.698132,-0.174533,-0.174533,-0.0967124,-0.694997,-0.172791,-0.189334,1.88918,-0.175548,-0.0522559,0.444021
28,60,-0.0872665,-0.698132,-0.174533,-0.174533,-0.0967124,-0.694997,-0.172791,-0.189334,1.88918,-0.175548,-0.0522559,0.444021
28,60,-0.0872665,-0.698132,-0.174533,-0.174533,-0.0967124,-0.694997,-0.172791,-0.189334,1.88918,-0.175548,-0.0522559,0.444021
28,60,-0.0872665,-0.698132,-0.174533,-0.174533,-0.0967124,-0.694997,-0.172791,-0.189334,1.88918,-0.175548,-0.0522559,0.444021
28,60,-0.0872665,-0.698132,-0.174533,-0.174533,-0.0967124,-0.694997,-0.172791,-0.189334,1.88918,-0.175548,-0.0522559,0.444021
28,60,-0.0872665,-0.698132,-0.174533,-0.174533,-0.0967124,-0.694997,-0.172791,-0.189334,1.88918,-0.175548,-0.0522559,0.444021
28,60,-0.0872665,-0.698132,-0.174533,-0.174533,-0.0967124,-0.694997,-0.172791,-0.189334,1.88918,-0.175548,-0.0522559,0.444021
28,60,-0.0872665,-0.698132,-0.174533,-0.174533,-0.0967124,-0.694997,-0.172791,-0.189334,1.88918,-0.175548,-0.0522559,0.444021
28,60,-0.0872665,-0.698132,-0.174533,-0.174533,-0.0967124,-0.694997,-0.172791,-0.189334,1.88918,-0.175548,-0.0522559,0.444021
28,60,-0.0872665,-0.698132,-0.174533,-0.174533,-0.0967124,-0.694997,-0.172791,-0.189334,1.88918,-0.175548,-0.0522559,0.444021
28,60,-0.0872665,-0.698132,-0.174533,-0.174533,-0.0967124,-0.694997,-0.172791,-0.189334,1.88918,-0.175548,-0.0522559,0.444021
28,60,-0.0872665,-0.698132,-0.174533,-0.174533,-0.0967124,-0.694997,-0.172791,-0.189334,1.88918,-0.175548,-0.0522559,0.444021
28,60,-0.0872665,-0.698132,-0.174533,-0.174533,-0.0967124,-0.694997,-0.172791,-0.189334,1.88918,-0.175548,-0.0522559,0.444021
28,60,-0.0872665,-0.698132,-0.174533,-0.174533,-0.0967124,-0.694997,-0.172791,-0.189334,1.88918,-0.175548,-0.0522559,0.444021
28,60,-0.0872665,-0.698132,-0.174533,-0.174533,-0.0967124,-0.694997,-0.172791,-0.189334,1.88918,-0.175548,-0.0522559,0.444021
28,60,-0.0872665,-0.698132,-0.174533,-0.174533,-0.0967124,-0.694997,-0.172791,-0.189334,1.88918,-0.175548,-0.0522559,0.444021
28,60,-0.0872665,-0.698132,-0.174533,-0.174533,-0.0967124,-0.694997,-0.172791,-0.189334,1.88918,-0.175548,-0.0522559,0.444021
28,60,-0.0872665,-0.698132,-0.174533,-0.174533,-0.0967124,-0.694997,-0.172791,-0.189334,1.88918,-0.175548,-0.0522559,0.444021
28,60,-0.0872665,-0.698132,-0.174533,-0.174533,-0.0967124,-0.694997,-0.172791,-0.189334,1.88918,-0.175548,-0.0522559,0.444021
28,60,-0.0872665,-0.698132,-0.174533,-0.174533,-0.0967124,-0.694997,-0.172791,-0.189334,1.88918,-0.175548,-0.0522559,0.444021
28,60,-0.0872665,-0.698132,-0.174533,-0.174533,-0.0967124,-0.694997,-0.172791,-0.189334,1.88918,-0.175548,-0.0522559,0.444021
28,60,-0.0872665,-0.698132,-0.174533,-0.174533,-0.0967124,-0.694997,-0.172791,-0.189334,1.88918,-0.175548,-0.0522559,0.444021
28,60,-0.0872665,-0.698132,-0.174533,-0.174533,-0.0967124,-0.694997,-0.172791,-0.189334,1.88918,-0.175548,-0.0522559,0.444021
28,60,-0.0872665,-0.698132,-0.174533,-0.174533,-0.0967124,-0.694997,-0.172791,-0.189334,1.88918,-0.175548,-0.0522559,0.444021
28,60,-0.0872665,-0.698132,-0.174533,-0.174533,-0.0967124,-0.694997,-0.172791,-0.189334,1.88918,-0.175548,-0.0522559,0.444021
28,60,-0.0872665,-0.698132,-0.174533,-0.174533,-0.0967124,-0.694997,-0.172791,-0.189334,1.88918,-0.175548,-0.0522559,0.444021
28,60,-0.0872665,-0.698132,-0.174533,-0.174533,-0.0967124,-0.694997,-0.172791,-0.189334,1.88918,-0.175548,-0.0522559,0.444021
28,60,-0.0872665,-0.698132,-0.174533,-0.174533,-0.0967124,-0.694997,-0.172791,-0.189334,1.88918,-0.175548,-0.0522559,0.444021
28,60,-0.0872665,-0.698132,-0.174533,-0.174533,-0.0967124,-0.694997,-0.172791,-0.189334,1.88918,-0.175548,-0.0522559,0.444021
28,60,-0.0872665,-0.698132,-0.174533,-0.174533,-0.0967124,-0.694997,-0.172791,-0.189334,1.88918,-0.175548,-0.0522559,0.444021
28,60,-0.0872665,-0.698132,-0.174533,-0.174533,-0.0967124,-0.694997,-0.172791,-0.189334,1.88918,-0.175548,-0.0522559,0.444021
28,60,-0.0872665,-0.698132,-0.174533,-0.174533,-0.0967124,-0.694997,-0.172791,-0.189334,1.88918,-0.175548,-0.0522559,0.444021
28,60,-0.0872665,-0.698132,-0.174533,-0.174533,-0.0967124,-0.694997,-0.172791,-0.189334,1.88918,-0.175548,-0.0522559,0.444021
28,60,-0.0872665,-0.698132,-0.174533,-0.174533,-0.0967124,-0.694997,-0.172791,-0.189334,1.88918,-0.175548,-0.0522559,0.444021
28,60,-0.0872665,-0.698132,-0.174533,-0.174533,-0.0967124,-0.694997,-0.172791,-0.189334,1.88918,-0.175548,-0.0522559,0.444021
28,60,-0.0872665,-0.698132,-0.174533,-0.174533,-0.0967124,-0.694997,-0.172791,-0.189334,1.88918,-0.175548,-0.0522559,0.444021
28,60,-0.0872665,-0.698132,-0.174533,-0.174533,-0.0967124,-0.694997,-0.172791,-0.189334,1.88918,-0.175548,-0.0522559,0.444021
28,60,-0.0872665,-0.698132,-0.174533,-0.174533,-0.0967124,-0.694997,-0.172791,-0.189334,1.88918,-0.175548,-0.0522559,0.444021
28,60,-0.0872665,-0.698132,-0.174533,-0.174533,-0.0967124,-0.694997,-0.172791,-0.189334,1.88918,-0.175548,-0.0522559,0.444021
28,60,-0.0872665,-0.698132,-0.174533,-0.174533,-0.0967124,-0.694997,-0.172791,-0.189334,1.88918,-0.175548,-0.0522559,0.444021
28,60,-0.0872665,-0.698132,-0.174533,-0.174533,-0.0967124,-0.694997,-0.172791,-0.189334,1.88918,-0.175548,-0.0522559,0.444021
28,60,-0.0872665,-0.698132,-0.174533,-0.174533,-0.0967124,-0.694997,-0.172791,-0.189334,1.88918,-0.175548,-0.0522559,0.444021
28,60,-0.0872665,-0.698132,-0.174533,-0.174533,-0.0967124,-0.694997,-0.172791,-0.189334,1.88918,-0.175548,-0.0522559,0.444021
28,60,-0.0872665,-0.698132,-0.174533,-0.174533,-0.0967124,-0.694997,-0.172791,-0.189334,1.88918,-0.175548,-0.0522559,0.444021
28,60,-0.0872665,-0.698132,-0.174533,-0.174533,-0.0967124,-0.694997,-0.172791,-0.189334,1.88918,-0.175548,-0.0522559,0.444021
28,60,-0.0872665,-0.698132,-0.174533,-0.174533,-0.0967124,-0.694997,-0.172791,-0.189334,1.88918,-0.175548,-0.0522559,0.444021
28,60,-0.0872665,-0.698132,-0.174533,-0.174533,-0.0967124,-0.694997,-0.172791,-0.189334,1.88918,-0.175548,-0.0522559,0.444021
28,60,-0.0872665,-0.698132,-0.174533,-0.174533,-0.0967124,-0.694997,-0.172791,-0.189334,1.88918,-0.175548,-0.0522559,0.444021
28,60,-0.0872665,-0.698132,-0.174533,-0.174533,-0.0967124,-0.694997,-0.172791,-0.189334,1.88918,-0.175548,-0.0522559,0.444021
28,60,-0.0872665,-0.698132,-0.174533,-0.174533,-0.0967124,-0.694997,-0.172791,-0.189334,1.88918,-0.175548,-0.0522559,0.444021
28,60,-0.0872665,-0.698132,-0.174533,-0.174533,-0.0967124,-0.694997,-0.172791,-0.189334,1.88918,-0.175548,-0.0522559,0.444021
28,60,-0.0872665,-0.698132,-0.174533,-0.174533,-0.0967124,-0.694997,-0.172791,-0.189334,1.88918,-0.175548,-0.0522559,0.444021
28,60,-0.0872665,-0.698132,-0.174533,-0.174533,-0.0967124,-0.694997,-0.172795,-0.189394,1.88918,-0.175548,-0.0521448,0.445823
28,60,-0.0872665,-0.698132,-0.174533,-0.174533,-0.0967124,-0.694997,-0.172795,-0.189394,1.88918,-0.175548,-0.0521448,0.445823
28,60,-0.0872665,-0.698132,-0.174533,-0.174533,-0.0967124,-0.694997,-0.172795,-0.189394,1.88918,-0.175548,-0.0521448,0.445823
28,60,-0.0872665,-0.698132,-0.174533,-0.174533,-0.0967124,-0.694997,-0.172795,-0.189394,1.88918,-0.175548,-0.0521448,0.445823
28,60,-0.0872665,-0.698132,-0.174533,-0.174533,-0.0967124,-0.694997,-0.172795,-0.189394,1.88918,-0.175548,-0.0521448,0.445823
28,60,-0.0872665,-0.698132,-0.174533,-0.174533,-0.0967124,-0.694997,-0.172856,-0.189375,1.88918,-0.175548,-0.0503046,0.445259
28,60,-0.0872665,-0.698132,-0.174533,-0.174533,-0.0967124,-0.694997,-0.172856,-0.189375,1.88918,-0.175548,-0.0503046,0.445259
28,60,-0.0872665,-0.698132,-0.174533,-0.174533,-0.0967124,-0.694997,-0.172856,-0.189375,1.88918,-0.175548,-0.0503046,0.445259
28,60,-0.0872665,-0.698132,-0.174533,-0.174533,-0.0967124,-0.694997,-0.172856,-0.189375,1.88918,-0.175548,-0.0503046,0.445259
28,60,-0.0872665,-0.698132,-0.174533,-0.174533,-0.0967124,-0.694997,-0.172856,-0.189375,1.88918,-0.175548,-0.0503046,0.445259
28,60,-0.0872665,-0.698132,-0.174533,-0.174533,-0.0967124,-0.694997,-0.172856,-0.189375,1.88918,-0.175548,-0.0503046,0.445259
28,60,-0.0872665,-0.698132,-0.174533,-0.174533,-0.0967124,-0.694997,-0.172856,-0.189375,1.88918,-0.175548,-0.0503046,0.445259
28,60,-0.0872665,-0.698132,-0.174533,-0.174533,-0.0967124,-0.694997,-0.172856,-0.189375,1.88918,-0.175548,-0.0503046,0.445259
28,60,-0.0872665,-0.698132,-0.174533,-0.174533,-0.0967124,-0.694997,-0.172856,-0.189375,1.88918,-0.175548,-0.0503046,0.445259
28,60,-0.0872665,-0.698132,-0.174533,-0.174533,-0.0967124,-0.694997,-0.172856,-0.189375,1.88918,-0.175548,-0.0503046,0.445259
28,60,-0.0872665,-0.698132,-0.174533,-0.174533,-0.0967124,-0.694997,-0.172856,-0.189375,1.88918,-0.175548,-0.0503046,0.445259
28,60,-0.0872665,-0.698132,-0.174533,-0.174533,-0.0967124,-0.694997,-0.172856,-0.189375,1.88918,-0.175548,-0.0503046,0.445259
28,60,-0.0872665,-0.698132,-0.174533,-0.174533,-0.0967124,-0.694997,-0.172856,-0.189375,1.88918,-0.175548,-0.0503046,0.445259
28,60,-0.0872665,-0.698132,-0.174533,-0.174533,-0.0967124,-0.694997,-0.172856,-0.189375,1.88918,-0.175548,-0.0503046,0.445259
28,60,-0.0872665,-0.698132,-0.174533,-0.174533,-0.0967124,-0.694997,-0.172856,-0.189375,1.88918,-0.175548,-0.0503046,0.445259
28,60,-0.0872665,-0.698132,-0.174533,-0.174533,-0.0967124,-0.694997,-0.172856,-0.189375,1.88918,-0.175548,-0.0503046,0.445259
28,60,-0.0872665,-0.698132,-0.174533,-0.174533,-0.0967124,-0.694997,-0.172856,-0.189375,1.88918,-0.175548,-0.0503046,0.445259
28,60,-0.0872665,-0.698132,-0.174533,-0.174533,-0.0967124,-0.694997,-0.172856,-0.189375,1.88918,-0.175548,-0.0503046,0.445259
28,60,-0.0872665,-0.698132,-0.174533,-0.174533,-0.0967124,-0.694997,-0.172856,-0.189375,1.88918,-0.175548,-0.0503046,0.445259
28,60,-0.0872665,-0.698132,-0.174533,-0.174533,-0.0967124,-0.694997,-0.172856,-0.189375,1.88918,-0.175548,-0.0503046,0.445259
28,60,-0.0872665,-0.698132,-0.174533,-0.174533,-0.0967124,-0.694997,-0.172856,-0.189375,1.88918,-0.175548,-0.0503046,0.445259
28,60,-0.0872665,-0.698132,-0.174533,-0.174533,-0.0967124,-0.694997,-0.172788,-0.189331,1.88918,-0.175548,-0.0523607,0.443944
28,60,-0.0872665,-0.698132,-0.174533,-0.174533,-0.0967124,-0.694997,-0.172788,-0.189331,1.88918,-0.175548,-0.0523607,0.443944
28,60,-0.0872665,-0.698132,-0.174533,-0.174533,-0.0967124,-0.694997,-0.172788,-0.189331,1.88918,-0.175548,-0.0523607,0.443944
28,60,-0.0872665,-0.698132,-0.174533,-0.174533,-0.0967124,-0.694997,-0.172788,-0.189331,1.88918,-0.175548,-0.0523607,0.443944
28,60,-0.0872665,-0.698132,-0.174533,-0.174533,-0.0967124,-0.694997,-0.172788,-0.189331,1.88918,-0.175548,-0.0523607,0.443944
28,60,-0.0872665,-0.698132,-0.174533,-0.174533,-0.0967124,-0.694997,-0.172849,-0.189313,1.88918,-0.175548,-0.0505313,0.443383
28,60,-0.0872665,-0.698132,-0.174533,-0.174533,-0.0967124,-0.694997,-0.172849,-0.189313,1.88918,-0.175548,-0.0505313,0.443383
28,60,-0.0872665,-0.698132,-0.174533,-0.174533,-0.0967124,-0.694997,-0.172849,-0.189313,1.88918,-0.175548,-0.0505313,0.443383
28,60,-0.0872665,-0.698132,-0.174533,-0.174533,-0.0967124,-0.694997,-0.172849,-0.189313,1.88918,-0.175548,-0.0505313,0.443383
28,60,-0.0872665,-0.698132,-0.174533,-0.174533,-0.0967124,-0.694997,-0.172849,-0.189313,1.88918,-0.175548,-0.0505313,0.443383
28,60,-0.0872665,-0.698132,-0.174533,-0.174533,-0.0967124,-0.694997,-0.172849,-0.189313,1.88918,-0.175548,-0.0505313,0.443383
28,60,-0.0872665,-0.698132,-0.174533,-0.174533,-0.0967124,-0.694997,-0.172849,-0.189313,1.88918,-0.175548,-0.0505313,0.443383
28,60,-0.0872665,-0.698132,-0.174533,-0.174533,-0.0967124,-0.694997,-0.172849,-0.189313,1.88918,-0.175548,-0.0505313,0.443383
28,60,-0.0872665,-0.698132,-0.174533,-0.174533,-0.0967124,-0.694997,-0.172849,-0.189313,1.88918,-0.175548,-0.0505313,0.443383
28,60,-0.0872665,-0.698132,-0.174533,-0.174533,-0.0967124,-0.694997,-0.172849,-0.189313,1.88918,-0.175548,-0.0505313,0.443383
28,60,-0.0872665,-0.698132,-0.174533,-0.174533,-0.0967124,-0.694997,-0.172849,-0.189313,1.88918,-0.175548,-0.0505313,0.443383
28,60,-0.0872665,-0.698132,-0.174533,-0.174533,-0.0967124,-0.694997,-0.172849,-0.189313,1.88918,-0.175548,-0.0505313,0.443383
28,60,-0.0872665,-0.698132,-0.174533,-0.174533,-0.0967124,-0.694997,-0.172849,-0.189313,1.88918,-0.175548,-0.0505313,0.443383
28,60,-0.0872665,-0.698132,-0.174533,-0.174533,-0.0967124,-0.694997,-0.172849,-0.189313,1.88918,-0.175548,-0.0505313,0.443383
28,60,-0.0872665,-0.698132,-0.174533,-0.174533,-0.0967124,-0.694997,-0.172849,-0.189313,1.88918,-0.175548,-0.0505313,0.443383
28,60,-0.0872665,-0.698132,-0.174533,-0.174533,-0.0967124,-0.694997,-0.172849,-0.189313,1.88918,-0.175548,-0.0505313,0.443383
28,60,-0.0872665,-0.698132,-0.174533,-0.174533,-0.0967124,-0.694997,-0.172849,-0.189313,1.88918,-0.175548,-0.0505313,0.443383
28,60,-0.0872665,-0.698132,-0.174533,-0.174533,-0.0967124,-0.694997,-0.172849,-0.189313,1.88918,-0.175548,-0.0505313,0.443383
28,60,-0.0872665,-0.698132,-0.174533,-0.174533,-0.0967124,-0.694997,-0.172849,-0.189313,1.88918,-0.175548,-0.0505313,0.443383
28,60,-0.0872665,-0.698132,-0.174533,-0.174533,-0.0967124,-0.694997,-0.17291,-0.189294,1.88918,-0.175548,-0.0486946,0.442821
28,60,-0.0872665,-0.698132,-0.174533,-0.174533,-0.0967124,-0.694997,-0.17291,-0.189294,1.88918,-0.175548,-0.0486946,0.442821
28,60,-0.0872665,-0.698132,-0.174533,-0.174533,-0.0967124,-0.694997,-0.17291,-0.189294,1.88918,-0.175548,-0.0486946,0.442821
28,60,-0.0872665,-0.698132,-0.174533,-0.174533,-0.0967124,-0.694997,-0.17291,-0.189294,1.88918,-0.175548,-0.0486946,0.442821
28,60,-0.0872665,-0.698132,-0.174533,-0.174533,-0.0967124,-0.694997,-0.172914,-0.189354,1.88918,-0.175548,-0.0485834,0.444621
28,60,-0.0872665,-0.698132,-0.174533,-0.174533,-0.0967124,-0.694997,-0.172914,-0.189354,1.88918,-0.175548,-0.0485834,0.444621
28,60,-0.0872665,-0.698132,-0.174533,-0.174533,-0.0967124,-0.694997,-0.172914,-0.189354,1.88918,-0.175548,-0.0485834,0.444621
28,60,-0.0872665,-0.698132,-0.174533,-0.174533,-0.0967124,-0.694997,-0.172914,-0.189354,1.88918,-0.175548,-0.0485834,0.444621
28,60,-0.0872665,-0.698132,-0.174533,-0.174533,-0.0967124,-0.694997,-0.172914,-0.189354,1.88918,-0.175548,-0.0485834,0.444621
28,60,-0.0872665,-0.698132,-0.174533,-0.174533,-0.0967124,-0.694997,-0.172914,-0.189354,1.88918,-0.175548,-0.0485834,0.444621
28,60,-0.0872665,-0.698132,-0.174533,-0.174533,-0.0967124,-0.694997,-0.172914,-0.189354,1.88918,-0.175548,-0.0485834,0.444621
28,60,-0.0872665,-0.698132,-0.174533,-0.174533,-0.0967124,-0.694997,-0.172914,-0.189354,1.88918,-0.175548,-0.0485834,0.444621
28,60,-0.0872665,-0.698132,-0.174533,-0.174533,-0.0967124,-0.694997,-0.172914,-0.189354,1.88918,-0.175548,-0.0485834,0.444621
28,60,-0.0872665,-0.698132,-0.174533,-0.174533,-0.0967124,-0.694997,-0.172914,-0.189354,1.88918,-0.175548,-0.0485834,0.444621
28,60,-0.0872665,-0.698132,-0.174533,-0.174533,-0.0967124,-0.694997,-0.172914,-0.189354,1.88918,-0.175548,-0.0485834,0.444621
28,60,-0.0872665,-0.698132,-0.174533,-0.174533,-0.0967124,-0.694997,-0.172914,-0.189354,1.88918,-0.175548,-0.0485834,0.444621
28,60,-0.0872665,-0.698132,-0.174533,-0.174533,-0.0967124,-0.694997,-0.172914,-0.189354,1.88918,-0.175548,-0.0485834,0.444621
28,60,-0.0872665,-0.698132,-0.174533,-0.174533,-0.0967124,-0.694997,-0.172914,-0.189354,1.88918,-0.175548,-0.0485834,0.444621
28,60,-0.0872665,-0.698132,-0.174533,-0.174533,-0.0967124,-0.694997,-0.172914,-0.189354,1.88918,-0.175548,-0.0485834,0.444621
28,60,-0.0872665,-0.698132,-0.174533,-0.174533,-0.0967124,-0.694997,-0.172914,-0.189354,1.88918,-0.175548,-0.0485834,0.444621
28,60,-0.0872665,-0.698132,-0.174533,-0.174533,-0.0967124,-0.694997,-0.172914,-0.189354,1.88918,-0.175548,-0.0485834,0.444621
28,60,-0.0872665,-0.698132,-0.174533,-0.174533,-0.0967124,-0.694997,-0.172914,-0.189354,1.88918,-0.175548,-0.0485834,0.444621
28,60,-0.0872665,-0.698132,-0.174533,-0.174533,-0.0967124,-0.694997,-0.172914,-0.189354,1.88918,-0.175548,-0.0485834,0.444621
28,60,-0.0872665,-0.698132,-0.174533,-0.174533,-0.0967124,-0.694997,-0.172914,-0.189354,1.88918,-0.175548,-0.0485834,0.444621
28,60,-0.0872665,-0.698132,-0.174533,-0.174533,-0.0967124,-0.694997,-0.172914,-0.189354,1.88918,-0.175548,-0.0485834,0.444621
28,60,-0.0872665,-0.698132,-0.174533,-0.174533,-0.0967124,-0.694997,-0.172914,-0.189354,1.88918,-0.175548,-0.0485834,0.444621
28,60,-0.0872665,-0.698132,-0.174533,-0.174533,-0.0967124,-0.694997,-0.172914,-0.189354,1.88918,-0.175548,-0.0485834,0.444621
28,60,-0.0872665,-0.698132,-0.174533,-0.174533,-0.0967124,-0.694997,-0.172914,-0.189354,1.88918,-0.175548,-0.0485834,0.444621
28,60,-0.0872665,-0.698132,-0.174533,-0.174533,-0.0967124,-0.694997,-0.172914,-0.189354,1.88918,-0.175548,-0.0485834,0.444621
28,60,-0.0872665,-0.698132,-0.174533,-0.174533,-0.0967124,-0.694997,-0.172914,-0.189354,1.88918,-0.175548,-0.0485834,0.444621
28,60,-0.0872665,-0.698132,-0.174533,-0.174533,-0.0967124,-0.694997,-0.172914,-0.189354,1.88918,-0.175548,-0.0485834,0.444621
28,60,-0.0872665,-0.698132,-0.174533,-0.174533,-0.0967124,-0.694997,-0.172914,-0.189354,1.88918,-0.175548,-0.0485834,0.444621
28,60,-0.0872665,-0.698132,-0.174533,-0.174533,-0.0967124,-0.694997,-0.172914,-0.189354,1.88918,-0.175548,-0.0485834,0.444621
28,60,-0.0872665,-0.698132,-0.174533,-0.174533,-0.0967124,-0.694997,-0.172914,-0.189354,1.88918,-0.175548,-0.0485834,0.444621
28,60,-0.0872665,-0.698132,-0.174533,-0.174533,-0.0967124,-0.694997,-0.172914,-0.189354,1.88918,-0.175548,-0.0485834,0.444621
28,60,-0.0872665,-0.698132,-0.174533,-0.174533,-0.0967124,-0.694997,-0.172914,-0.189354,1.88918,-0.175548,-0.0485834,0.444621
28,60,-0.0872665,-0.698132,-0.174533,-0.174533,-0.0967124,-0.694997,-0.172914,-0.189354,1.88918,-0.175548,-0.0485834,0.444621
28,60,-0.0872665,-0.698132,-0.174533,-0.174533,-0.0967124,-0.694997,-0.172914,-0.189354,1.88918,-0.175548,-0.0485834,0.444621
28,60,-0.0872665,-0.698132,-0.174533,-0.174533,-0.0967124,-0.694997,-0.172914,-0.189354,1.88918,-0.175548,-0.0485834,0.444621
28,60,-0.0872665,-0.698132,-0.174533,-0.174533,-0.0967124,-0.694997,-0.172914,-0.189354,1.88918,-0.175548,-0.0485834,0.444621
28,60,-0.0872665,-0.698132,-0.174533,-0.174533,-0.0967124,-0.694997,-0.172914,-0.189354,1.88918,-0.175548,-0.0485834,0.444621
28,60,-0.0872665,-0.698132,-0.174533,-0.174533,-0.0967124,-0.694997,-0.172914,-0.189354,1.88918,-0.175548,-0.0485834,0.444621
28,60,-0.0872665,-0.698132,-0.174533,-0.174533,-0.0967124,-0.694997,-0.172914,-0.189354,1.88918,-0.175548,-0.0485834,0.444621
28,60,-0.0872665,-0.698132,-0.174533,-0.174533,-0.0967124,-0.694997,-0.172914,-0.189354,1.88918,-0.175548,-0.0485834,0.444621
28,60,-0.0872665,-0.698132,-0.174533,-0.174533,-0.0967124,-0.694997,-0.172914,-0.189354,1.88918,-0.175548,-0.0485834,0.444621
28,60,-0.0872665,-0.698132,-0.174533,-0.174533,-0.0967124,-0.694997,-0.172914,-0.189354,1.88918,-0.175548,-0.0485834,0.444621
28,60,-0.0872665,-0.698132,-0.174533,-0.174533,-0.0967124,-0.694997,-0.172914,-0.189354,1.88918,-0.175548,-0.0485834,0.444621
28,60,-0.0872665,-0.698132,-0.174533,-0.174533,-0.0967124,-0.694997,-0.172914,-0.189354,1.88918,-0.175548,-0.0485834,0.444621
28,60,-0.0872665,-0.698132,-0.174533,-0.174533,-0.0967124,-0.694997,-0.172914,-0.189354,1.88918,-0.175548,-0.0485834,0.444621
28,60,-0.0872665,-0.698132,-0.174533,-0.174533,-0.0967124,-0.694997,-0.172914,-0.189354,1.88918,-0.175548,-0.0485834,0.444621
28,60,-0.0872665,-0.698132,-0.174533,-0.174533,-0.0967124,-0.694997,-0.172914,-0.189354,1.88918,-0.175548,-0.0485834,0.444621
28,60,-0.0872665,-0.698132,-0.174533,-0.174533,-0.0967124,-0.694997,-0.172914,-0.189354,1.88918,-0.175548,-0.0485834,0.444621
28,60,-0.0872665,-0.698132,-0.174533,-0.174533,-0.0967124,-0.694997,-0.172914,-0.189354,1.88918,-0.175548,-0.0485834,0.444621
28,60,-0.0872665,-0.698132,-0.174533,-0.174533,-0.0967124,-0.694997,-0.172914,-0.189354,1.88918,-0.175548,-0.0485834,0.444621
28,60,-0.0872665,-0.698132,-0.174533,-0.174533,-0.0967124,-0.694997,-0.172914,-0.189354,1.88918,-0.175548,-0.0485834,0.444621
28,60,-0.0872665,-0.698132,-0.174533,-0.174533,-0.0967124,-0.694997,-0.172914,-0.189354,1.88918,-0.175548,-0.0485834,0.444621
28,60,-0.0872665,-0.698132,-0.174533,-0.174533,-0.0967124,-0.694997,-0.172914,-0.189354,1.88918,-0.175548,-0.0485834,0.444621
28,60,-0.0872665,-0.698132,-0.174533,-0.174533,-0.0967124,-0.694997,-0.172914,-0.189354,1.88918,-0.175548,-0.0485834,0.444621
28,60,-0.0872665,-0.698132,-0.174533,-0.174533,-0.0967124,-0.694997,-0.172975,-0.189335,1.88918,-0.175548,-0.0467346,0.444055
28,60,-0.0872665,-0.698132,-0.174533,-0.174533,-0.0967124,-0.694997,-0.172975,-0.189335,1.88918,-0.175548,-0.0467346,0.444055
28,60,-0.0872665,-0.698132,-0.174533,-0.174533,-0.0967124,-0.694997,-0.172975,-0.189335,1.88918,-0.175548,-0.0467346,0.444055
28,60,-0.0872665,-0.698132,-0.174533,-0.174533,-0.0967124,-0.694997,-0.172975,-0.189335,1.88918,-0.175548,-0.0467346,0.444055
28,60,-0.0872665,-0.698132,-0.174533,-0.174533,-0.0967124,-0.694997,-0.172975,-0.189335,1.88918,-0.175548,-0.0467346,0.444055
28,60,-0.0872665,-0.698132,-0.174533,-0.174533,-0.0967124,-0.694997,-0.172975,-0.189335,1.88918,-0.175548,-0.0467346,0.444055
28,60,-0.0872665,-0.698132,-0.174533,-0.174533,-0.0967124,-0.694997,-0.172975,-0.189335,1.88918,-0.175548,-0.0467346,0.444055
28,60,-0.0872665,-0.698132,-0.174533,-0.174533,-0.0967124,-0.694997,-0.172975,-0.189335,1.88918,-0.175548,-0.0467346,0.444055
28,60,-0.0872665,-0.698132,-0.174533,-0.174533,-0.0967124,-0.694997,-0.172975,-0.189335,1.88918,-0.175548,-0.0467346,0.444055
28,60,-0.0872665,-0.698132,-0.174533,-0.174533,-0.0967124,-0.694997,-0.172975,-0.189335,1.88918,-0.175548,-0.0467346,0.444055
28,60,-0.0872665,-0.698132,-0.174533,-0.174533,-0.0967124,-0.694997,-0.172975,-0.189335,1.88918,-0.175548,-0.0467346,0.444055
28,60,-0.0872665,-0.698132,-0.174533,-0.174533,-0.0967124,-0.694997,-0.172975,-0.189335,1.88918,-0.175548,-0.0467346,0.444055
28,60,-0.0872665,-0.698132,-0.174533,-0.174533,-0.0967124,-0.694997,-0.172975,-0.189335,1.88918,-0.175548,-0.0467346,0.444055
28,60,-0.0872665,-0.698132,-0.174533,-0.174533,-0.0967124,-0.694997,-0.172975,-0.189335,1.88918,-0.175548,-0.0467346,0.444055
28,60,-0.0872665,-0.698132,-0.174533,-0.174533,-0.0967124,-0.694997,-0.172975,-0.189335,1.88918,-0.175548,-0.0467346,0.444055
28,60,-0.0872665,-0.698132,-0.174533,-0.174533,-0.0967124,-0.694997,-0.172975,-0.189335,1.88918,-0.175548,-0.0467346,0.444055
28,60,-0.0872665,-0.698132,-0.174533,-0.174533,-0.0967124,-0.694997,-0.172975,-0.189335,1.88918,-0.175548,-0.0467346,0.444055
28,60,-0.0872665,-0.698132,-0.174533,-0.174533,-0.0967124,-0.694997,-0.172975,-0.189335,1.88918,-0.175548,-0.0467346,0.444055
28,60,-0.0872665,-0.698132,-0.174533,-0.174533,-0.0967124,-0.694997,-0.172975,-0.189335,1.88918,-0.175548,-0.0467346,0.444055
28,60,-0.0872665,-0.698132,-0.174533,-0.174533,-0.0967124,-0.694997,-0.172975,-0.189335,1.88918,-0.175548,-0.0467346,0.444055
28,60,-0.0872665,-0.698132,-0.174533,-0.174533,-0.0967124,-0.694997,-0.172975,-0.189335,1.88918,-0.175548,-0.0467346,0.444055
28,60,-0.0872665,-0.698132,-0.174533,-0.174533,-0.0967124,-0.694997,-0.172975,-0.189335,1.88918,-0.175548,-0.0467346,0.444055
28,60,-0.0872665,-0.698132,-0.174533,-0.174533,-0.0967124,-0.694997,-0.172979,-0.189395,1.88918,-0.175548,-0.0466233,0.445856
28,60,-0.0872665,-0.698132,-0.174533,-0.174533,-0.0967124,-0.694997,-0.172979,-0.189395,1.88918,-0.175548,-0.0466233,0.445856
28,60,-0.0872665,-0.698132,-0.174533,-0.174533,-0.0967124,-0.694997,-0.172979,-0.189395,1.88918,-0.175548,-0.0466233,0.445856
28,60,-0.0872665,-0.698132,-0.174533,-0.174533,-0.0967124,-0.694997,-0.172979,-0.189395,1.88918,-0.175548,-0.0466233,0.445856
28,60,-0.0872665,-0.698132,-0.174533,-0.174533,-0.0967124,-0.694997,-0.172979,-0.189395,1.88918,-0.175548,-0.0466233,0.445856
28,60,-0.0872665,-0.698132,-0.174533,-0.174533,-0.0967124,-0.694997,-0.172979,-0.189395,1.88918,-0.175548,-0.0466233,0.445856
28,60,-0.0872665,-0.698132,-0.174533,-0.174533,-0.0967124,-0.694997,-0.172979,-0.189395,1.88918,-0.175548,-0.0466233,0.445856
28,60,-0.0872665,-0.698132,-0.174533,-0.174533,-0.0967124,-0.694997,-0.172979,-0.189395,1.88918,-0.175548,-0.0466233,0.445856
28,60,-0.0872665,-0.698132,-0.174533,-0.174533,-0.0967124,-0.694997,-0.172979,-0.189395,1.88918,-0.175548,-0.0466233,0.445856
28,60,-0.0872665,-0.698132,-0.174533,-0.174533,-0.0967124,-0.694997,-0.172979,-0.189395,1.88918,-0.175548,-0.0466233,0.445856
28,60,-0.0872665,-0.698132,-0.174533,-0.174533,-0.0967124,-0.694997,-0.172979,-0.189395,1.88918,-0.175548,-0.0466233,0.445856
28,60,-0.0872665,-0.698132,-0.174533,-0.174533,-0.0967124,-0.694997,-0.172979,-0.189395,1.88918,-0.175548,-0.0466233,0.445856
28,60,-0.0872665,-0.698132,-0.174533,-0.174533,-0.0967124,-0.694997,-0.172979,-0.189395,1.88918,-0.175548,-0.0466233,0.445856
28,60,-0.0872665,-0.698132,-0.174533,-0.174533,-0.0967124,-0.694997,-0.172979,-0.189395,1.88918,-0.175548,-0.0466233,0.445856
28,60,-0.0872665,-0.698132,-0.174533,-0.174533,-0.0967124,-0.694997,-0.172979,-0.189395,1.88918,-0.175548,-0.0466233,0.445856
28,60,-0.0872665,-0.698132,-0.174533,-0.174533,-0.0967124,-0.694997,-0.172979,-0.189395,1.88918,-0.175548,-0.0466233,0.445856
28,60,-0.0872665,-0.698132,-0.174533,-0.174533,-0.0967124,-0.694997,-0.172979,-0.189395,1.88918,-0.175548,-0.0466233,0.445856
28,60,-0.0872665,-0.698132,-0.174533,-0.174533,-0.0967124,-0.694997,-0.172979,-0.189395,1.88918,-0.175548,-0.0466233,0.445856
28,60,-0.0872665,-0.698132,-0.174533,-0.174533,-0.0967124,-0.694997,-0.172979,-0.189395,1.88918,-0.175548,-0.0466233,0.445856
28,60,-0.0872665,-0.698132,-0.174533,-0.174533,-0.0967124,-0.694997,-0.172979,-0.189395,1.88918,-0.175548,-0.0466233,0.445856
28,60,-0.0872665,-0.698132,-0.174533,-0.174533,-0.0967124,-0.694997,-0.172979,-0.189395,1.88918,-0.175548,-0.0466233,0.445856
28,60,-0.0872665,-0.698132,-0.174533,-0.174533,-0.0967124,-0.694997,-0.172979,-0.189395,1.88918,-0.175548,-0.0466233,0.445856
28,60,-0.0872665,-0.698132,-0.174533,-0.174533,-0.0967124,-0.694997,-0.172979,-0.189395,1.88918,-0.175548,-0.0466233,0.445856
28,60,-0.0872665,-0.698132,-0.174533,-0.174533,-0.0967124,-0.694997,-0.172979,-0.189395,1.88918,-0.175548,-0.0466233,0.445856
28,60,-0.0872665,-0.698132,-0.174533,-0.174533,-0.0967124,-0.694997,-0.172979,-0.189395,1.88918,-0.175548,-0.0466233,0.445856
28,60,-0.0872665,-0.698132,-0.174533,-0.174533,-0.0967124,-0.694997,-0.172979,-0.189395,1.88918,-0.175548,-0.0466233,0.445856
28,60,-0.0872665,-0.698132,-0.174533,-0.174533,-0.0967124,-0.694997,-0.172979,-0.189395,1.88918,-0.175548,-0.0466233,0.445856
28,60,-0.0872665,-0.698132,-0.174533,-0.174533,-0.0967124,-0.694997,-0.172979,-0.189395,1.88918,-0.175548,-0.0466233,0.445856
28,60,-0.0872665,-0.698132,-0.174533,-0.174533,-0.0967124,-0.694997,-0.172911,-0.189352,1.88918,-0.175548,-0.0486573,0.444554
28,60,-0.0872665,-0.698132,-0.174533,-0.174533,-0.0967124,-0.694997,-0.172911,-0.189352,1.88918,-0.175548,-0.0486573,0.444554
28,60,-0.0872665,-0.698132,-0.174533,-0.174533,-0.0967124,-0.694997,-0.172911,-0.189352,1.88918,-0.175548,-0.0486573,0.444554
28,60,-0.0872665,-0.698132,-0.174533,-0.174533,-0.0967124,-0.694997,-0.172911,-0.189352,1.88918,-0.175548,-0.0486573,0.444554
28,60,-0.0872665,-0.698132,-0.174533,-0.174533,-0.0967124,-0.694997,-0.172911,-0.189352,1.88918,-0.175548,-0.0486573,0.444554
28,60,-0.0872665,-0.698132,-0.174533,-0.174533,-0.0967124,-0.694997,-0.172911,-0.189352,1.88918,-0.175548,-0.0486573,0.444554
28,60,-0.0872665,-0.698132,-0.174533,-0.174533,-0.0967124,-0.694997,-0.172911,-0.189352,1.88918,-0.175548,-0.0486573,0.444554
28,60,-0.0872665,-0.698132,-0.174533,-0.174533,-0.0967124,-0.694997,-0.172911,-0.189352,1.88918,-0.175548,-0.0486573,0.444554
28,60,-0.0872665,-0.698132,-0.174533,-0.174533,-0.0967124,-0.694997,-0.172911,-0.189352,1.88918,-0.175548,-0.0486573,0.444554
28,60,-0.0872665,-0.698132,-0.174533,-0.174533,-0.0967124,-0.694997,-0.172911,-0.189352,1.88918,-0.175548,-0.0486573,0.444554
28,60,-0.0872665,-0.698132,-0.174533,-0.174533,-0.0967124,-0.694997,-0.172911,-0.189352,1.88918,-0.175548,-0.0486573,0.444554
28,60,-0.0872665,-0.698132,-0.174533,-0.174533,-0.0967124,-0.694997,-0.172972,-0.189333,1.88918,-0.175548,-0.0468279,0.443994
28,60,-0.0872665,-0.698132,-0.174533,-0.174533,-0.0967124,-0.694997,-0.172972,-0.189333,1.88918,-0.175548,-0.0468279,0.443994
28,60,-0.0872665,-0.698132,-0.174533,-0.174533,-0.0967124,-0.694997,-0.172972,-0.189333,1.88918,-0.175548,-0.0468279,0.443994
28,60,-0.0872665,-0.698132,-0.174533,-0.174533,-0.0967124,-0.694997,-0.172972,-0.189333,1.88918,-0.175548,-0.0468279,0.443994
28,60,-0.0872665,-0.698132,-0.174533,-0.174533,-0.0967124,-0.694997,-0.172972,-0.189333,1.88918,-0.175548,-0.0468279,0.443994
28,60,-0.0872665,-0.698132,-0.174533,-0.174533,-0.0967124,-0.694997,-0.172972,-0.189333,1.88918,-0.175548,-0.0468279,0.443994
28,60,-0.0872665,-0.698132,-0.174533,-0.174533,-0.0967124,-0.694997,-0.172972,-0.189333,1.88918,-0.175548,-0.0468279,0.443994
28,60,-0.0872665,-0.698132,-0.174533,-0.174533,-0.0967124,-0.694997,-0.172972,-0.189333,1.88918,-0.175548,-0.0468279,0.443994
28,60,-0.0872665,-0.698132,-0.174533,-0.174533,-0.0967124,-0.694997,-0.172972,-0.189333,1.88918,-0.175548,-0.0468279,0.443994
28,60,-0.0872665,-0.698132,-0.174533,-0.174533,-0.0967124,-0.694997,-0.172972,-0.189333,1.88918,-0.175548,-0.0468279,0.443994
28,60,-0.0872665,-0.698132,-0.174533,-0.174533,-0.0967124,-0.694997,-0.172972,-0.189333,1.88918,-0.175548,-0.0468279,0.443994
28,60,-0.0872665,-0.698132,-0.174533,-0.174533,-0.0967124,-0.694997,-0.172972,-0.189333,1.88918,-0.175548,-0.0468279,0.443994
28,60,-0.0872665,-0.698132,-0.174533,-0.174533,-0.0967124,-0.694997,-0.172972,-0.189333,1.88918,-0.175548,-0.0468279,0.443994
28,60,-0.0872665,-0.698132,-0.174533,-0.174533,-0.0967124,-0.694997,-0.172972,-0.189333,1.88918,-0.175548,-0.0468279,0.443994
28,60,-0.0872665,-0.698132,-0.174533,-0.174533,-0.0967124,-0.694997,-0.172972,-0.189333,1.88918,-0.175548,-0.0468279,0.443994
28,60,-0.0872665,-0.698132,-0.174533,-0.174533,-0.0967124,-0.694997,-0.172972,-0.189333,1.88918,-0.175548,-0.0468279,0.443994
28,60,-0.0872665,-0.698132,-0.174533,-0.174533,-0.0967124,-0.694997,-0.172972,-0.189333,1.88918,-0.175548,-0.0468279,0.443994
28,60,-0.0872665,-0.698132,-0.174533,-0.174533,-0.0967124,-0.694997,-0.172972,-0.189333,1.88918,-0.175548,-0.0468279,0.443994
28,60,-0.0872665,-0.698132,-0.174533,-0.174533,-0.0967124,-0.694997,-0.172972,-0.189333,1.88918,-0.175548,-0.0468279,0.443994
28,60,-0.0872665,-0.698132,-0.174533,-0.174533,-0.0967124,-0.694997,-0.172972,-0.189333,1.88918,-0.175548,-0.0468279,0.443994
28,60,-0.0872665,-0.698132,-0.174533,-0.174533,-0.0967124,-0.694997,-0.172972,-0.189333,1.88918,-0.175548,-0.0468279,0.443994
28,60,-0.0872665,-0.698132,-0.174533,-0.174533,-0.0967124,-0.694997,-0.172972,-0.189333,1.88918,-0.175548,-0.0468279,0.443994
28,60,-0.0872665,-0.698132,-0.174533,-0.174533,-0.0967124,-0.694997,-0.172972,-0.189333,1.88918,-0.175548,-0.0468279,0.443994
28,60,-0.0872665,-0.698132,-0.174533,-0.174533,-0.0967124,-0.694997,-0.172972,-0.189333,1.88918,-0.175548,-0.0468279,0.443994
28,60,-0.0872665,-0.698132,-0.174533,-0.174533,-0.0967124,-0.694997,-0.172972,-0.189333,1.88918,-0.175548,-0.0468279,0.443994
28,60,-0.0872665,-0.698132,-0.174533,-0.174533,-0.0967124,-0.694997,-0.172972,-0.189333,1.88918,-0.175548,-0.0468279,0.443994
28,60,-0.0872665,-0.698132,-0.174533,-0.174533,-0.0967124,-0.694997,-0.172972,-0.189333,1.88918,-0.175548,-0.0468279,0.443994
28,60,-0.0872665,-0.698132,-0.174533,-0.174533,-0.0967124,-0.694997,-0.172972,-0.189333,1.88918,-0.175548,-0.0468279,0.443994
28,60,-0.0872665,-0.698132,-0.174533,-0.174533,-0.0967124,-0.694997,-0.172972,-0.189333,1.88918,-0.175548,-0.0468279,0.443994
28,60,-0.0872665,-0.698132,-0.174533,-0.174533,-0.0967124,-0.694997,-0.172972,-0.189333,1.88918,-0.175548,-0.0468279,0.443994
28,60,-0.0872665,-0.698132,-0.174533,-0.174533,-0.0967124,-0.694997,-0.172972,-0.189333,1.88918,-0.175548,-0.0468279,0.443994
28,60,-0.0872665,-0.698132,-0.174533,-0.174533,-0.0967124,-0.694997,-0.172972,-0.189333,1.88918,-0.175548,-0.0468279,0.443994
28,60,-0.0872665,-0.698132,-0.174533,-0.174533,-0.0967124,-0.694997,-0.172972,-0.189333,1.88918,-0.175548,-0.0468279,0.443994
28,60,-0.0872665,-0.698132,-0.174533,-0.174533,-0.0967124,-0.694997,-0.172972,-0.189333,1.88918,-0.175548,-0.0468279,0.443994
