stim_pw [us],stim_amp [mA],com_elbow_fe [rad],com_forearm_ps [rad],com_wrist_fe [rad],com_wrist_ru [rad],act_elbow_fe [rad],act_forearm_ps [rad],act_wrist_fe [rad],act_wrist_ru [rad],elbow_fe_trq [Nm],forearm_ps_trq [Nm],wrist_fe_trq [Nm],wrist_ru_trq [Nm]
26,40,-0.0872665,-0.698132,-0.174533,-0.174533,-0.0950659,-0.69642,-0.172815,-0.203148,1.55989,-0.0958297,-0.051575,0.858469
26,40,-0.0872665,-0.698132,-0.174533,-0.174533,-0.0950659,-0.69642,-0.172815,-0.203148,1.55989,-0.0958297,-0.051575,0.858469
26,40,-0.0872665,-0.698132,-0.174533,-0.174533,-0.0950659,-0.69642,-0.172815,-0.203148,1.55989,-0.0958297,-0.051575,0.858469
26,40,-0.0872665,-0.698132,-0.174533,-0.174533,-0.0950659,-0.69642,-0.172815,-0.203148,1.55989,-0.0958297,-0.051575,0.858469
26,40,-0.0872665,-0.698132,-0.174533,-0.174533,-0.0950659,-0.69642,-0.172815,-0.203148,1.55989,-0.0958297,-0.051575,0.858469
26,40,-0.0872665,-0.698132,-0.174533,-0.174533,-0.0950659,-0.69642,-0.172815,-0.203148,1.55989,-0.0958297,-0.051575,0.858469
26,40,-0.0872665,-0.698132,-0.174533,-0.174533,-0.0950659,-0.69642,-0.172815,-0.203148,1.55989,-0.0958297,-0.051575,0.858469
26,40,-0.0872665,-0.698132,-0.174533,-0.174533,-0.0950659,-0.69642,-0.172815,-0.203148,1.55989,-0.0958297,-0.051575,0.858469
26,40,-0.0872665,-0.698132,-0.174533,-0.174533,-0.0950659,-0.69642,-0.172815,-0.203148,1.55989,-0.0958297,-0.051575,0.858469
26,40,-0.0872665,-0.698132,-0.174533,-0.174533,-0.0950659,-0.69642,-0.172815,-0.203148,1.55989,-0.0958297,-0.051575,0.858469
26,40,-0.0872665,-0.698132,-0.174533,-0.174533,-0.0950659,-0.69642,-0.172815,-0.203148,1.55989,-0.0958297,-0.051575,0.858469
26,40,-0.0872665,-0.698132,-0.174533,-0.174533,-0.0950659,-0.69642,-0.172815,-0.203148,1.55989,-0.0958297,-0.051575,0.858469
26,40,-0.0872665,-0.698132,-0.174533,-0.174533,-0.0950659,-0.69642,-0.172815,-0.203148,1.55989,-0.0958297,-0.051575,0.858469
26,40,-0.0872665,-0.698132,-0.174533,-0.174533,-0.0950659,-0.69642,-0.172815,-0.203148,1.55989,-0.0958297,-0.051575,0.858469
26,40,-0.0872665,-0.698132,-0.174533,-0.174533,-0.0950659,-0.69642,-0.172815,-0.203148,1.55989,-0.0958297,-0.051575,0.858469
26,40,-0.0872665,-0.698132,-0.174533,-0.174533,-0.0950659,-0.69642,-0.172815,-0.203148,1.55989,-0.0958297,-0.051575,0.858469
26,40,-0.0872665,-0.698132,-0.174533,-0.174533,-0.0950659,-0.69642,-0.172815,-0.203148,1.55989,-0.0958297,-0.051575,0.858469
26,40,-0.0872665,-0.698132,-0.174533,-0.174533,-0.0950659,-0.69642,-0.172815,-0.203148,1.55989,-0.0958297,-0.051575,0.858469
26,40,-0.0872665,-0.698132,-0.174533,-0.174533,-0.0950659,-0.69642,-0.172815,-0.203148,1.55989,-0.0958297,-0.051575,0.858469
26,40,-0.0872665,-0.698132,-0.174533,-0.174533,-0.0950659,-0.69642,-0.172815,-0.203148,1.55989,-0.0958297,-0.051575,0.858469
26,40,-0.0872665,-0.698132,-0.174533,-0.174533,-0.0950659,-0.69642,-0.172815,-0.203148,1.55989,-0.0958297,-0.051575,0.858469
26,40,-0.0872665,-0.698132,-0.174533,-0.174533,-0.0950659,-0.69642,-0.172815,-0.203148,1.55989,-0.0958297,-0.051575,0.858469
26,40,-0.0872665,-0.698132,-0.174533,-0.174533,-0.0950659,-0.69642,-0.172815,-0.203148,1.55989,-0.0958297,-0.051575,0.858469
26,40,-0.0872665,-0.698132,-0.174533,-0.174533,-0.0950659,-0.69642,-0.172815,-0.203148,1.55989,-0.0958297,-0.051575,0.858469
26,40,-0.0872665,-0.698132,-0.174533,-0.174533,-0.0950659,-0.69642,-0.172815,-0.203148,1.55989,-0.0958297,-0.051575,0.858469
26,40,-0.0872665,-0.698132,-0.174533,-0.174533,-0.0950659,-0.69642,-0.172815,-0.203148,1.55989,-0.0958297,-0.051575,0.858469
26,40,-0.0872665,-0.698132,-0.174533,-0.174533,-0.0950659,-0.69642,-0.172815,-0.203148,1.55989,-0.0958297,-0.051575,0.858469
26,40,-0.0872665,-0.698132,-0.174533,-0.174533,-0.0950659,-0.69642,-0.172815,-0.203148,1.55989,-0.0958297,-0.051575,0.858469
26,40,-0.0872665,-0.698132,-0.174533,-0.174533,-0.0950659,-0.69642,-0.172815,-0.203148,1.55989,-0.0958297,-0.051575,0.858469
26,40,-0.0872665,-0.698132,-0.174533,-0.174533,-0.0950659,-0.69642,-0.172815,-0.203148,1.55989,-0.0958297,-0.051575,0.858469
26,40,-0.0872665,-0.698132,-0.174533,-0.174533,-0.0950659,-0.69642,-0.172884,-0.203192,1.55989,-0.0958297,-0.0495049,0.859779
26,40,-0.0872665,-0.698132,-0.174533,-0.174533,-0.0950659,-0.69642,-0.172884,-0.203192,1.55989,-0.0958297,-0.0495049,0.859779
26,40,-0.0872665,-0.698132,-0.174533,-0.174533,-0.0950659,-0.69642,-0.172884,-0.203192,1.55989,-0.0958297,-0.0495049,0.859779
26,40,-0.0872665,-0.698132,-0.174533,-0.174533,-0.0950659,-0.69642,-0.172884,-0.203192,1.55989,-0.0958297,-0.0495049,0.859779
26,40,-0.0872665,-0.698132,-0.174533,-0.174533,-0.0950659,-0.69642,-0.172884,-0.203192,1.55989,-0.0958297,-0.0495049,0.859779
26,40,-0.0872665,-0.698132,-0.174533,-0.174533,-0.0950659,-0.69642,-0.172884,-0.203192,1.55989,-0.0958297,-0.0495049,0.859779
26,40,-0.0872665,-0.698132,-0.174533,-0.174533,-0.0950659,-0.69642,-0.172884,-0.203192,1.55989,-0.0958297,-0.0495049,0.859779
26,40,-0.0872665,-0.698132,-0.174533,-0.174533,-0.0950659,-0.69642,-0.172884,-0.203192,1.55989,-0.0958297,-0.0495049,0.859779
26,40,-0.0872665,-0.698132,-0.174533,-0.174533,-0.0950659,-0.69642,-0.172884,-0.203192,1.55989,-0.0958297,-0.0495049,0.859779
26,40,-0.0872665,-0.698132,-0.174533,-0.174533,-0.0950659,-0.69642,-0.172884,-0.203192,1.55989,-0.0958297,-0.0495049,0.859779
26,40,-0.0872665,-0.698132,-0.174533,-0.174533,-0.0950659,-0.69642,-0.172884,-0.203192,1.55989,-0.0958297,-0.0495049,0.859779
26,40,-0.0872665,-0.698132,-0.174533,-0.174533,-0.0950659,-0.69642,-0.172884,-0.203192,1.55989,-0.0958297,-0.0495049,0.859779
26,40,-0.0872665,-0.698132,-0.174533,-0.174533,-0.0950659,-0.69642,-0.172884,-0.203192,1.55989,-0.0958297,-0.0495049,0.859779
26,40,-0.0872665,-0.698132,-0.174533,-0.174533,-0.0950659,-0.69642,-0.172884,-0.203192,1.55989,-0.0958297,-0.0495049,0.859779
26,40,-0.0872665,-0.698132,-0.174533,-0.174533,-0.0950659,-0.69642,-0.172884,-0.203192,1.55989,-0.0958297,-0.0495049,0.859779
26,40,-0.0872665,-0.698132,-0.174533,-0.174533,-0.0950659,-0.69642,-0.172884,-0.203192,1.55989,-0.0958297,-0.0495049,0.859779
26,40,-0.0872665,-0.698132,-0.174533,-0.174533,-0.0950659,-0.69642,-0.172884,-0.203192,1.55989,-0.0958297,-0.0495049,0.859779
26,40,-0.0872665,-0.698132,-0.174533,-0.174533,-0.0950659,-0.69642,-0.172884,-0.203192,1.55989,-0.0958297,-0.0495049,0.859779
26,40,-0.0872665,-0.698132,-0.174533,-0.174533,-0.0950659,-0.69642,-0.172884,-0.203192,1.55989,-0.0958297,-0.0495049,0.859779
26,40,-0.0872665,-0.698132,-0.174533,-0.174533,-0.0950659,-0.69642,-0.172884,-0.203192,1.55989,-0.0958297,-0.0495049,0.859779
26,40,-0.0872665,-0.698132,-0.174533,-0.174533,-0.0950659,-0.69642,-0.172884,-0.203192,1.55989,-0.0958297,-0.0495049,0.859779
26,40,-0.0872665,-0.698132,-0.174533,-0.174533,-0.0950659,-0.69642,-0.172822,-0.20321,1.55989,-0.0958297,-0.0513474,0.860334
26,40,-0.0872665,-0.698132,-0.174533,-0.174533,-0.0950659,-0.69642,-0.172822,-0.20321,1.55989,-0.0958297,-0.0513474,0.860334
26,40,-0.0872665,-0.698132,-0.174533,-0.174533,-0.0950659,-0.69642,-0.172822,-0.20321,1.55989,-0.0958297,-0.0513474,0.860334
26,40,-0.0872665,-0.698132,-0.174533,-0.174533,-0.0950659,-0.69642,-0.172822,-0.20321,1.55989,-0.0958297,-0.0513474,0.860334
26,40,-0.0872665,-0.698132,-0.174533,-0.174533,-0.0950659,-0.69642,-0.172822,-0.20321,1.55989,-0.0958297,-0.0513474,0.860334
26,40,-0.0872665,-0.698132,-0.174533,-0.174533,-0.0950659,-0.69642,-0.172822,-0.20321,1.55989,-0.0958297,-0.0513474,0.860334
26,40,-0.0872665,-0.698132,-0.174533,-0.174533,-0.0950659,-0.69642,-0.172822,-0.20321,1.55989,-0.0958297,-0.0513474,0.860334
26,40,-0.0872665,-0.698132,-0.174533,-0.174533,-0.0950659,-0.69642,-0.172822,-0.20321,1.55989,-0.0958297,-0.0513474,0.860334
26,40,-0.0872665,-0.698132,-0.174533,-0.174533,-0.0950659,-0.69642,-0.172822,-0.20321,1.55989,-0.0958297,-0.0513474,0.860334
26,40,-0.0872665,-0.698132,-0.174533,-0.174533,-0.0950659,-0.69642,-0.172822,-0.20321,1.55989,-0.0958297,-0.0513474,0.860334
26,40,-0.0872665,-0.698132,-0.174533,-0.174533,-0.0950659,-0.69642,-0.172822,-0.20321,1.55989,-0.0958297,-0.0513474,0.860334
26,40,-0.0872665,-0.698132,-0.174533,-0.174533,-0.0950659,-0.69642,-0.172822,-0.20321,1.55989,-0.0958297,-0.0513474,0.860334
26,40,-0.0872665,-0.698132,-0.174533,-0.174533,-0.0950659,-0.69642,-0.172822,-0.20321,1.55989,-0.0958297,-0.0513474,0.860334
26,40,-0.0872665,-0.698132,-0.174533,-0.174533,-0.0950659,-0.69642,-0.172822,-0.20321,1.55989,-0.0958297,-0.0513474,0.860334
26,40,-0.0872665,-0.698132,-0.174533,-0.174533,-0.0950659,-0.69642,-0.172822,-0.20321,1.55989,-0.0958297,-0.0513474,0.860334
26,40,-0.0872665,-0.698132,-0.174533,-0.174533,-0.0950659,-0.69642,-0.172822,-0.20321,1.55989,-0.0958297,-0.0513474,0.860334
26,40,-0.0872665,-0.698132,-0.174533,-0.174533,-0.0950659,-0.69642,-0.172822,-0.20321,1.55989,-0.0958297,-0.0513474,0.860334
26,40,-0.0872665,-0.698132,-0.174533,-0.174533,-0.0950659,-0.69642,-0.172822,-0.20321,1.55989,-0.0958297,-0.0513474,0.860334
26,40,-0.0872665,-0.698132,-0.174533,-0.174533,-0.0950659,-0.69642,-0.172822,-0.20321,1.55989,-0.0958297,-0.0513474,0.860334
26,40,-0.0872665,-0.698132,-0.174533,-0.174533,-0.0950659,-0.69642,-0.172822,-0.20321,1.55989,-0.0958297,-0.0513474,0.860334
26,40,-0.0872665,-0.698132,-0.174533,-0.174533,-0.0950659,-0.69642,-0.172822,-0.20321,1.55989,-0.0958297,-0.0513474,0.860334
26,40,-0.0872665,-0.698132,-0.174533,-0.174533,-0.0950659,-0.69642,-0.172822,-0.20321,1.55989,-0.0958297,-0.0513474,0.860334
26,40,-0.0872665,-0.698132,-0.174533,-0.174533,-0.0950659,-0.69642,-0.172822,-0.20321,1.55989,-0.0958297,-0.0513474,0.860334
26,40,-0.0872665,-0.698132,-0.174533,-0.174533,-0.0950659,-0.69642,-0.172822,-0.20321,1.55989,-0.0958297,-0.0513474,0.860334
26,40,-0.0872665,-0.698132,-0.174533,-0.174533,-0.0950659,-0.69642,-0.172822,-0.20321,1.55989,-0.0958297,-0.0513474,0.860334
26,40,-0.0872665,-0.698132,-0.174533,-0.174533,-0.0950659,-0.69642,-0.172822,-0.20321,1.55989,-0.0958297,-0.0513474,0.860334
26,40,-0.0872665,-0.698132,-0.174533,-0.174533,-0.0950659,-0.69642,-0.172822,-0.20321,1.55989,-0.0958297,-0.0513474,0.860334
26,40,-0.0872665,-0.698132,-0.174533,-0.174533,-0.0950659,-0.69642,-0.172822,-0.20321,1.55989,-0.0958297,-0.0513474,0.860334
26,40,-0.0872665,-0.698132,-0.174533,-0.174533,-0.0950659,-0.69642,-0.172822,-0.20321,1.55989,-0.0958297,-0.0513474,0.860334
26,40,-0.0872665,-0.698132,-0.174533,-0.174533,-0.0950659,-0.69642,-0.172822,-0.20321,1.55989,-0.0958297,-0.0513474,0.860334
26,40,-0.0872665,-0.698132,-0.174533,-0.174533,-0.0950659,-0.69642,-0.172822,-0.20321,1.55989,-0.0958297,-0.0513474,0.860334
26,40,-0.0872665,-0.698132,-0.174533,-0.174533,-0.0950659,-0.69642,-0.172822,-0.20321,1.55989,-0.0958297,-0.0513474,0.860334
26,40,-0.0872665,-0.698132,-0.174533,-0.174533,-0.0950659,-0.69642,-0.172822,-0.20321,1.55989,-0.0958297,-0.0513474,0.860334
26,40,-0.0872665,-0.698132,-0.174533,-0.174533,-0.0950659,-0.69642,-0.172822,-0.20321,1.55989,-0.0958297,-0.0513474,0.860334
26,40,-0.0872665,-0.698132,-0.174533,-0.174533,-0.0950659,-0.69642,-0.172822,-0.20321,1.55989,-0.0958297,-0.0513474,0.860334
26,40,-0.0872665,-0.698132,-0.174533,-0.174533,-0.0950659,-0.69642,-0.172822,-0.20321,1.55989,-0.0958297,-0.0513474,0.860334
26,40,-0.0872665,-0.698132,-0.174533,-0.174533,-0.0950659,-0.69642,-0.172822,-0.20321,1.55989,-0.0958297,-0.0513474,0.860334
26,40,-0.0872665,-0.698132,-0.174533,-0.174533,-0.0950659,-0.69642,-0.172822,-0.20321,1.55989,-0.0958297,-0.0513474,0.860334
26,40,-0.0872665,-0.698132,-0.174533,-0.174533,-0.0950659,-0.69642,-0.172822,-0.20321,1.55989,-0.0958297,-0.0513474,0.860334
26,40,-0.0872665,-0.698132,-0.174533,-0.174533,-0.0950659,-0.69642,-0.172822,-0.20321,1.55989,-0.0958297,-0.0513474,0.860334
26,40,-0.0872665,-0.698132,-0.174533,-0.174533,-0.0950659,-0.69642,-0.172822,-0.20321,1.55989,-0.0958297,-0.0513474,0.860334
26,40,-0.0872665,-0.698132,-0.174533,-0.174533,-0.0950659,-0.69642,-0.172822,-0.20321,1.55989,-0.0958297,-0.0513474,0.860334
26,40,-0.0872665,-0.698132,-0.174533,-0.174533,-0.0950659,-0.69642,-0.172822,-0.20321,1.55989,-0.0958297,-0.0513474,0.860334
26,40,-0.0872665,-0.698132,-0.174533,-0.174533,-0.0950659,-0.69642,-0.172822,-0.20321,1.55989,-0.0958297,-0.0513474,0.860334
26,40,-0.0872665,-0.698132,-0.174533,-0.174533,-0.0950659,-0.69642,-0.172822,-0.20321,1.55989,-0.0958297,-0.0513474,0.860334
26,40,-0.0872665,-0.698132,-0.174533,-0.174533,-0.0950659,-0.69642,-0.172822,-0.20321,1.55989,-0.0958297,-0.0513474,0.860334
26,40,-0.0872665,-0.698132,-0.174533,-0.174533,-0.0950659,-0.69642,-0.172822,-0.20321,1.55989,-0.0958297,-0.0513474,0.860334
26,40,-0.0872665,-0.698132,-0.174533,-0.174533,-0.0950659,-0.69642,-0.172822,-0.20321,1.55989,-0.0958297,-0.0513474,0.860334
26,40,-0.0872665,-0.698132,-0.174533,-0.174533,-0.0950659,-0.69642,-0.172822,-0.20321,1.55989,-0.0958297,-0.0513474,0.860334
26,40,-0.0872665,-0.698132,-0.174533,-0.174533,-0.0950659,-0.69642,-0.172822,-0.20321,1.55989,-0.0958297,-0.0513474,0.860334
26,40,-0.0872665,-0.698132,-0.174533,-0.174533,-0.0950659,-0.69642,-0.172822,-0.20321,1.55989,-0.0958297,-0.0513474,0.860334
26,40,-0.0872665,-0.698132,-0.174533,-0.174533,-0.0950659,-0.69642,-0.172822,-0.20321,1.55989,-0.0958297,-0.0513474,0.860334
26,40,-0.0872665,-0.698132,-0.174533,-0.174533,-0.0950659,-0.69642,-0.172822,-0.20321,1.55989,-0.0958297,-0.0513474,0.860334
26,40,-0.0872665,-0.698132,-0.174533,-0.174533,-0.0950659,-0.69642,-0.172822,-0.20321,1.55989,-0.0958297,-0.0513474,0.860334
26,40,-0.0872665,-0.698132,-0.174533,-0.174533,-0.0950659,-0.69642,-0.172822,-0.20321,1.55989,-0.0958297,-0.0513474,0.860334
26,40,-0.0872665,-0.698132,-0.174533,-0.174533,-0.0950659,-0.69642,-0.172822,-0.20321,1.55989,-0.0958297,-0.0513474,0.860334
26,40,-0.0872665,-0.698132,-0.174533,-0.174533,-0.0950659,-0.69642,-0.172822,-0.20321,1.55989,-0.0958297,-0.0513474,0.860334
26,40,-0.0872665,-0.698132,-0.174533,-0.174533,-0.0950659,-0.69642,-0.172822,-0.20321,1.55989,-0.0958297,-0.0513474,0.860334
26,40,-0.0872665,-0.698132,-0.174533,-0.174533,-0.0950659,-0.69642,-0.172822,-0.20321,1.55989,-0.0958297,-0.0513474,0.860334
26,40,-0.0872665,-0.698132,-0.174533,-0.174533,-0.0950659,-0.69642,-0.172822,-0.20321,1.55989,-0.0958297,-0.0513474,0.860334
26,40,-0.0872665,-0.698132,-0.174533,-0.174533,-0.0950659,-0.69642,-0.172822,-0.20321,1.55989,-0.0958297,-0.0513474,0.860334
26,40,-0.0872665,-0.698132,-0.174533,-0.174533,-0.0950659,-0.69642,-0.172822,-0.20321,1.55989,-0.0958297,-0.0513474,0.860334
26,40,-0.0872665,-0.698132,-0.174533,-0.174533,-0.0950659,-0.69642,-0.172822,-0.20321,1.55989,-0.0958297,-0.0513474,0.860334
26,40,-0.0872665,-0.698132,-0.174533,-0.174533,-0.0950659,-0.69642,-0.172822,-0.20321,1.55989,-0.0958297,-0.0513474,0.860334
26,40,-0.0872665,-0.698132,-0.174533,-0.174533,-0.0950659,-0.69642,-0.172822,-0.20321,1.55989,-0.0958297,-0.0513474,0.860334
26,40,-0.0872665,-0.698132,-0.174533,-0.174533,-0.0950659,-0.69642,-0.172822,-0.20321,1.55989,-0.0958297,-0.0513474,0.860334
26,40,-0.0872665,-0.698132,-0.174533,-0.174533,-0.0950659,-0.69642,-0.172822,-0.20321,1.55989,-0.0958297,-0.0513474,0.860334
26,40,-0.0872665,-0.698132,-0.174533,-0.174533,-0.0950659,-0.69642,-0.172822,-0.20321,1.55989,-0.0958297,-0.0513474,0.860334
26,40,-0.0872665,-0.698132,-0.174533,-0.174533,-0.0950659,-0.69642,-0.172822,-0.20321,1.55989,-0.0958297,-0.0513474,0.860334
26,40,-0.0872665,-0.698132,-0.174533,-0.174533,-0.0950659,-0.69642,-0.172822,-0.20321,1.55989,-0.0958297,-0.0513474,0.860334
26,40,-0.0872665,-0.698132,-0.174533,-0.174533,-0.0950659,-0.69642,-0.172822,-0.20321,1.55989,-0.0958297,-0.0513474,0.860334
26,40,-0.0872665,-0.698132,-0.174533,-0.174533,-0.0950659,-0.69642,-0.172822,-0.20321,1.55989,-0.0958297,-0.0513474,0.860334
26,40,-0.0872665,-0.698132,-0.174533,-0.174533,-0.0950659,-0.69642,-0.172822,-0.20321,1.55989,-0.0958297,-0.0513474,0.860334
26,40,-0.0872665,-0.698132,-0.174533,-0.174533,-0.0950659,-0.69642,-0.172822,-0.20321,1.55989,-0.0958297,-0.0513474,0.860334
26,40,-0.0872665,-0.698132,-0.174533,-0.174533,-0.0950659,-0.69642,-0.172822,-0.20321,1.55989,-0.0958297,-0.0513474,0.860334
26,40,-0.0872665,-0.698132,-0.174533,-0.174533,-0.0950659,-0.69642,-0.172822,-0.20321,1.55989,-0.0958297,-0.0513474,0.860334
26,40,-0.0872665,-0.698132,-0.174533,-0.174533,-0.0950659,-0.69642,-0.172822,-0.20321,1.55989,-0.0958297,-0.0513474,0.860334
26,40,-0.0872665,-0.698132,-0.174533,-0.174533,-0.0950659,-0.69642,-0.172822,-0.20321,1.55989,-0.0958297,-0.0513474,0.860334
26,40,-0.0872665,-0.698132,-0.174533,-0.174533,-0.0950659,-0.69642,-0.172822,-0.20321,1.55989,-0.0958297,-0.0513474,0.860334
26,40,-0.0872665,-0.698132,-0.174533,-0.174533,-0.0950659,-0.69642,-0.172822,-0.20321,1.55989,-0.0958297,-0.0513474,0.860334
26,40,-0.0872665,-0.698132,-0.174533,-0.174533,-0.0950659,-0.69642,-0.172822,-0.20321,1.55989,-0.0958297,-0.0513474,0.860334
26,40,-0.0872665,-0.698132,-0.174533,-0.174533,-0.0950659,-0.69642,-0.172822,-0.20321,1.55989,-0.0958297,-0.0513474,0.860334
26,40,-0.0872665,-0.698132,-0.174533,-0.174533,-0.0950659,-0.69642,-0.17276,-0.203229,1.55989,-0.0958297,-0.0531973,0.860892
26,40,-0.0872665,-0.698132,-0.174533,-0.174533,-0.0950659,-0.69642,-0.17276,-0.203229,1.55989,-0.0958297,-0.0531973,0.860892
26,40,-0.0872665,-0.698132,-0.174533,-0.174533,-0.0950659,-0.69642,-0.17276,-0.203229,1.55989,-0.0958297,-0.0531974,0.860891
26,40,-0.0872665,-0.698132,-0.174533,-0.174533,-0.0950659,-0.69642,-0.17276,-0.203229,1.55989,-0.0958297,-0.0531974,0.860891
26,40,-0.0872665,-0.698132,-0.174533,-0.174533,-0.0950659,-0.69642,-0.17276,-0.203229,1.55989,-0.0958297,-0.0531974,0.860891
26,40,-0.0872665,-0.698132,-0.174533,-0.174533,-0.0950659,-0.69642,-0.17276,-0.203229,1.55989,-0.0958297,-0.0531974,0.860891
26,40,-0.0872665,-0.698132,-0.174533,-0.174533,-0.0950659,-0.69642,-0.17276,-0.203229,1.55989,-0.0958297,-0.0531974,0.860891
26,40,-0.0872665,-0.698132,-0.174533,-0.174533,-0.0950659,-0.69642,-0.17276,-0.203229,1.55989,-0.0958297,-0.0531974,0.860891
26,40,-0.0872665,-0.698132,-0.174533,-0.174533,-0.0950659,-0.69642,-0.17276,-0.203229,1.55989,-0.0958297,-0.0531974,0.860891
26,40,-0.0872665,-0.698132,-0.174533,-0.174533,-0.0950659,-0.69642,-0.17276,-0.203229,1.55989,-0.0958297,-0.0531974,0.860891
26,40,-0.0872665,-0.698132,-0.174533,-0.174533,-0.0950659,-0.69642,-0.17276,-0.203229,1.55989,-0.0958297,-0.0531974,0.860891
26,40,-0.0872665,-0.698132,-0.174533,-0.174533,-0.0950659,-0.69642,-0.17276,-0.203229,1.55989,-0.0958297,-0.0531974,0.860891
26,40,-0.0872665,-0.698132,-0.174533,-0.174533,-0.0950659,-0.69642,-0.17276,-0.203229,1.55989,-0.0958297,-0.0531974,0.860891
26,40,-0.0872665,-0.698132,-0.174533,-0.174533,-0.0950659,-0.69642,-0.17276,-0.203229,1.55989,-0.0958297,-0.0531974,0.860891
26,40,-0.0872665,-0.698132,-0.174533,-0.174533,-0.0950659,-0.69642,-0.17276,-0.203229,1.55989,-0.0958297,-0.0531974,0.860891
26,40,-0.0872665,-0.698132,-0.174533,-0.174533,-0.0950659,-0.69642,-0.17276,-0.203229,1.55989,-0.0958297,-0.0531974,0.860891
26,40,-0.0872665,-0.698132,-0.174533,-0.174533,-0.0950659,-0.69642,-0.17276,-0.203229,1.55989,-0.0958297,-0.0531974,0.860891
26,40,-0.0872665,-0.698132,-0.174533,-0.174533,-0.0950659,-0.69642,-0.17276,-0.203229,1.55989,-0.0958297,-0.0531974,0.860891
26,40,-0.0872665,-0.698132,-0.174533,-0.174533,-0.0950659,-0.69642,-0.17276,-0.203229,1.55989,-0.0958297,-0.0531974,0.860891
26,40,-0.0872665,-0.698132,-0.174533,-0.174533,-0.0950659,-0.69642,-0.17276,-0.203229,1.55989,-0.0958297,-0.0531974,0.860891
26,40,-0.0872665,-0.698132,-0.174533,-0.174533,-0.0950659,-0.69642,-0.17276,-0.203229,1.55989,-0.0958297,-0.0531974,0.860891
26,40,-0.0872665,-0.698132,-0.174533,-0.174533,-0.0950659,-0.69642,-0.17276,-0.203229,1.55989,-0.0958297,-0.0531974,0.860891
26,40,-0.0872665,-0.698132,-0.174533,-0.174533,-0.0950659,-0.69642,-0.17276,-0.203229,1.55989,-0.0958297,-0.0531974,0.860891
26,40,-0.0872665,-0.698132,-0.174533,-0.174533,-0.0950659,-0.69642,-0.17276,-0.203229,1.55989,-0.0958297,-0.0531974,0.860891
26,40,-0.0872665,-0.698132,-0.174533,-0.174533,-0.0950659,-0.69642,-0.17276,-0.203229,1.55989,-0.0958297,-0.0531974,0.860891
26,40,-0.0872665,-0.698132,-0.174533,-0.174533,-0.0950659,-0.69642,-0.17276,-0.203229,1.55989,-0.0958297,-0.0531974,0.860891
26,40,-0.0872665,-0.698132,-0.174533,-0.174533,-0.0950659,-0.69642,-0.17276,-0.203229,1.55989,-0.0958297,-0.0531974,0.860891
26,40,-0.0872665,-0.698132,-0.174533,-0.174533,-0.0950659,-0.69642,-0.17276,-0.203229,1.55989,-0.0958297,-0.0531974,0.860891
26,40,-0.0872665,-0.698132,-0.174533,-0.174533,-0.0950659,-0.69642,-0.17276,-0.203229,1.55989,-0.0958297,-0.0531974,0.860891
26,40,-0.0872665,-0.698132,-0.174533,-0.174533,-0.0950659,-0.69642,-0.17276,-0.203229,1.55989,-0.0958297,-0.0531974,0.860891
26,40,-0.0872665,-0.698132,-0.174533,-0.174533,-0.0950659,-0.69642,-0.17276,-0.203229,1.55989,-0.0958297,-0.0531974,0.860891
26,40,-0.0872665,-0.698132,-0.174533,-0.174533,-0.0950659,-0.69642,-0.17276,-0.203229,1.55989,-0.0958297,-0.0531974,0.860891
26,40,-0.0872665,-0.698132,-0.174533,-0.174533,-0.0950659,-0.69642,-0.17276,-0.203229,1.55989,-0.0958297,-0.0531974,0.860891
26,40,-0.0872665,-0.698132,-0.174533,-0.174533,-0.0950659,-0.69642,-0.17276,-0.203229,1.55989,-0.0958297,-0.0531974,0.860891
26,40,-0.0872665,-0.698132,-0.174533,-0.174533,-0.0950659,-0.69642,-0.17276,-0.203229,1.55989,-0.0958297,-0.0531974,0.860891
26,40,-0.0872665,-0.698132,-0.174533,-0.174533,-0.0950659,-0.69642,-0.17276,-0.203229,1.55989,-0.0958297,-0.0531974,0.860891
26,40,-0.0872665,-0.698132,-0.174533,-0.174533,-0.0950659,-0.69642,-0.17276,-0.203229,1.55989,-0.0958297,-0.0531974,0.860891
26,40,-0.0872665,-0.698132,-0.174533,-0.174533,-0.0950659,-0.69642,-0.17276,-0.203229,1.55989,-0.0958297,-0.0531974,0.860891
26,40,-0.0872665,-0.698132,-0.174533,-0.174533,-0.0950659,-0.69642,-0.17276,-0.203229,1.55989,-0.0958297,-0.0531974,0.860891
26,40,-0.0872665,-0.698132,-0.174533,-0.174533,-0.0950659,-0.69642,-0.17276,-0.203229,1.55989,-0.0958297,-0.0531974,0.860891
26,40,-0.0872665,-0.698132,-0.174533,-0.174533,-0.0950659,-0.69642,-0.17276,-0.203229,1.55989,-0.0958297,-0.0531974,0.860891
26,40,-0.0872665,-0.698132,-0.174533,-0.174533,-0.0950659,-0.69642,-0.17276,-0.203229,1.55989,-0.0958297,-0.0531974,0.860891
26,40,-0.0872665,-0.698132,-0.174533,-0.174533,-0.0950659,-0.69642,-0.17276,-0.203229,1.55989,-0.0958297,-0.0531974,0.860891
26,40,-0.0872665,-0.698132,-0.174533,-0.174533,-0.0950659,-0.69642,-0.17276,-0.203229,1.55989,-0.0958297,-0.0531974,0.860891
26,40,-0.0872665,-0.698132,-0.174533,-0.174533,-0.0950659,-0.69642,-0.17276,-0.203229,1.55989,-0.0958297,-0.0531974,0.860891
26,40,-0.0872665,-0.698132,-0.174533,-0.174533,-0.0950659,-0.69642,-0.17276,-0.203229,1.55989,-0.0958297,-0.0531974,0.860891
26,40,-0.0872665,-0.698132,-0.174533,-0.174533,-0.0950659,-0.69642,-0.17276,-0.203229,1.55989,-0.0958297,-0.0531974,0.860891
26,40,-0.0872665,-0.698132,-0.174533,-0.174533,-0.0950659,-0.69642,-0.17276,-0.203229,1.55989,-0.0958297,-0.0531974,0.860891
26,40,-0.0872665,-0.698132,-0.174533,-0.174533,-0.0950659,-0.69642,-0.17276,-0.203229,1.55989,-0.0958297,-0.0531974,0.860891
26,40,-0.0872665,-0.698132,-0.174533,-0.174533,-0.0950659,-0.69642,-0.17276,-0.203229,1.55989,-0.0958297,-0.0531974,0.860891
26,40,-0.0872665,-0.698132,-0.174533,-0.174533,-0.0950659,-0.69642,-0.17276,-0.203229,1.55989,-0.0958297,-0.0531974,0.860891
26,40,-0.0872665,-0.698132,-0.174533,-0.174533,-0.0950659,-0.69642,-0.17276,-0.203229,1.55989,-0.0958297,-0.0531974,0.860891
26,40,-0.0872665,-0.698132,-0.174533,-0.174533,-0.0950659,-0.69642,-0.17276,-0.203229,1.55989,-0.0958297,-0.0531974,0.860891
26,40,-0.0872665,-0.698132,-0.174533,-0.174533,-0.0950659,-0.69642,-0.17276,-0.203229,1.55989,-0.0958297,-0.0531974,0.860891
26,40,-0.0872665,-0.698132,-0.174533,-0.174533,-0.0950659,-0.69642,-0.17276,-0.203229,1.55989,-0.0958297,-0.0531974,0.860891
26,40,-0.0872665,-0.698132,-0.174533,-0.174533,-0.0950659,-0.69642,-0.17276,-0.203229,1.55989,-0.0958297,-0.0531974,0.860891
26,40,-0.0872665,-0.698132,-0.174533,-0.174533,-0.0950659,-0.69642,-0.17276,-0.203229,1.55989,-0.0958297,-0.0531974,0.860891
26,40,-0.0872665,-0.698132,-0.174533,-0.174533,-0.0950659,-0.69642,-0.17276,-0.203229,1.55989,-0.0958297,-0.0531974,0.860891
26,40,-0.0872665,-0.698132,-0.174533,-0.174533,-0.0950659,-0.69642,-0.17276,-0.203229,1.55989,-0.0958297,-0.0531974,0.860891
26,40,-0.0872665,-0.698132,-0.174533,-0.174533,-0.0950659,-0.69642,-0.17276,-0.203229,1.55989,-0.0958297,-0.0531974,0.860891
26,40,-0.0872665,-0.698132,-0.174533,-0.174533,-0.0950659,-0.69642,-0.17276,-0.203229,1.55989,-0.0958297,-0.0531974,0.860891
26,40,-0.0872665,-0.698132,-0.174533,-0.174533,-0.0950659,-0.69642,-0.17276,-0.203229,1.55989,-0.0958297,-0.0531974,0.860891
26,40,-0.0872665,-0.698132,-0.174533,-0.174533,-0.0950659,-0.69642,-0.17276,-0.203229,1.55989,-0.0958297,-0.0531974,0.860891
26,40,-0.0872665,-0.698132,-0.174533,-0.174533,-0.0950659,-0.69642,-0.17276,-0.203229,1.55989,-0.0958297,-0.0531974,0.860891
26,40,-0.0872665,-0.698132,-0.174533,-0.174533,-0.0950659,-0.69642,-0.17276,-0.203229,1.55989,-0.0958297,-0.0531974,0.860891
26,40,-0.0872665,-0.698132,-0.174533,-0.174533,-0.0950659,-0.69642,-0.17276,-0.203229,1.55989,-0.0958297,-0.0531974,0.860891
26,40,-0.0872665,-0.698132,-0.174533,-0.174533,-0.0950659,-0.69642,-0.17276,-0.203229,1.55989,-0.0958297,-0.0531974,0.860891
26,40,-0.0872665,-0.698132,-0.174533,-0.174533,-0.0950659,-0.69642,-0.172764,-0.203289,1.55989,-0.0958297,-0.0530813,0.862687
26,40,-0.0872665,-0.698132,-0.174533,-0.174533,-0.0950659,-0.69642,-0.172764,-0.203289,1.55989,-0.0958297,-0.0530813,0.862687
26,40,-0.0872665,-0.698132,-0.174533,-0.174533,-0.0950659,-0.69642,-0.172764,-0.203289,1.55989,-0.0958297,-0.0530813,0.862687
26,40,-0.0872665,-0.698132,-0.174533,-0.174533,-0.0950659,-0.69642,-0.172764,-0.203289,1.55989,-0.0958297,-0.0530813,0.862687
26,40,-0.0872665,-0.698132,-0.174533,-0.174533,-0.0950659,-0.69642,-0.172764,-0.203289,1.55989,-0.0958297,-0.0530813,0.862687
26,40,-0.0872665,-0.698132,-0.174533,-0.174533,-0.0950659,-0.69642,-0.172764,-0.203289,1.55989,-0.0958297,-0.0530813,0.862687
26,40,-0.0872665,-0.698132,-0.174533,-0.174533,-0.0950659,-0.69642,-0.172764,-0.203289,1.55989,-0.0958297,-0.0530813,0.862687
26,40,-0.0872665,-0.698132,-0.174533,-0.174533,-0.0950659,-0.69642,-0.172833,-0.203332,1.55989,-0.0958297,-0.0510124,0.863995
26,40,-0.0872665,-0.698132,-0.174533,-0.174533,-0.0950659,-0.69642,-0.172833,-0.203332,1.55989,-0.0958297,-0.0510124,0.863995
26,40,-0.0872665,-0.698132,-0.174533,-0.174533,-0.0950659,-0.69642,-0.172833,-0.203332,1.55989,-0.0958297,-0.0510124,0.863995
26,40,-0.0872665,-0.698132,-0.174533,-0.174533,-0.0950659,-0.69642,-0.172833,-0.203332,1.55989,-0.0958297,-0.0510124,0.863995
26,40,-0.0872665,-0.698132,-0.174533,-0.174533,-0.0950659,-0.69642,-0.172833,-0.203332,1.55989,-0.0958297,-0.0510124,0.863995
26,40,-0.0872665,-0.698132,-0.174533,-0.174533,-0.0950659,-0.69642,-0.172833,-0.203332,1.55989,-0.0958297,-0.0510124,0.863995
26,40,-0.0872665,-0.698132,-0.174533,-0.174533,-0.0950659,-0.69642,-0.172833,-0.203332,1.55989,-0.0958297,-0.0510124,0.863995
26,40,-0.0872665,-0.698132,-0.174533,-0.174533,-0.0950659,-0.69642,-0.172833,-0.203332,1.55989,-0.0958297,-0.0510124,0.863995
26,40,-0.0872665,-0.698132,-0.174533,-0.174533,-0.0950659,-0.69642,-0.172833,-0.203332,1.55989,-0.0958297,-0.0510124,0.863995
26,40,-0.0872665,-0.698132,-0.174533,-0.174533,-0.0950659,-0.69642,-0.172833,-0.203332,1.55989,-0.0958297,-0.0510124,0.863995
26,40,-0.0872665,-0.698132,-0.174533,-0.174533,-0.0950659,-0.69642,-0.172833,-0.203332,1.55989,-0.0958297,-0.0510124,0.863995
26,40,-0.0872665,-0.698132,-0.174533,-0.174533,-0.0950659,-0.69642,-0.172833,-0.203332,1.55989,-0.0958297,-0.0510124,0.863995
26,40,-0.0872665,-0.698132,-0.174533,-0.174533,-0.0950659,-0.69642,-0.172833,-0.203332,1.55989,-0.0958297,-0.0510124,0.863995
26,40,-0.0872665,-0.698132,-0.174533,-0.174533,-0.0950659,-0.69642,-0.172833,-0.203332,1.55989,-0.0958297,-0.0510124,0.863995
26,40,-0.0872665,-0.698132,-0.174533,-0.174533,-0.0950659,-0.69642,-0.172833,-0.203332,1.55989,-0.0958297,-0.0510124,0.863995
26,40,-0.0872665,-0.698132,-0.174533,-0.174533,-0.0950659,-0.69642,-0.172833,-0.203332,1.55989,-0.0958297,-0.0510124,0.863995
26,40,-0.0872665,-0.698132,-0.174533,-0.174533,-0.0950659,-0.69642,-0.172833,-0.203332,1.55989,-0.0958297,-0.0510124,0.863995
26,40,-0.0872665,-0.698132,-0.174533,-0.174533,-0.0950659,-0.69642,-0.172833,-0.203332,1.55989,-0.0958297,-0.0510124,0.863995
26,40,-0.0872665,-0.698132,-0.174533,-0.174533,-0.0950659,-0.69642,-0.172833,-0.203332,1.55989,-0.0958297,-0.0510124,0.863995
26,40,-0.0872665,-0.698132,-0.174533,-0.174533,-0.0950659,-0.69642,-0.172833,-0.203332,1.55989,-0.0958297,-0.0510124,0.863995
26,40,-0.0872665,-0.698132,-0.174533,-0.174533,-0.0950659,-0.69642,-0.172833,-0.203332,1.55989,-0.0958297,-0.0510124,0.863995
26,40,-0.0872665,-0.698132,-0.174533,-0.174533,-0.0950659,-0.69642,-0.172833,-0.203332,1.55989,-0.0958297,-0.0510124,0.863995
26,40,-0.0872665,-0.698132,-0.174533,-0.174533,-0.0950659,-0.69642,-0.172771,-0.203351,1.55989,-0.0958297,-0.0528586,0.864552
26,40,-0.0872665,-0.698132,-0.174533,-0.174533,-0.0950659,-0.69642,-0.172771,-0.203351,1.55989,-0.0958297,-0.0528586,0.864552
26,40,-0.0872665,-0.698132,-0.174533,-0.174533,-0.0950659,-0.69642,-0.172771,-0.203351,1.55989,-0.0958297,-0.0528586,0.864552
26,40,-0.0872665,-0.698132,-0.174533,-0.174533,-0.0950659,-0.69642,-0.172771,-0.203351,1.55989,-0.0958297,-0.0528586,0.864552
26,40,-0.0872665,-0.698132,-0.174533,-0.174533,-0.0950659,-0.69642,-0.172771,-0.203351,1.55989,-0.0958297,-0.0528586,0.864552
26,40,-0.0872665,-0.698132,-0.174533,-0.174533,-0.0950659,-0.69642,-0.172771,-0.203351,1.55989,-0.0958297,-0.0528586,0.864552
26,40,-0.0872665,-0.698132,-0.174533,-0.174533,-0.0950659,-0.69642,-0.172771,-0.203351,1.55989,-0.0958297,-0.0528586,0.864552
26,40,-0.0872665,-0.698132,-0.174533,-0.174533,-0.0950659,-0.69642,-0.172771,-0.203351,1.55989,-0.0958297,-0.0528586,0.864552
26,40,-0.0872665,-0.698132,-0.174533,-0.174533,-0.0950659,-0.69642,-0.172771,-0.203351,1.55989,-0.0958297,-0.0528586,0.864552
26,40,-0.0872665,-0.698132,-0.174533,-0.174533,-0.0950659,-0.69642,-0.172771,-0.203351,1.55989,-0.0958297,-0.0528586,0.864552
26,40,-0.0872665,-0.698132,-0.174533,-0.174533,-0.0950659,-0.69642,-0.172771,-0.203351,1.55989,-0.0958297,-0.0528586,0.864552
26,40,-0.0872665,-0.698132,-0.174533,-0.174533,-0.0950659,-0.69642,-0.172771,-0.203351,1.55989,-0.0958297,-0.0528586,0.864552
26,40,-0.0872665,-0.698132,-0.174533,-0.174533,-0.0950659,-0.69642,-0.172771,-0.203351,1.55989,-0.0958297,-0.0528586,0.864552
26,40,-0.0872665,-0.698132,-0.174533,-0.174533,-0.0950659,-0.69642,-0.172771,-0.203351,1.55989,-0.0958297,-0.0528586,0.864552
26,40,-0.0872665,-0.698132,-0.174533,-0.174533,-0.0950659,-0.69642,-0.172771,-0.203351,1.55989,-0.0958297,-0.0528586,0.864552
26,40,-0.0872665,-0.698132,-0.174533,-0.174533,-0.0950659,-0.69642,-0.172771,-0.203351,1.55989,-0.0958297,-0.0528586,0.864552
26,40,-0.0872665,-0.698132,-0.174533,-0.174533,-0.0950659,-0.69642,-0.172771,-0.203351,1.55989,-0.0958297,-0.0528586,0.864552
26,40,-0.0872665,-0.698132,-0.174533,-0.174533,-0.0950659,-0.69642,-0.172771,-0.203351,1.55989,-0.0958297,-0.0528586,0.864552
26,40,-0.0872665,-0.698132,-0.174533,-0.174533,-0.0950659,-0.69642,-0.172771,-0.203351,1.55989,-0.0958297,-0.0528586,0.864552
26,40,-0.0872665,-0.698132,-0.174533,-0.174533,-0.0950659,-0.69642,-0.172771,-0.203351,1.55989,-0.0958297,-0.0528586,0.864552
26,40,-0.0872665,-0.698132,-0.174533,-0.174533,-0.0950659,-0.69642,-0.172771,-0.203351,1.55989,-0.0958297,-0.0528586,0.864552
26,40,-0.0872665,-0.698132,-0.174533,-0.174533,-0.0950659,-0.69642,-0.172771,-0.203351,1.55989,-0.0958297,-0.0528586,0.864552
26,40,-0.0872665,-0.698132,-0.174533,-0.174533,-0.0950659,-0.69642,-0.172771,-0.203351,1.55989,-0.0958297,-0.0528586,0.864552
26,40,-0.0872665,-0.698132,-0.174533,-0.174533,-0.0950659,-0.69642,-0.172771,-0.203351,1.55989,-0.0958297,-0.0528586,0.864552
26,40,-0.0872665,-0.698132,-0.174533,-0.174533,-0.0950659,-0.69642,-0.172771,-0.203351,1.55989,-0.0958297,-0.0528586,0.864552
26,40,-0.0872665,-0.698132,-0.174533,-0.174533,-0.0950659,-0.69642,-0.172771,-0.203351,1.55989,-0.0958297,-0.0528586,0.864552
26,40,-0.0872665,-0.698132,-0.174533,-0.174533,-0.0950659,-0.69642,-0.172771,-0.203351,1.55989,-0.0958297,-0.0528586,0.864552
26,40,-0.0872665,-0.698132,-0.174533,-0.174533,-0.0950659,-0.69642,-0.172771,-0.203351,1.55989,-0.0958297,-0.0528586,0.864552
26,40,-0.0872665,-0.698132,-0.174533,-0.174533,-0.0950659,-0.69642,-0.172771,-0.203351,1.55989,-0.0958297,-0.0528586,0.864552
26,40,-0.0872665,-0.698132,-0.174533,-0.174533,-0.0950659,-0.69642,-0.172771,-0.203351,1.55989,-0.0958297,-0.0528586,0.864552
26,40,-0.0872665,-0.698132,-0.174533,-0.174533,-0.0950659,-0.69642,-0.172771,-0.203351,1.55989,-0.0958297,-0.0528586,0.864552
26,40,-0.0872665,-0.698132,-0.174533,-0.174533,-0.0950659,-0.69642,-0.172771,-0.203351,1.55989,-0.0958297,-0.0528586,0.864552
26,40,-0.0872665,-0.698132,-0.174533,-0.174533,-0.0950659,-0.69642,-0.172771,-0.203351,1.55989,-0.0958297,-0.0528586,0.864552
26,40,-0.0872665,-0.698132,-0.174533,-0.174533,-0.0950659,-0.69642,-0.172771,-0.203351,1.55989,-0.0958297,-0.0528586,0.864552
26,40,-0.0872665,-0.698132,-0.174533,-0.174533,-0.0950659,-0.69642,-0.172771,-0.203351,1.55989,-0.0958297,-0.0528586,0.864552
26,40,-0.0872665,-0.698132,-0.174533,-0.174533,-0.0950659,-0.69642,-0.172771,-0.203351,1.55989,-0.0958297,-0.0528586,0.864552
26,40,-0.0872665,-0.698132,-0.174533,-0.174533,-0.0950659,-0.69642,-0.172771,-0.203351,1.55989,-0.0958297,-0.0528586,0.864552
26,40,-0.0872665,-0.698132,-0.174533,-0.174533,-0.0950659,-0.69642,-0.172771,-0.203351,1.55989,-0.0958297,-0.0528586,0.864552
26,40,-0.0872665,-0.698132,-0.174533,-0.174533,-0.0950659,-0.69642,-0.172771,-0.203351,1.55989,-0.0958297,-0.0528586,0.864552
26,40,-0.0872665,-0.698132,-0.174533,-0.174533,-0.0950659,-0.69642,-0.172771,-0.203351,1.55989,-0.0958297,-0.0528586,0.864552
26,40,-0.0872665,-0.698132,-0.174533,-0.174533,-0.0950659,-0.69642,-0.172771,-0.203351,1.55989,-0.0958297,-0.0528586,0.864552
26,40,-0.0872665,-0.698132,-0.174533,-0.174533,-0.0950659,-0.69642,-0.172771,-0.203351,1.55989,-0.0958297,-0.0528586,0.864552
26,40,-0.0872665,-0.698132,-0.174533,-0.174533,-0.0950659,-0.69642,-0.17271,-0.20337,1.55989,-0.0958297,-0.054706,0.865108
26,40,-0.0872665,-0.698132,-0.174533,-0.174533,-0.0950659,-0.69642,-0.17271,-0.20337,1.55989,-0.0958297,-0.054706,0.865108
26,40,-0.0872665,-0.698132,-0.174533,-0.174533,-0.0950659,-0.69642,-0.17271,-0.20337,1.55989,-0.0958297,-0.054706,0.865108
26,40,-0.0872665,-0.698132,-0.174533,-0.174533,-0.0950659,-0.69642,-0.17271,-0.20337,1.55989,-0.0958297,-0.054706,0.865108
26,40,-0.0872665,-0.698132,-0.174533,-0.174533,-0.0950659,-0.69642,-0.17271,-0.20337,1.55989,-0.0958297,-0.054706,0.865108
26,40,-0.0872665,-0.698132,-0.174533,-0.174533,-0.0950659,-0.69642,-0.17271,-0.20337,1.55989,-0.0958297,-0.054706,0.865108
26,40,-0.0872665,-0.698132,-0.174533,-0.174533,-0.0950659,-0.69642,-0.17271,-0.20337,1.55989,-0.0958297,-0.054706,0.865108
26,40,-0.0872665,-0.698132,-0.174533,-0.174533,-0.0950659,-0.69642,-0.17271,-0.20337,1.55989,-0.0958297,-0.054706,0.865108
26,40,-0.0872665,-0.698132,-0.174533,-0.174533,-0.0950659,-0.69642,-0.17271,-0.20337,1.55989,-0.0958297,-0.054706,0.865108
26,40,-0.0872665,-0.698132,-0.174533,-0.174533,-0.0950659,-0.69642,-0.17271,-0.20337,1.55989,-0.0958297,-0.054706,0.865108
26,40,-0.0872665,-0.698132,-0.174533,-0.174533,-0.0950659,-0.69642,-0.17271,-0.20337,1.55989,-0.0958297,-0.054706,0.865108
26,40,-0.0872665,-0.698132,-0.174533,-0.174533,-0.0950659,-0.69642,-0.17271,-0.20337,1.55989,-0.0958297,-0.054706,0.865108
26,40,-0.0872665,-0.698132,-0.174533,-0.174533,-0.0950659,-0.69642,-0.17271,-0.20337,1.55989,-0.0958297,-0.054706,0.865108
26,40,-0.0872665,-0.698132,-0.174533,-0.174533,-0.0950659,-0.69642,-0.17271,-0.20337,1.55989,-0.0958297,-0.054706,0.865108
26,40,-0.0872665,-0.698132,-0.174533,-0.174533,-0.0950659,-0.69642,-0.17271,-0.20337,1.55989,-0.0958297,-0.054706,0.865108
26,40,-0.0872665,-0.698132,-0.174533,-0.174533,-0.0950659,-0.69642,-0.17271,-0.20337,1.55989,-0.0958297,-0.054706,0.865108
26,40,-0.0872665,-0.698132,-0.174533,-0.174533,-0.0950659,-0.69642,-0.17271,-0.20337,1.55989,-0.0958297,-0.054706,0.865108
26,40,-0.0872665,-0.698132,-0.174533,-0.174533,-0.0950659,-0.69642,-0.17271,-0.20337,1.55989,-0.0958297,-0.054706,0.865108
26,40,-0.0872665,-0.698132,-0.174533,-0.174533,-0.0950659,-0.69642,-0.17271,-0.20337,1.55989,-0.0958297,-0.054706,0.865108
26,40,-0.0872665,-0.698132,-0.174533,-0.174533,-0.0950659,-0.69642,-0.17271,-0.20337,1.55989,-0.0958297,-0.054706,0.865108
26,40,-0.0872665,-0.698132,-0.174533,-0.174533,-0.0950659,-0.69642,-0.17271,-0.20337,1.55989,-0.0958297,-0.054706,0.865108
26,40,-0.0872665,-0.698132,-0.174533,-0.174533,-0.0950659,-0.69642,-0.17271,-0.20337,1.55989,-0.0958297,-0.054706,0.865108
26,40,-0.0872665,-0.698132,-0.174533,-0.174533,-0.0950659,-0.69642,-0.17271,-0.20337,1.55989,-0.0958297,-0.054706,0.865108
26,40,-0.0872665,-0.698132,-0.174533,-0.174533,-0.0950659,-0.69642,-0.17271,-0.20337,1.55989,-0.0958297,-0.054706,0.865108
26,40,-0.0872665,-0.698132,-0.174533,-0.174533,-0.0950659,-0.69642,-0.17271,-0.20337,1.55989,-0.0958297,-0.054706,0.865108
26,40,-0.0872665,-0.698132,-0.174533,-0.174533,-0.0950659,-0.69642,-0.17271,-0.20337,1.55989,-0.0958297,-0.054706,0.865108
26,40,-0.0872665,-0.698132,-0.174533,-0.174533,-0.0950659,-0.69642,-0.17271,-0.20337,1.55989,-0.0958297,-0.054706,0.865108
26,40,-0.0872665,-0.698132,-0.174533,-0.174533,-0.0950659,-0.69642,-0.17271,-0.20337,1.55989,-0.0958297,-0.054706,0.865108
26,40,-0.0872665,-0.698132,-0.174533,-0.174533,-0.0950659,-0.69642,-0.17271,-0.20337,1.55989,-0.0958297,-0.054706,0.865108
26,40,-0.0872665,-0.698132,-0.174533,-0.174533,-0.0950659,-0.69642,-0.17271,-0.20337,1.55989,-0.0958297,-0.054706,0.865108
26,40,-0.0872665,-0.698132,-0.174533,-0.174533,-0.0950659,-0.69642,-0.17271,-0.20337,1.55989,-0.0958297,-0.054706,0.865108
26,40,-0.0872665,-0.698132,-0.174533,-0.174533,-0.0950659,-0.69642,-0.17271,-0.20337,1.55989,-0.0958297,-0.054706,0.865108
26,40,-0.0872665,-0.698132,-0.174533,-0.174533,-0.0950659,-0.69642,-0.17271,-0.20337,1.55989,-0.0958297,-0.054706,0.865108
26,40,-0.0872665,-0.698132,-0.174533,-0.174533,-0.0950659,-0.69642,-0.17271,-0.20337,1.55989,-0.0958297,-0.054706,0.865108
26,40,-0.0872665,-0.698132,-0.174533,-0.174533,-0.0950659,-0.69642,-0.17271,-0.20337,1.55989,-0.0958297,-0.054706,0.865108
26,40,-0.0872665,-0.698132,-0.174533,-0.174533,-0.0950659,-0.69642,-0.17271,-0.20337,1.55989,-0.0958297,-0.054706,0.865108
26,40,-0.0872665,-0.698132,-0.174533,-0.174533,-0.0950659,-0.69642,-0.17271,-0.20337,1.55989,-0.0958297,-0.054706,0.865108
26,40,-0.0872665,-0.698132,-0.174533,-0.174533,-0.0950659,-0.69642,-0.17271,-0.20337,1.55989,-0.0958297,-0.054706,0.865108
26,40,-0.0872665,-0.698132,-0.174533,-0.174533,-0.0950659,-0.69642,-0.17271,-0.20337,1.55989,-0.0958297,-0.054706,0.865108
26,40,-0.0872665,-0.698132,-0.174533,-0.174533,-0.0950659,-0.69642,-0.17271,-0.20337,1.55989,-0.0958297,-0.054706,0.865108
26,40,-0.0872665,-0.698132,-0.174533,-0.174533,-0.0950659,-0.69642,-0.17271,-0.20337,1.55989,-0.0958297,-0.054706,0.865108
26,40,-0.0872665,-0.698132,-0.174533,-0.174533,-0.0950659,-0.69642,-0.172648,-0.203388,1.55989,-0.0958297,-0.0565584,0.865666
26,40,-0.0872665,-0.698132,-0.174533,-0.174533,-0.0950659,-0.69642,-0.172648,-0.203388,1.55989,-0.0958297,-0.0565584,0.865666
26,40,-0.0872665,-0.698132,-0.174533,-0.174533,-0.0950659,-0.69642,-0.172648,-0.203388,1.55989,-0.0958297,-0.0565584,0.865666
26,40,-0.0872665,-0.698132,-0.174533,-0.174533,-0.0950659,-0.69642,-0.172648,-0.203388,1.55989,-0.0958297,-0.0565584,0.865666
26,40,-0.0872665,-0.698132,-0.174533,-0.174533,-0.0950659,-0.69642,-0.172648,-0.203388,1.55989,-0.0958297,-0.0565584,0.865666
26,40,-0.0872665,-0.698132,-0.174533,-0.174533,-0.0950659,-0.69642,-0.172648,-0.203388,1.55989,-0.0958297,-0.0565584,0.865666
26,40,-0.0872665,-0.698132,-0.174533,-0.174533,-0.0950659,-0.69642,-0.172648,-0.203388,1.55989,-0.0958297,-0.0565584,0.865666
26,40,-0.0872665,-0.698132,-0.174533,-0.174533,-0.0950659,-0.69642,-0.172648,-0.203388,1.55989,-0.0958297,-0.0565584,0.865666
26,40,-0.0872665,-0.698132,-0.174533,-0.174533,-0.0950659,-0.69642,-0.172648,-0.203388,1.55989,-0.0958297,-0.0565584,0.865666
26,40,-0.0872665,-0.698132,-0.174533,-0.174533,-0.0950659,-0.69642,-0.172648,-0.203388,1.55989,-0.0958297,-0.0565584,0.865666
26,40,-0.0872665,-0.698132,-0.174533,-0.174533,-0.0950659,-0.69642,-0.172648,-0.203388,1.55989,-0.0958297,-0.0565584,0.865666
26,40,-0.0872665,-0.698132,-0.174533,-0.174533,-0.0950659,-0.69642,-0.172648,-0.203388,1.55989,-0.0958297,-0.0565584,0.865666
26,40,-0.0872665,-0.698132,-0.174533,-0.174533,-0.0950659,-0.69642,-0.172648,-0.203388,1.55989,-0.0958297,-0.0565584,0.865666
26,40,-0.0872665,-0.698132,-0.174533,-0.174533,-0.0950659,-0.69642,-0.172648,-0.203388,1.55989,-0.0958297,-0.0565584,0.865666
26,40,-0.0872665,-0.698132,-0.174533,-0.174533,-0.0950659,-0.69642,-0.172648,-0.203388,1.55989,-0.0958297,-0.0565584,0.865666
26,40,-0.0872665,-0.698132,-0.174533,-0.174533,-0.0950659,-0.69642,-0.172648,-0.203388,1.55989,-0.0958297,-0.0565584,0.865666
26,40,-0.0872665,-0.698132,-0.174533,-0.174533,-0.0950659,-0.69642,-0.172648,-0.203388,1.55989,-0.0958297,-0.0565584,0.865666
26,40,-0.0872665,-0.698132,-0.174533,-0.174533,-0.0950659,-0.69642,-0.172648,-0.203388,1.55989,-0.0958297,-0.0565584,0.865666
26,40,-0.0872665,-0.698132,-0.174533,-0.174533,-0.0950659,-0.69642,-0.172648,-0.203388,1.55989,-0.0958297,-0.0565584,0.865666
26,40,-0.0872665,-0.698132,-0.174533,-0.174533,-0.0950659,-0.69642,-0.172648,-0.203388,1.55989,-0.0958297,-0.0565584,0.865666
26,40,-0.0872665,-0.698132,-0.174533,-0.174533,-0.0950659,-0.69642,-0.172648,-0.203388,1.55989,-0.0958297,-0.0565584,0.865666
26,40,-0.0872665,-0.698132,-0.174533,-0.174533,-0.0950659,-0.69642,-0.172648,-0.203388,1.55989,-0.0958297,-0.0565584,0.865666
26,40,-0.0872665,-0.698132,-0.174533,-0.174533,-0.0950659,-0.69642,-0.172648,-0.203388,1.55989,-0.0958297,-0.0565584,0.865666
26,40,-0.0872665,-0.698132,-0.174533,-0.174533,-0.0950659,-0.69642,-0.172648,-0.203388,1.55989,-0.0958297,-0.0565584,0.865666
26,40,-0.0872665,-0.698132,-0.174533,-0.174533,-0.0950659,-0.69642,-0.172648,-0.203388,1.55989,-0.0958297,-0.0565584,0.865666
26,40,-0.0872665,-0.698132,-0.174533,-0.174533,-0.0950659,-0.69642,-0.172648,-0.203388,1.55989,-0.0958297,-0.0565584,0.865666
26,40,-0.0872665,-0.698132,-0.174533,-0.174533,-0.0950659,-0.69642,-0.172648,-0.203388,1.55989,-0.0958297,-0.0565584,0.865666
26,40,-0.0872665,-0.698132,-0.174533,-0.174533,-0.0950659,-0.69642,-0.172648,-0.203388,1.55989,-0.0958297,-0.0565584,0.865666
26,40,-0.0872665,-0.698132,-0.174533,-0.174533,-0.0950659,-0.69642,-0.172648,-0.203388,1.55989,-0.0958297,-0.0565584,0.865666
26,40,-0.0872665,-0.698132,-0.174533,-0.174533,-0.0950659,-0.69642,-0.172648,-0.203388,1.55989,-0.0958297,-0.0565584,0.865666
26,40,-0.0872665,-0.698132,-0.174533,-0.174533,-0.0950659,-0.69642,-0.172648,-0.203388,1.55989,-0.0958297,-0.0565584,0.865666
26,40,-0.0872665,-0.698132,-0.174533,-0.174533,-0.0950659,-0.69642,-0.172648,-0.203388,1.55989,-0.0958297,-0.0565584,0.865666
26,40,-0.0872665,-0.698132,-0.174533,-0.174533,-0.0950659,-0.69642,-0.172648,-0.203388,1.55989,-0.0958297,-0.0565584,0.865666
26,40,-0.0872665,-0.698132,-0.174533,-0.174533,-0.0950659,-0.69642,-0.172648,-0.203388,1.55989,-0.0958297,-0.0565584,0.865666
26,40,-0.0872665,-0.698132,-0.174533,-0.174533,-0.0950659,-0.69642,-0.172648,-0.203388,1.55989,-0.0958297,-0.0565584,0.865666
26,40,-0.0872665,-0.698132,-0.174533,-0.174533,-0.0950659,-0.69642,-0.172648,-0.203388,1.55989,-0.0958297,-0.0565584,0.865666
26,40,-0.0872665,-0.698132,-0.174533,-0.174533,-0.0950659,-0.69642,-0.172648,-0.203388,1.55989,-0.0958297,-0.0565584,0.865666
26,40,-0.0872665,-0.698132,-0.174533,-0.174533,-0.0950659,-0.69642,-0.172648,-0.203388,1.55989,-0.0958297,-0.0565584,0.865666
26,40,-0.0872665,-0.698132,-0.174533,-0.174533,-0.0950659,-0.69642,-0.172648,-0.203388,1.55989,-0.0958297,-0.0565584,0.865666
26,40,-0.0872665,-0.698132,-0.174533,-0.174533,-0.0950659,-0.69642,-0.172648,-0.203388,1.55989,-0.0958297,-0.0565584,0.865666
26,40,-0.0872665,-0.698132,-0.174533,-0.174533,-0.0950659,-0.69642,-0.172648,-0.203388,1.55989,-0.0958297,-0.0565584,0.865666
26,40,-0.0872665,-0.698132,-0.174533,-0.174533,-0.0950659,-0.69642,-0.172648,-0.203388,1.55989,-0.0958297,-0.0565584,0.865666
26,40,-0.0872665,-0.698132,-0.174533,-0.174533,-0.0950659,-0.69642,-0.172648,-0.203388,1.55989,-0.0958297,-0.0565584,0.865666
26,40,-0.0872665,-0.698132,-0.174533,-0.174533,-0.0950659,-0.69642,-0.172648,-0.203388,1.55989,-0.0958297,-0.0565584,0.865666
26,40,-0.0872665,-0.698132,-0.174533,-0.174533,-0.0950659,-0.69642,-0.172648,-0.203388,1.55989,-0.0958297,-0.0565584,0.865666
26,40,-0.0872665,-0.698132,-0.174533,-0.174533,-0.0950659,-0.69642,-0.172648,-0.203388,1.55989,-0.0958297,-0.0565584,0.865666
26,40,-0.0872665,-0.698132,-0.174533,-0.174533,-0.0950659,-0.69642,-0.172648,-0.203388,1.55989,-0.0958297,-0.0565584,0.865666
26,40,-0.0872665,-0.698132,-0.174533,-0.174533,-0.0950659,-0.69642,-0.172648,-0.203388,1.55989,-0.0958297,-0.0565584,0.865666
26,40,-0.0872665,-0.698132,-0.174533,-0.174533,-0.0950659,-0.69642,-0.172648,-0.203388,1.55989,-0.0958297,-0.0565584,0.865666
26,40,-0.0872665,-0.698132,-0.174533,-0.174533,-0.0950659,-0.69642,-0.172648,-0.203388,1.55989,-0.0958297,-0.0565584,0.865666
26,40,-0.0872665,-0.698132,-0.174533,-0.174533,-0.0950659,-0.69642,-0.172648,-0.203388,1.55989,-0.0958297,-0.0565584,0.865666
26,40,-0.0872665,-0.698132,-0.174533,-0.174533,-0.0950659,-0.69642,-0.172648,-0.203388,1.55989,-0.0958297,-0.0565584,0.865666
26,40,-0.0872665,-0.698132,-0.174533,-0.174533,-0.0950659,-0.69642,-0.172648,-0.203388,1.55989,-0.0958297,-0.0565584,0.865666
26,40,-0.0872665,-0.698132,-0.174533,-0.174533,-0.0950659,-0.69642,-0.172586,-0.203407,1.55989,-0.0958297,-0.0584089,0.866224
26,40,-0.0872665,-0.698132,-0.174533,-0.174533,-0.0950659,-0.69642,-0.172586,-0.203407,1.55989,-0.0958297,-0.0584089,0.866224
26,40,-0.0872665,-0.698132,-0.174533,-0.174533,-0.0950659,-0.69642,-0.172586,-0.203407,1.55989,-0.0958297,-0.0584089,0.866224
26,40,-0.0872665,-0.698132,-0.174533,-0.174533,-0.0950659,-0.69642,-0.172586,-0.203407,1.55989,-0.0958297,-0.0584089,0.866224
26,40,-0.0872665,-0.698132,-0.174533,-0.174533,-0.0950659,-0.69642,-0.172586,-0.203407,1.55989,-0.0958297,-0.0584089,0.866224
26,40,-0.0872665,-0.698132,-0.174533,-0.174533,-0.0950659,-0.69642,-0.172586,-0.203407,1.55989,-0.0958297,-0.0584089,0.866224
26,40,-0.0872665,-0.698132,-0.174533,-0.174533,-0.0950659,-0.69642,-0.172586,-0.203407,1.55989,-0.0958297,-0.0584089,0.866224
26,40,-0.0872665,-0.698132,-0.174533,-0.174533,-0.0950659,-0.69642,-0.172586,-0.203407,1.55989,-0.0958297,-0.0584089,0.866224
26,40,-0.0872665,-0.698132,-0.174533,-0.174533,-0.0950659,-0.69642,-0.172586,-0.203407,1.55989,-0.0958297,-0.0584089,0.866224
26,40,-0.0872665,-0.698132,-0.174533,-0.174533,-0.0950659,-0.69642,-0.172586,-0.203407,1.55989,-0.0958297,-0.0584089,0.866224
26,40,-0.0872665,-0.698132,-0.174533,-0.174533,-0.0950659,-0.69642,-0.172586,-0.203407,1.55989,-0.0958297,-0.0584089,0.866224
26,40,-0.0872665,-0.698132,-0.174533,-0.174533,-0.0950659,-0.69642,-0.172586,-0.203407,1.55989,-0.0958297,-0.0584089,0.866224
26,40,-0.0872665,-0.698132,-0.174533,-0.174533,-0.0950659,-0.69642,-0.172586,-0.203407,1.55989,-0.0958297,-0.0584089,0.866224
26,40,-0.0872665,-0.698132,-0.174533,-0.174533,-0.0950659,-0.69642,-0.172586,-0.203407,1.55989,-0.0958297,-0.0584089,0.866224
26,40,-0.0872665,-0.698132,-0.174533,-0.174533,-0.0950659,-0.69642,-0.172586,-0.203407,1.55989,-0.0958297,-0.0584089,0.866224
26,40,-0.0872665,-0.698132,-0.174533,-0.174533,-0.0950659,-0.69642,-0.172586,-0.203407,1.55989,-0.0958297,-0.0584089,0.866224
26,40,-0.0872665,-0.698132,-0.174533,-0.174533,-0.0950659,-0.69642,-0.172586,-0.203407,1.55989,-0.0958297,-0.0584089,0.866224
26,40,-0.0872665,-0.698132,-0.174533,-0.174533,-0.0950659,-0.69642,-0.172586,-0.203407,1.55989,-0.0958297,-0.0584089,0.866224
26,40,-0.0872665,-0.698132,-0.174533,-0.174533,-0.0950659,-0.69642,-0.172586,-0.203407,1.55989,-0.0958297,-0.0584089,0.866224
26,40,-0.0872665,-0.698132,-0.174533,-0.174533,-0.0950659,-0.69642,-0.172586,-0.203407,1.55989,-0.0958297,-0.0584089,0.866224
26,40,-0.0872665,-0.698132,-0.174533,-0.174533,-0.0950659,-0.69642,-0.172586,-0.203407,1.55989,-0.0958297,-0.0584089,0.866224
26,40,-0.0872665,-0.698132,-0.174533,-0.174533,-0.0950659,-0.69642,-0.172586,-0.203407,1.55989,-0.0958297,-0.0584089,0.866224
26,40,-0.0872665,-0.698132,-0.174533,-0.174533,-0.0950659,-0.69642,-0.172586,-0.203407,1.55989,-0.0958297,-0.0584089,0.866224
26,40,-0.0872665,-0.698132,-0.174533,-0.174533,-0.0950659,-0.69642,-0.172586,-0.203407,1.55989,-0.0958297,-0.0584089,0.866224
26,40,-0.0872665,-0.698132,-0.174533,-0.174533,-0.0950659,-0.69642,-0.172586,-0.203407,1.55989,-0.0958297,-0.0584089,0.866224
26,40,-0.0872665,-0.698132,-0.174533,-0.174533,-0.0950659,-0.69642,-0.172586,-0.203407,1.55989,-0.0958297,-0.0584089,0.866224
26,40,-0.0872665,-0.698132,-0.174533,-0.174533,-0.0950659,-0.69642,-0.172586,-0.203407,1.55989,-0.0958297,-0.0584089,0.866224
26,40,-0.0872665,-0.698132,-0.174533,-0.174533,-0.0950659,-0.69642,-0.172586,-0.203407,1.55989,-0.0958297,-0.0584089,0.866224
26,40,-0.0872665,-0.698132,-0.174533,-0.174533,-0.0950659,-0.69642,-0.172586,-0.203407,1.55989,-0.0958297,-0.0584089,0.866224
26,40,-0.0872665,-0.698132,-0.174533,-0.174533,-0.0950659,-0.69642,-0.172586,-0.203407,1.55989,-0.0958297,-0.0584089,0.866224
26,40,-0.0872665,-0.698132,-0.174533,-0.174533,-0.0950659,-0.69642,-0.172525,-0.203425,1.55989,-0.0958297,-0.060261,0.866782
26,40,-0.0872665,-0.698132,-0.174533,-0.174533,-0.0950659,-0.69642,-0.172525,-0.203425,1.55989,-0.0958297,-0.060261,0.866782
26,40,-0.0872665,-0.698132,-0.174533,-0.174533,-0.0950659,-0.69642,-0.172525,-0.203425,1.55989,-0.0958297,-0.060261,0.866782
26,40,-0.0872665,-0.698132,-0.174533,-0.174533,-0.0950659,-0.69642,-0.172525,-0.203425,1.55989,-0.0958297,-0.060261,0.866782
26,40,-0.0872665,-0.698132,-0.174533,-0.174533,-0.0950659,-0.69642,-0.172525,-0.203425,1.55989,-0.0958297,-0.060261,0.866782
26,40,-0.0872665,-0.698132,-0.174533,-0.174533,-0.0950659,-0.69642,-0.172525,-0.203425,1.55989,-0.0958297,-0.060261,0.866782
26,40,-0.0872665,-0.698132,-0.174533,-0.174533,-0.0950659,-0.69642,-0.172525,-0.203425,1.55989,-0.0958297,-0.060261,0.866782
26,40,-0.0872665,-0.698132,-0.174533,-0.174533,-0.0950659,-0.69642,-0.172525,-0.203425,1.55989,-0.0958297,-0.060261,0.866782
26,40,-0.0872665,-0.698132,-0.174533,-0.174533,-0.0950659,-0.69642,-0.172525,-0.203425,1.55989,-0.0958297,-0.060261,0.866782
26,40,-0.0872665,-0.698132,-0.174533,-0.174533,-0.0950659,-0.69642,-0.172525,-0.203425,1.55989,-0.0958297,-0.060261,0.866782
26,40,-0.0872665,-0.698132,-0.174533,-0.174533,-0.0950659,-0.69642,-0.172525,-0.203425,1.55989,-0.0958297,-0.060261,0.866782
26,40,-0.0872665,-0.698132,-0.174533,-0.174533,-0.0950659,-0.69642,-0.172525,-0.203425,1.55989,-0.0958297,-0.060261,0.866782
26,40,-0.0872665,-0.698132,-0.174533,-0.174533,-0.0950659,-0.69642,-0.172525,-0.203425,1.55989,-0.0958297,-0.060261,0.866782
26,40,-0.0872665,-0.698132,-0.174533,-0.174533,-0.0950659,-0.69642,-0.172525,-0.203425,1.55989,-0.0958297,-0.060261,0.866782
26,40,-0.0872665,-0.698132,-0.174533,-0.174533,-0.0950659,-0.69642,-0.172525,-0.203425,1.55989,-0.0958297,-0.060261,0.866782
26,40,-0.0872665,-0.698132,-0.174533,-0.174533,-0.0950659,-0.69642,-0.172525,-0.203425,1.55989,-0.0958297,-0.0602612,0.866779
26,40,-0.0872665,-0.698132,-0.174533,-0.174533,-0.0950659,-0.69642,-0.172525,-0.203425,1.55989,-0.0958297,-0.0602612,0.866779
26,40,-0.0872665,-0.698132,-0.174533,-0.174533,-0.0950659,-0.69642,-0.172525,-0.203425,1.55989,-0.0958297,-0.0602612,0.866779
26,40,-0.0872665,-0.698132,-0.174533,-0.174533,-0.0950659,-0.69642,-0.172525,-0.203425,1.55989,-0.0958297,-0.0602612,0.866779
26,40,-0.0872665,-0.698132,-0.174533,-0.174533,-0.0950659,-0.69642,-0.172525,-0.203425,1.55989,-0.0958297,-0.0602612,0.866779
26,40,-0.0872665,-0.698132,-0.174533,-0.174533,-0.0950659,-0.69642,-0.172525,-0.203425,1.55989,-0.0958297,-0.0602612,0.866779
26,40,-0.0872665,-0.698132,-0.174533,-0.174533,-0.0950659,-0.69642,-0.172525,-0.203425,1.55989,-0.0958297,-0.0602612,0.866779
26,40,-0.0872665,-0.698132,-0.174533,-0.174533,-0.0950659,-0.69642,-0.172525,-0.203425,1.55989,-0.0958297,-0.0602664,0.866776
26,40,-0.0872665,-0.698132,-0.174533,-0.174533,-0.0950659,-0.69642,-0.172525,-0.203425,1.55989,-0.0958297,-0.0602664,0.866776
26,40,-0.0872665,-0.698132,-0.174533,-0.174533,-0.0950659,-0.69642,-0.172525,-0.203425,1.55989,-0.0958297,-0.0602664,0.866776
26,40,-0.0872665,-0.698132,-0.174533,-0.174533,-0.0950659,-0.69642,-0.172525,-0.203425,1.55989,-0.0958297,-0.0602664,0.866776
26,40,-0.0872665,-0.698132,-0.174533,-0.174533,-0.0950659,-0.69642,-0.172525,-0.203425,1.55989,-0.0958297,-0.0602664,0.866776
26,40,-0.0872665,-0.698132,-0.174533,-0.174533,-0.0950659,-0.69642,-0.172525,-0.203425,1.55989,-0.0958297,-0.0602664,0.866776
26,40,-0.0872665,-0.698132,-0.174533,-0.174533,-0.0950659,-0.69642,-0.172525,-0.203425,1.55989,-0.0958297,-0.0602664,0.866776
26,40,-0.0872665,-0.698132,-0.174533,-0.174533,-0.0950659,-0.69642,-0.172525,-0.203425,1.55989,-0.0958297,-0.0602664,0.866776
26,40,-0.0872665,-0.698132,-0.174533,-0.174533,-0.0950659,-0.69642,-0.172525,-0.203425,1.55989,-0.0958297,-0.0602664,0.866776
26,40,-0.0872665,-0.698132,-0.174533,-0.174533,-0.0950659,-0.69642,-0.172525,-0.203425,1.55989,-0.0958297,-0.0602664,0.866776
26,40,-0.0872665,-0.698132,-0.174533,-0.174533,-0.0950659,-0.69642,-0.172525,-0.203425,1.55989,-0.0958297,-0.0602664,0.866776
26,40,-0.0872665,-0.698132,-0.174533,-0.174533,-0.0950659,-0.69642,-0.172525,-0.203425,1.55989,-0.0958297,-0.0602664,0.866776
26,40,-0.0872665,-0.698132,-0.174533,-0.174533,-0.0950659,-0.69642,-0.172525,-0.203425,1.55989,-0.0958297,-0.0602664,0.866776
26,40,-0.0872665,-0.698132,-0.174533,-0.174533,-0.0950659,-0.69642,-0.172525,-0.203425,1.55989,-0.0958297,-0.0602664,0.866776
26,40,-0.0872665,-0.698132,-0.174533,-0.174533,-0.0950659,-0.69642,-0.172525,-0.203425,1.55989,-0.0958297,-0.0602664,0.866776
26,40,-0.0872665,-0.698132,-0.174533,-0.174533,-0.0950659,-0.69642,-0.172525,-0.203425,1.55989,-0.0958297,-0.0602664,0.866776
26,40,-0.0872665,-0.698132,-0.174533,-0.174533,-0.0950659,-0.69642,-0.172525,-0.203425,1.55989,-0.0958297,-0.0602664,0.866776
26,40,-0.0872665,-0.698132,-0.174533,-0.174533,-0.0950659,-0.69642,-0.172525,-0.203425,1.55989,-0.0958297,-0.0602664,0.866776
26,40,-0.0872665,-0.698132,-0.174533,-0.174533,-0.0950659,-0.69642,-0.172525,-0.203425,1.55989,-0.0958297,-0.0602664,0.866776
26,40,-0.0872665,-0.698132,-0.174533,-0.174533,-0.0950659,-0.69642,-0.172525,-0.203425,1.55989,-0.0958297,-0.0602664,0.866776
26,40,-0.0872665,-0.698132,-0.174533,-0.174533,-0.0950659,-0.69642,-0.172525,-0.203425,1.55989,-0.0958297,-0.0602664,0.866776
26,40,-0.0872665,-0.698132,-0.174533,-0.174533,-0.0950659,-0.69642,-0.172525,-0.203425,1.55989,-0.0958297,-0.0602664,0.866776
26,40,-0.0872665,-0.698132,-0.174533,-0.174533,-0.0950659,-0.69642,-0.172525,-0.203425,1.55989,-0.0958297,-0.0602664,0.866776
26,40,-0.0872665,-0.698132,-0.174533,-0.174533,-0.0950659,-0.69642,-0.172525,-0.203425,1.55989,-0.0958297,-0.0602664,0.866776
26,40,-0.0872665,-0.698132,-0.174533,-0.174533,-0.0950659,-0.69642,-0.172525,-0.203425,1.55989,-0.0958297,-0.0602664,0.866776
26,40,-0.0872665,-0.698132,-0.174533,-0.174533,-0.0950659,-0.69642,-0.172525,-0.203425,1.55989,-0.0958297,-0.0602664,0.866776
26,40,-0.0872665,-0.698132,-0.174533,-0.174533,-0.0950659,-0.69642,-0.172525,-0.203425,1.55989,-0.0958297,-0.0602664,0.866776
26,40,-0.0872665,-0.698132,-0.174533,-0.174533,-0.0950659,-0.69642,-0.172525,-0.203425,1.55989,-0.0958297,-0.0602664,0.866776
26,40,-0.0872665,-0.698132,-0.174533,-0.174533,-0.0950659,-0.69642,-0.172525,-0.203425,1.55989,-0.0958297,-0.0602664,0.866776
26,40,-0.0872665,-0.698132,-0.174533,-0.174533,-0.0950659,-0.69642,-0.172525,-0.203425,1.55989,-0.0958297,-0.0602664,0.866776
26,40,-0.0872665,-0.698132,-0.174533,-0.174533,-0.0950659,-0.69642,-0.172525,-0.203425,1.55989,-0.0958297,-0.0602664,0.866776
26,40,-0.0872665,-0.698132,-0.174533,-0.174533,-0.0950659,-0.69642,-0.172525,-0.203425,1.55989,-0.0958297,-0.0602664,0.866776
26,40,-0.0872665,-0.698132,-0.174533,-0.174533,-0.0950659,-0.69642,-0.172525,-0.203425,1.55989,-0.0958297,-0.0602664,0.866776
26,40,-0.0872665,-0.698132,-0.174533,-0.174533,-0.0950659,-0.69642,-0.172525,-0.203425,1.55989,-0.0958297,-0.0602664,0.866776
26,40,-0.0872665,-0.698132,-0.174533,-0.174533,-0.0950659,-0.69642,-0.172525,-0.203425,1.55989,-0.0958297,-0.0602664,0.866776
26,40,-0.0872665,-0.698132,-0.174533,-0.174533,-0.0950659,-0.69642,-0.172525,-0.203425,1.55989,-0.0958297,-0.0602664,0.866776
26,40,-0.0872665,-0.698132,-0.174533,-0.174533,-0.0950659,-0.69642,-0.172525,-0.203425,1.55989,-0.0958297,-0.0602664,0.866776
26,40,-0.0872665,-0.698132,-0.174533,-0.174533,-0.0950659,-0.69642,-0.172525,-0.203425,1.55989,-0.0958297,-0.0602664,0.866776
26,40,-0.0872665,-0.698132,-0.174533,-0.174533,-0.0950659,-0.69642,-0.172525,-0.203425,1.55989,-0.0958297,-0.0602664,0.866776
26,40,-0.0872665,-0.698132,-0.174533,-0.174533,-0.0950659,-0.69642,-0.172525,-0.203425,1.55989,-0.0958297,-0.0602664,0.866776
26,40,-0.0872665,-0.698132,-0.174533,-0.174533,-0.0950659,-0.69642,-0.172525,-0.203425,1.55989,-0.0958297,-0.0602664,0.866776
26,40,-0.0872665,-0.698132,-0.174533,-0.174533,-0.0950659,-0.69642,-0.172525,-0.203425,1.55989,-0.0958297,-0.0602664,0.866776
26,40,-0.0872665,-0.698132,-0.174533,-0.174533,-0.0950659,-0.69642,-0.172525,-0.203425,1.55989,-0.0958297,-0.0602664,0.866776
26,40,-0.0872665,-0.698132,-0.174533,-0.174533,-0.0950659,-0.69642,-0.172525,-0.203425,1.55989,-0.0958297,-0.0602664,0.866776
26,40,-0.0872665,-0.698132,-0.174533,-0.174533,-0.0950659,-0.69642,-0.172525,-0.203425,1.55989,-0.0958297,-0.0602664,0.866776
26,40,-0.0872665,-0.698132,-0.174533,-0.174533,-0.0950659,-0.69642,-0.172525,-0.203425,1.55989,-0.0958297,-0.0602664,0.866776
26,40,-0.0872665,-0.698132,-0.174533,-0.174533,-0.0950659,-0.69642,-0.172525,-0.203425,1.55989,-0.0958297,-0.0602664,0.866776
26,40,-0.0872665,-0.698132,-0.174533,-0.174533,-0.0950659,-0.69642,-0.172525,-0.203425,1.55989,-0.0958297,-0.0602664,0.866776
26,40,-0.0872665,-0.698132,-0.174533,-0.174533,-0.0950659,-0.69642,-0.172525,-0.203425,1.55989,-0.0958297,-0.0602664,0.866776
26,40,-0.0872665,-0.698132,-0.174533,-0.174533,-0.0950659,-0.69642,-0.172525,-0.203425,1.55989,-0.0958297,-0.0602664,0.866776
26,40,-0.0872665,-0.698132,-0.174533,-0.174533,-0.0950659,-0.69642,-0.172525,-0.203425,1.55989,-0.0958297,-0.0602664,0.866776
26,40,-0.0872665,-0.698132,-0.174533,-0.174533,-0.0950659,-0.69642,-0.172525,-0.203425,1.55989,-0.0958297,-0.0602664,0.866776
26,40,-0.0872665,-0.698132,-0.174533,-0.174533,-0.0950659,-0.69642,-0.172525,-0.203425,1.55989,-0.0958297,-0.0602664,0.866776
26,40,-0.0872665,-0.698132,-0.174533,-0.174533,-0.0950659,-0.69642,-0.172525,-0.203425,1.55989,-0.0958297,-0.0602664,0.866776
26,40,-0.0872665,-0.698132,-0.174533,-0.174533,-0.0950659,-0.69642,-0.172525,-0.203425,1.55989,-0.0958297,-0.0602664,0.866776
26,40,-0.0872665,-0.698132,-0.174533,-0.174533,-0.0950659,-0.69642,-0.172525,-0.203425,1.55989,-0.0958297,-0.0602664,0.866776
26,40,-0.0872665,-0.698132,-0.174533,-0.174533,-0.0950659,-0.69642,-0.172525,-0.203425,1.55989,-0.0958297,-0.0602664,0.866776
26,40,-0.0872665,-0.698132,-0.174533,-0.174533,-0.0950659,-0.69642,-0.172525,-0.203425,1.55989,-0.0958297,-0.0602664,0.866776
26,40,-0.0872665,-0.698132,-0.174533,-0.174533,-0.0950659,-0.69642,-0.172525,-0.203425,1.55989,-0.0958297,-0.0602664,0.866776
26,40,-0.0872665,-0.698132,-0.174533,-0.174533,-0.0950659,-0.69642,-0.172525,-0.203425,1.55989,-0.0958297,-0.0602664,0.866776
26,40,-0.0872665,-0.698132,-0.174533,-0.174533,-0.0950659,-0.69642,-0.172525,-0.203425,1.55989,-0.0958297,-0.0602664,0.866776
26,40,-0.0872665,-0.698132,-0.174533,-0.174533,-0.0950659,-0.69642,-0.172525,-0.203425,1.55989,-0.0958297,-0.0602664,0.866776
26,40,-0.0872665,-0.698132,-0.174533,-0.174533,-0.0950659,-0.69642,-0.172525,-0.203425,1.55989,-0.0958297,-0.0602664,0.866776
26,40,-0.0872665,-0.698132,-0.174533,-0.174533,-0.0950659,-0.69642,-0.172525,-0.203425,1.55989,-0.0958297,-0.0602664,0.866776
26,40,-0.0872665,-0.698132,-0.174533,-0.174533,-0.0950659,-0.69642,-0.172463,-0.203444,1.55989,-0.0958297,-0.0621247,0.867336
26,40,-0.0872665,-0.698132,-0.174533,-0.174533,-0.0950659,-0.69642,-0.172463,-0.203444,1.55989,-0.0958297,-0.0621247,0.867336
26,40,-0.0872665,-0.698132,-0.174533,-0.174533,-0.0950659,-0.69642,-0.172463,-0.203444,1.55989,-0.0958297,-0.0621247,0.867336
26,40,-0.0872665,-0.698132,-0.174533,-0.174533,-0.0950659,-0.69642,-0.172463,-0.203444,1.55989,-0.0958297,-0.0621247,0.867336
26,40,-0.0872665,-0.698132,-0.174533,-0.174533,-0.0950659,-0.69642,-0.172463,-0.203444,1.55989,-0.0958297,-0.0621247,0.867336
26,40,-0.0872665,-0.698132,-0.174533,-0.174533,-0.0950659,-0.69642,-0.172463,-0.203444,1.55989,-0.0958297,-0.0621247,0.867336
26,40,-0.0872665,-0.698132,-0.174533,-0.174533,-0.0950659,-0.69642,-0.172463,-0.203444,1.55989,-0.0958297,-0.0621247,0.867336
26,40,-0.0872665,-0.698132,-0.174533,-0.174533,-0.0950659,-0.69642,-0.172463,-0.203444,1.55989,-0.0958297,-0.0621247,0.867336
26,40,-0.0872665,-0.698132,-0.174533,-0.174533,-0.0950659,-0.69642,-0.172463,-0.203444,1.55989,-0.0958297,-0.0621247,0.867336
26,40,-0.0872665,-0.698132,-0.174533,-0.174533,-0.0950659,-0.69642,-0.172463,-0.203444,1.55989,-0.0958297,-0.0621247,0.867336
26,40,-0.0872665,-0.698132,-0.174533,-0.174533,-0.0950659,-0.69642,-0.172463,-0.203444,1.55989,-0.0958297,-0.0621247,0.867336
26,40,-0.0872665,-0.698132,-0.174533,-0.174533,-0.0950659,-0.69642,-0.172463,-0.203444,1.55989,-0.0958297,-0.0621247,0.867336
26,40,-0.0872665,-0.698132,-0.174533,-0.174533,-0.0950659,-0.69642,-0.172463,-0.203444,1.55989,-0.0958297,-0.0621247,0.867336
26,40,-0.0872665,-0.698132,-0.174533,-0.174533,-0.0950659,-0.69642,-0.172463,-0.203444,1.55989,-0.0958297,-0.0621247,0.867336
26,40,-0.0872665,-0.698132,-0.174533,-0.174533,-0.0950659,-0.69642,-0.172463,-0.203444,1.55989,-0.0958297,-0.0621247,0.867336
26,40,-0.0872665,-0.698132,-0.174533,-0.174533,-0.0950659,-0.69642,-0.172463,-0.203444,1.55989,-0.0958297,-0.0621247,0.867336
26,40,-0.0872665,-0.698132,-0.174533,-0.174533,-0.0950659,-0.69642,-0.172463,-0.203444,1.55989,-0.0958297,-0.0621247,0.867336
26,40,-0.0872665,-0.698132,-0.174533,-0.174533,-0.0950659,-0.69642,-0.172463,-0.203444,1.55989,-0.0958297,-0.0621247,0.867336
26,40,-0.0872665,-0.698132,-0.174533,-0.174533,-0.0950659,-0.69642,-0.172463,-0.203444,1.55989,-0.0958297,-0.0621247,0.867336
26,40,-0.0872665,-0.698132,-0.174533,-0.174533,-0.0950659,-0.69642,-0.172463,-0.203444,1.55989,-0.0958297,-0.0621247,0.867336
26,40,-0.0872665,-0.698132,-0.174533,-0.174533,-0.0950659,-0.69642,-0.172463,-0.203444,1.55989,-0.0958297,-0.0621247,0.867336
26,40,-0.0872665,-0.698132,-0.174533,-0.174533,-0.0950659,-0.69642,-0.172463,-0.203444,1.55989,-0.0958297,-0.0621247,0.867336
26,40,-0.0872665,-0.698132,-0.174533,-0.174533,-0.0950659,-0.69642,-0.172463,-0.203444,1.55989,-0.0958297,-0.0621247,0.867336
26,40,-0.0872665,-0.698132,-0.174533,-0.174533,-0.0950659,-0.69642,-0.172463,-0.203444,1.55989,-0.0958297,-0.0621247,0.867336
26,40,-0.0872665,-0.698132,-0.174533,-0.174533,-0.0950659,-0.69642,-0.172463,-0.203444,1.55989,-0.0958297,-0.0621247,0.867336
26,40,-0.0872665,-0.698132,-0.174533,-0.174533,-0.0950659,-0.69642,-0.172463,-0.203444,1.55989,-0.0958297,-0.0621247,0.867336
26,40,-0.0872665,-0.698132,-0.174533,-0.174533,-0.0950659,-0.69642,-0.172463,-0.203444,1.55989,-0.0958297,-0.0621247,0.867336
26,40,-0.0872665,-0.698132,-0.174533,-0.174533,-0.0950659,-0.69642,-0.172463,-0.203444,1.55989,-0.0958297,-0.0621247,0.867336
26,40,-0.0872665,-0.698132,-0.174533,-0.174533,-0.0950659,-0.69642,-0.172463,-0.203444,1.55989,-0.0958297,-0.0621247,0.867336
26,40,-0.0872665,-0.698132,-0.174533,-0.174533,-0.0950659,-0.69642,-0.172463,-0.203444,1.55989,-0.0958297,-0.0621247,0.867336
26,40,-0.0872665,-0.698132,-0.174533,-0.174533,-0.0950659,-0.69642,-0.172463,-0.203444,1.55989,-0.0958297,-0.0621247,0.867336
26,40,-0.0872665,-0.698132,-0.174533,-0.174533,-0.0950659,-0.69642,-0.172463,-0.203444,1.55989,-0.0958297,-0.0621247,0.867336
26,40,-0.0872665,-0.698132,-0.174533,-0.174533,-0.0950659,-0.69642,-0.172463,-0.203444,1.55989,-0.0958297,-0.0621247,0.867336
26,40,-0.0872665,-0.698132,-0.174533,-0.174533,-0.0950659,-0.69642,-0.172463,-0.203444,1.55989,-0.0958297,-0.0621247,0.867336
26,40,-0.0872665,-0.698132,-0.174533,-0.174533,-0.0950659,-0.69642,-0.172463,-0.203444,1.55989,-0.0958297,-0.0621247,0.867336
26,40,-0.0872665,-0.698132,-0.174533,-0.174533,-0.0950659,-0.69642,-0.172463,-0.203444,1.55989,-0.0958297,-0.0621247,0.867336
26,40,-0.0872665,-0.698132,-0.174533,-0.174533,-0.0950659,-0.69642,-0.172463,-0.203444,1.55989,-0.0958297,-0.0621247,0.867336
26,40,-0.0872665,-0.698132,-0.174533,-0.174533,-0.0950659,-0.69642,-0.172463,-0.203444,1.55989,-0.0958297,-0.0621247,0.867336
26,40,-0.0872665,-0.698132,-0.174533,-0.174533,-0.0950659,-0.69642,-0.172463,-0.203444,1.55989,-0.0958297,-0.0621247,0.867336
26,40,-0.0872665,-0.698132,-0.174533,-0.174533,-0.0950659,-0.69642,-0.172463,-0.203444,1.55989,-0.0958297,-0.0621247,0.867336
26,40,-0.0872665,-0.698132,-0.174533,-0.174533,-0.0950659,-0.69642,-0.172463,-0.203444,1.55989,-0.0958297,-0.0621247,0.867336
26,40,-0.0872665,-0.698132,-0.174533,-0.174533,-0.0950659,-0.69642,-0.172463,-0.203444,1.55989,-0.0958297,-0.0621247,0.867336
26,40,-0.0872665,-0.698132,-0.174533,-0.174533,-0.0950659,-0.69642,-0.172463,-0.203444,1.55989,-0.0958297,-0.0621247,0.867336
26,40,-0.0872665,-0.698132,-0.174533,-0.174533,-0.0950659,-0.69642,-0.172463,-0.203444,1.55989,-0.0958297,-0.0621247,0.867336
26,40,-0.0872665,-0.698132,-0.174533,-0.174533,-0.0950659,-0.69642,-0.172463,-0.203444,1.55989,-0.0958297,-0.0621247,0.867336
26,40,-0.0872665,-0.698132,-0.174533,-0.174533,-0.0950659,-0.69642,-0.172463,-0.203444,1.55989,-0.0958297,-0.0621247,0.867336
26,40,-0.0872665,-0.698132,-0.174533,-0.174533,-0.0950659,-0.69642,-0.172463,-0.203444,1.55989,-0.0958297,-0.0621247,0.867336
26,40,-0.0872665,-0.698132,-0.174533,-0.174533,-0.0950659,-0.69642,-0.172463,-0.203444,1.55989,-0.0958297,-0.0621247,0.867336
26,40,-0.0872665,-0.698132,-0.174533,-0.174533,-0.0950659,-0.69642,-0.172463,-0.203444,1.55989,-0.0958297,-0.0621247,0.867336
26,40,-0.0872665,-0.698132,-0.174533,-0.174533,-0.0950659,-0.69642,-0.172463,-0.203444,1.55989,-0.0958297,-0.0621247,0.867336
26,40,-0.0872665,-0.698132,-0.174533,-0.174533,-0.0950659,-0.69642,-0.172463,-0.203444,1.55989,-0.0958297,-0.0621247,0.867336
26,40,-0.0872665,-0.698132,-0.174533,-0.174533,-0.0950659,-0.69642,-0.172463,-0.203444,1.55989,-0.0958297,-0.0621247,0.867336
26,40,-0.0872665,-0.698132,-0.174533,-0.174533,-0.0950659,-0.69642,-0.172463,-0.203444,1.55989,-0.0958297,-0.0621247,0.867336
26,40,-0.0872665,-0.698132,-0.174533,-0.174533,-0.0950659,-0.69642,-0.172463,-0.203444,1.55989,-0.0958297,-0.0621247,0.867336
26,40,-0.0872665,-0.698132,-0.174533,-0.174533,-0.0950659,-0.69642,-0.172463,-0.203444,1.55989,-0.0958297,-0.0621247,0.867336
26,40,-0.0872665,-0.698132,-0.174533,-0.174533,-0.0950659,-0.69642,-0.172463,-0.203444,1.55989,-0.0958297,-0.0621247,0.867336
26,40,-0.0872665,-0.698132,-0.174533,-0.174533,-0.0950659,-0.69642,-0.172463,-0.203444,1.55989,-0.0958297,-0.0621247,0.867336
26,40,-0.0872665,-0.698132,-0.174533,-0.174533,-0.0950659,-0.69642,-0.172463,-0.203444,1.55989,-0.0958297,-0.0621247,0.867336
26,40,-0.0872665,-0.698132,-0.174533,-0.174533,-0.0950659,-0.69642,-0.172463,-0.203444,1.55989,-0.0958297,-0.0621247,0.867336
26,40,-0.0872665,-0.698132,-0.174533,-0.174533,-0.0950659,-0.69642,-0.172463,-0.203444,1.55989,-0.0958297,-0.0621247,0.867336
26,40,-0.0872665,-0.698132,-0.174533,-0.174533,-0.0950659,-0.69642,-0.172463,-0.203444,1.55989,-0.0958297,-0.0621247,0.867336
26,40,-0.0872665,-0.698132,-0.174533,-0.174533,-0.0950659,-0.69642,-0.172463,-0.203444,1.55989,-0.0958297,-0.0621247,0.867336
26,40,-0.0872665,-0.698132,-0.174533,-0.174533,-0.0950659,-0.69642,-0.172463,-0.203444,1.55989,-0.0958297,-0.0621247,0.867336
26,40,-0.0872665,-0.698132,-0.174533,-0.174533,-0.0950659,-0.69642,-0.172463,-0.203444,1.55989,-0.0958297,-0.0621247,0.867336
26,40,-0.0872665,-0.698132,-0.174533,-0.174533,-0.0950659,-0.69642,-0.172463,-0.203444,1.55989,-0.0958297,-0.0621247,0.867336
26,40,-0.0872665,-0.698132,-0.174533,-0.174533,-0.0950659,-0.69642,-0.172463,-0.203444,1.55989,-0.0958297,-0.0621247,0.867336
26,40,-0.0872665,-0.698132,-0.174533,-0.174533,-0.0950659,-0.69642,-0.172463,-0.203444,1.55989,-0.0958297,-0.0621247,0.867336
26,40,-0.0872665,-0.698132,-0.174533,-0.174533,-0.0950659,-0.69642,-0.172463,-0.203444,1.55989,-0.0958297,-0.0621247,0.867336
26,40,-0.0872665,-0.698132,-0.174533,-0.174533,-0.0950659,-0.69642,-0.172463,-0.203444,1.55989,-0.0958297,-0.0621247,0.867336
26,40,-0.0872665,-0.698132,-0.174533,-0.174533,-0.0950659,-0.69642,-0.172463,-0.203444,1.55989,-0.0958297,-0.0621247,0.867336
26,40,-0.0872665,-0.698132,-0.174533,-0.174533,-0.0950659,-0.69642,-0.172463,-0.203444,1.55989,-0.0958297,-0.0621247,0.867336
26,40,-0.0872665,-0.698132,-0.174533,-0.174533,-0.0950659,-0.69642,-0.172463,-0.203444,1.55989,-0.0958297,-0.0621247,0.867336
26,40,-0.0872665,-0.698132,-0.174533,-0.174533,-0.0950659,-0.69642,-0.172463,-0.203444,1.55989,-0.0958297,-0.0621247,0.867336
26,40,-0.0872665,-0.698132,-0.174533,-0.174533,-0.0950659,-0.69642,-0.172463,-0.203444,1.55989,-0.0958297,-0.0621247,0.867336
26,40,-0.0872665,-0.698132,-0.174533,-0.174533,-0.0950659,-0.69642,-0.172532,-0.203487,1.55989,-0.0958297,-0.060054,0.868646
26,40,-0.0872665,-0.698132,-0.174533,-0.174533,-0.0950659,-0.69642,-0.172532,-0.203487,1.55989,-0.0958297,-0.060054,0.868646
26,40,-0.0872665,-0.698132,-0.174533,-0.174533,-0.0950659,-0.69642,-0.172532,-0.203487,1.55989,-0.0958297,-0.060054,0.868646
26,40,-0.0872665,-0.698132,-0.174533,-0.174533,-0.0950659,-0.69642,-0.172532,-0.203487,1.55989,-0.0958297,-0.060054,0.868646
26,40,-0.0872665,-0.698132,-0.174533,-0.174533,-0.0950659,-0.69642,-0.172532,-0.203487,1.55989,-0.0958297,-0.060054,0.868646
26,40,-0.0872665,-0.698132,-0.174533,-0.174533,-0.0950659,-0.69642,-0.172532,-0.203487,1.55989,-0.0958297,-0.060054,0.868646
26,40,-0.0872665,-0.698132,-0.174533,-0.174533,-0.0950659,-0.69642,-0.172532,-0.203487,1.55989,-0.0958297,-0.060054,0.868646
26,40,-0.0872665,-0.698132,-0.174533,-0.174533,-0.0950659,-0.69642,-0.172532,-0.203487,1.55989,-0.0958297,-0.060054,0.868646
26,40,-0.0872665,-0.698132,-0.174533,-0.174533,-0.0950659,-0.69642,-0.172532,-0.203487,1.55989,-0.0958297,-0.060054,0.868646
26,40,-0.0872665,-0.698132,-0.174533,-0.174533,-0.0950659,-0.69642,-0.172532,-0.203487,1.55989,-0.0958297,-0.060054,0.868646
26,40,-0.0872665,-0.698132,-0.174533,-0.174533,-0.0950659,-0.69642,-0.172532,-0.203487,1.55989,-0.0958297,-0.060054,0.868646
26,40,-0.0872665,-0.698132,-0.174533,-0.174533,-0.0950659,-0.69642,-0.172532,-0.203487,1.55989,-0.0958297,-0.060054,0.868646
26,40,-0.0872665,-0.698132,-0.174533,-0.174533,-0.0950659,-0.69642,-0.172532,-0.203487,1.55989,-0.0958297,-0.060054,0.868646
26,40,-0.0872665,-0.698132,-0.174533,-0.174533,-0.0950659,-0.69642,-0.172532,-0.203487,1.55989,-0.0958297,-0.0600539,0.868646
26,40,-0.0872665,-0.698132,-0.174533,-0.174533,-0.0950659,-0.69642,-0.172532,-0.203487,1.55989,-0.0958297,-0.0600535,0.868645
26,40,-0.0872665,-0.698132,-0.174533,-0.174533,-0.0950659,-0.69642,-0.172532,-0.203487,1.55989,-0.0958297,-0.0600532,0.868645
26,40,-0.0872665,-0.698132,-0.174533,-0.174533,-0.0950659,-0.69642,-0.172532,-0.203487,1.55989,-0.0958297,-0.0600529,0.868645
26,40,-0.0872665,-0.698132,-0.174533,-0.174533,-0.0950659,-0.69642,-0.172532,-0.203487,1.55989,-0.0958297,-0.0600526,0.868645
26,40,-0.0872665,-0.698132,-0.174533,-0.174533,-0.0950659,-0.69642,-0.172532,-0.203487,1.55989,-0.0958297,-0.0600523,0.868645
26,40,-0.0872665,-0.698132,-0.174533,-0.174533,-0.0950659,-0.69642,-0.172532,-0.203487,1.55989,-0.0958297,-0.060052,0.868645
26,40,-0.0872665,-0.698132,-0.174533,-0.174533,-0.0950659,-0.69642,-0.172532,-0.203487,1.55989,-0.0958297,-0.0600517,0.868645
26,40,-0.0872665,-0.698132,-0.174533,-0.174533,-0.0950659,-0.69642,-0.172532,-0.203487,1.55989,-0.0958297,-0.0600514,0.868645
26,40,-0.0872665,-0.698132,-0.174533,-0.174533,-0.0950659,-0.69642,-0.172532,-0.203487,1.55989,-0.0958297,-0.0600511,0.868645
26,40,-0.0872665,-0.698132,-0.174533,-0.174533,-0.0950659,-0.69642,-0.172532,-0.203487,1.55989,-0.0958297,-0.0600508,0.868645
26,40,-0.0872665,-0.698132,-0.174533,-0.174533,-0.0950659,-0.69642,-0.172532,-0.203487,1.55989,-0.0958297,-0.0600506,0.868645
26,40,-0.0872665,-0.698132,-0.174533,-0.174533,-0.0950659,-0.69642,-0.172532,-0.203487,1.55989,-0.0958297,-0.0600503,0.868644
26,40,-0.0872665,-0.698132,-0.174533,-0.174533,-0.0950659,-0.69642,-0.172532,-0.203487,1.55989,-0.0958297,-0.06005,0.868644
26,40,-0.0872665,-0.698132,-0.174533,-0.174533,-0.0950659,-0.69642,-0.172532,-0.203487,1.55989,-0.0958297,-0.0600498,0.868644
26,40,-0.0872665,-0.698132,-0.174533,-0.174533,-0.0950659,-0.69642,-0.172532,-0.203487,1.55989,-0.0958297,-0.0600495,0.868644
26,40,-0.0872665,-0.698132,-0.174533,-0.174533,-0.0950659,-0.69642,-0.172532,-0.203487,1.55989,-0.0958297,-0.0600493,0.868644
26,40,-0.0872665,-0.698132,-0.174533,-0.174533,-0.0950659,-0.69642,-0.172532,-0.203487,1.55989,-0.0958297,-0.0600491,0.868644
26,40,-0.0872665,-0.698132,-0.174533,-0.174533,-0.0950659,-0.69642,-0.172532,-0.203487,1.55989,-0.0958297,-0.0600488,0.868644
26,40,-0.0872665,-0.698132,-0.174533,-0.174533,-0.0950659,-0.69642,-0.172532,-0.203487,1.55989,-0.0958297,-0.0600486,0.868644
26,40,-0.0872665,-0.698132,-0.174533,-0.174533,-0.0950659,-0.69642,-0.172532,-0.203487,1.55989,-0.0958297,-0.0600484,0.868644
26,40,-0.0872665,-0.698132,-0.174533,-0.174533,-0.0950659,-0.69642,-0.172532,-0.203487,1.55989,-0.0958297,-0.0600481,0.868644
26,40,-0.0872665,-0.698132,-0.174533,-0.174533,-0.0950659,-0.69642,-0.172532,-0.203487,1.55989,-0.0958297,-0.0600479,0.868644
26,40,-0.0872665,-0.698132,-0.174533,-0.174533,-0.0950659,-0.69642,-0.172532,-0.203487,1.55989,-0.0958297,-0.0600477,0.868644
26,40,-0.0872665,-0.698132,-0.174533,-0.174533,-0.0950659,-0.69642,-0.172532,-0.203487,1.55989,-0.0958297,-0.0600475,0.868644
26,40,-0.0872665,-0.698132,-0.174533,-0.174533,-0.0950659,-0.69642,-0.172532,-0.203487,1.55989,-0.0958297,-0.0600473,0.868644
26,40,-0.0872665,-0.698132,-0.174533,-0.174533,-0.0950659,-0.69642,-0.172532,-0.203487,1.55989,-0.0958297,-0.0600471,0.868643
26,40,-0.0872665,-0.698132,-0.174533,-0.174533,-0.0950659,-0.69642,-0.172532,-0.203487,1.55989,-0.0958297,-0.0600469,0.868643
26,40,-0.0872665,-0.698132,-0.174533,-0.174533,-0.0950659,-0.69642,-0.172532,-0.203487,1.55989,-0.0958297,-0.0600467,0.868643
26,40,-0.0872665,-0.698132,-0.174533,-0.174533,-0.0950659,-0.69642,-0.172532,-0.203487,1.55989,-0.0958297,-0.0600465,0.868643
26,40,-0.0872665,-0.698132,-0.174533,-0.174533,-0.0950659,-0.69642,-0.172532,-0.203487,1.55989,-0.0958297,-0.0600463,0.868643
26,40,-0.0872665,-0.698132,-0.174533,-0.174533,-0.0950659,-0.69642,-0.172532,-0.203487,1.55989,-0.0958297,-0.0600461,0.868643
26,40,-0.0872665,-0.698132,-0.174533,-0.174533,-0.0950659,-0.69642,-0.172532,-0.203487,1.55989,-0.0958297,-0.0600459,0.868643
26,40,-0.0872665,-0.698132,-0.174533,-0.174533,-0.0950659,-0.69642,-0.172532,-0.203487,1.55989,-0.0958297,-0.0600458,0.868643
26,40,-0.0872665,-0.698132,-0.174533,-0.174533,-0.0950659,-0.69642,-0.172532,-0.203487,1.55989,-0.0958297,-0.0600456,0.868643
26,40,-0.0872665,-0.698132,-0.174533,-0.174533,-0.0950659,-0.69642,-0.172532,-0.203487,1.55989,-0.0958297,-0.0600454,0.868643
26,40,-0.0872665,-0.698132,-0.174533,-0.174533,-0.0950659,-0.69642,-0.172532,-0.203487,1.55989,-0.0958297,-0.0600452,0.868643
26,40,-0.0872665,-0.698132,-0.174533,-0.174533,-0.0950659,-0.69642,-0.172532,-0.203487,1.55989,-0.0958297,-0.0600451,0.868643
26,40,-0.0872665,-0.698132,-0.174533,-0.174533,-0.0950659,-0.69642,-0.172532,-0.203487,1.55989,-0.0958297,-0.0600449,0.868643
26,40,-0.0872665,-0.698132,-0.174533,-0.174533,-0.0950659,-0.69642,-0.172532,-0.203487,1.55989,-0.0958297,-0.0600447,0.868643
26,40,-0.0872665,-0.698132,-0.174533,-0.174533,-0.0950659,-0.69642,-0.172532,-0.203487,1.55989,-0.0958297,-0.0600446,0.868643
26,40,-0.0872665,-0.698132,-0.174533,-0.174533,-0.0950659,-0.69642,-0.172532,-0.203487,1.55989,-0.0958297,-0.0600444,0.868643
26,40,-0.0872665,-0.698132,-0.174533,-0.174533,-0.0950659,-0.69642,-0.172532,-0.203487,1.55989,-0.0958297,-0.0600443,0.868643
26,40,-0.0872665,-0.698132,-0.174533,-0.174533,-0.0950659,-0.69642,-0.172532,-0.203487,1.55989,-0.0958297,-0.0600441,0.868643
26,40,-0.0872665,-0.698132,-0.174533,-0.174533,-0.0950659,-0.69642,-0.172532,-0.203487,1.55989,-0.0958297,-0.060044,0.868643
26,40,-0.0872665,-0.698132,-0.174533,-0.174533,-0.0950659,-0.69642,-0.172532,-0.203487,1.55989,-0.0958297,-0.0600438,0.868642
26,40,-0.0872665,-0.698132,-0.174533,-0.174533,-0.0950659,-0.69642,-0.172532,-0.203487,1.55989,-0.0958297,-0.0600437,0.868642
26,40,-0.0872665,-0.698132,-0.174533,-0.174533,-0.0950659,-0.69642,-0.172532,-0.203487,1.55989,-0.0958297,-0.0600435,0.868642
26,40,-0.0872665,-0.698132,-0.174533,-0.174533,-0.0950659,-0.69642,-0.172532,-0.203487,1.55989,-0.0958297,-0.0600434,0.868642
26,40,-0.0872665,-0.698132,-0.174533,-0.174533,-0.0950659,-0.69642,-0.172532,-0.203487,1.55989,-0.0958297,-0.0600432,0.868642
26,40,-0.0872665,-0.698132,-0.174533,-0.174533,-0.0950659,-0.69642,-0.172532,-0.203487,1.55989,-0.0958297,-0.0600431,0.868642
26,40,-0.0872665,-0.698132,-0.174533,-0.174533,-0.0950659,-0.69642,-0.172532,-0.203487,1.55989,-0.0958297,-0.060043,0.868642
26,40,-0.0872665,-0.698132,-0.174533,-0.174533,-0.0950659,-0.69642,-0.17247,-0.203506,1.55989,-0.0958297,-0.0618976,0.869201
26,40,-0.0872665,-0.698132,-0.174533,-0.174533,-0.0950659,-0.69642,-0.17247,-0.203506,1.55989,-0.0958297,-0.0618976,0.869201
26,40,-0.0872665,-0.698132,-0.174533,-0.174533,-0.0950659,-0.69642,-0.17247,-0.203506,1.55989,-0.0958297,-0.0618976,0.869201
26,40,-0.0872665,-0.698132,-0.174533,-0.174533,-0.0950659,-0.69642,-0.17247,-0.203506,1.55989,-0.0958297,-0.0618976,0.869201
26,40,-0.0872665,-0.698132,-0.174533,-0.174533,-0.0950659,-0.69642,-0.17247,-0.203506,1.55989,-0.0958297,-0.0618976,0.869201
26,40,-0.0872665,-0.698132,-0.174533,-0.174533,-0.0950659,-0.69642,-0.17247,-0.203506,1.55989,-0.0958297,-0.0618976,0.869201
26,40,-0.0872665,-0.698132,-0.174533,-0.174533,-0.0950659,-0.69642,-0.17247,-0.203506,1.55989,-0.0958297,-0.0618976,0.869201
26,40,-0.0872665,-0.698132,-0.174533,-0.174533,-0.0950659,-0.69642,-0.17247,-0.203506,1.55989,-0.0958297,-0.0618976,0.869201
26,40,-0.0872665,-0.698132,-0.174533,-0.174533,-0.0950659,-0.69642,-0.17247,-0.203506,1.55989,-0.0958297,-0.0618976,0.869201
26,40,-0.0872665,-0.698132,-0.174533,-0.174533,-0.0950659,-0.69642,-0.17247,-0.203506,1.55989,-0.0958297,-0.0618976,0.869201
26,40,-0.0872665,-0.698132,-0.174533,-0.174533,-0.0950659,-0.69642,-0.17247,-0.203506,1.55989,-0.0958297,-0.0618976,0.869201
26,40,-0.0872665,-0.698132,-0.174533,-0.174533,-0.0950659,-0.69642,-0.17247,-0.203506,1.55989,-0.0958297,-0.0618976,0.869201
26,40,-0.0872665,-0.698132,-0.174533,-0.174533,-0.0950659,-0.69642,-0.17247,-0.203506,1.55989,-0.0958297,-0.0618976,0.869201
26,40,-0.0872665,-0.698132,-0.174533,-0.174533,-0.0950659,-0.69642,-0.17247,-0.203506,1.55989,-0.0958297,-0.0618976,0.869201
26,40,-0.0872665,-0.698132,-0.174533,-0.174533,-0.0950659,-0.69642,-0.17247,-0.203506,1.55989,-0.0958297,-0.0618976,0.869201
26,40,-0.0872665,-0.698132,-0.174533,-0.174533,-0.0950659,-0.69642,-0.17247,-0.203506,1.55989,-0.0958297,-0.0618976,0.869201
26,40,-0.0872665,-0.698132,-0.174533,-0.174533,-0.0950659,-0.69642,-0.17247,-0.203506,1.55989,-0.0958297,-0.0618976,0.869201
26,40,-0.0872665,-0.698132,-0.174533,-0.174533,-0.0950659,-0.69642,-0.17247,-0.203506,1.55989,-0.0958297,-0.0618976,0.869201
26,40,-0.0872665,-0.698132,-0.174533,-0.174533,-0.0950659,-0.69642,-0.17247,-0.203506,1.55989,-0.0958297,-0.0618976,0.869201
26,40,-0.0872665,-0.698132,-0.174533,-0.174533,-0.0950659,-0.69642,-0.17247,-0.203506,1.55989,-0.0958297,-0.0618976,0.869201
26,40,-0.0872665,-0.698132,-0.174533,-0.174533,-0.0950659,-0.69642,-0.17247,-0.203506,1.55989,-0.0958297,-0.0618976,0.869201
26,40,-0.0872665,-0.698132,-0.174533,-0.174533,-0.0950659,-0.69642,-0.17247,-0.203506,1.55989,-0.0958297,-0.0618976,0.869201
26,40,-0.0872665,-0.698132,-0.174533,-0.174533,-0.0950659,-0.69642,-0.17247,-0.203506,1.55989,-0.0958297,-0.0618976,0.869201
26,40,-0.0872665,-0.698132,-0.174533,-0.174533,-0.0950659,-0.69642,-0.17247,-0.203506,1.55989,-0.0958297,-0.0618976,0.869201
26,40,-0.0872665,-0.698132,-0.174533,-0.174533,-0.0950659,-0.69642,-0.17247,-0.203506,1.55989,-0.0958297,-0.0618976,0.869201
26,40,-0.0872665,-0.698132,-0.174533,-0.174533,-0.0950659,-0.69642,-0.17247,-0.203506,1.55989,-0.0958297,-0.0618976,0.869201
26,40,-0.0872665,-0.698132,-0.174533,-0.174533,-0.0950659,-0.69642,-0.17247,-0.203506,1.55989,-0.0958297,-0.0618976,0.869201
26,40,-0.0872665,-0.698132,-0.174533,-0.174533,-0.0950659,-0.69642,-0.17247,-0.203506,1.55989,-0.0958297,-0.0618976,0.869201
26,40,-0.0872665,-0.698132,-0.174533,-0.174533,-0.0950659,-0.69642,-0.17247,-0.203506,1.55989,-0.0958297,-0.0618976,0.869201
26,40,-0.0872665,-0.698132,-0.174533,-0.174533,-0.0950659,-0.69642,-0.17247,-0.203506,1.55989,-0.0958297,-0.0618976,0.869201
26,40,-0.0872665,-0.698132,-0.174533,-0.174533,-0.0950659,-0.69642,-0.17247,-0.203506,1.55989,-0.0958297,-0.0618976,0.869201
26,40,-0.0872665,-0.698132,-0.174533,-0.174533,-0.0950659,-0.69642,-0.17247,-0.203506,1.55989,-0.0958297,-0.0618976,0.869201
26,40,-0.0872665,-0.698132,-0.174533,-0.174533,-0.0950659,-0.69642,-0.17247,-0.203506,1.55989,-0.0958297,-0.0618976,0.869201
26,40,-0.0872665,-0.698132,-0.174533,-0.174533,-0.0950659,-0.69642,-0.17247,-0.203506,1.55989,-0.0958297,-0.0618976,0.869201
26,40,-0.0872665,-0.698132,-0.174533,-0.174533,-0.0950659,-0.69642,-0.17247,-0.203506,1.55989,-0.0958297,-0.0618976,0.869201
26,40,-0.0872665,-0.698132,-0.174533,-0.174533,-0.0950659,-0.69642,-0.17247,-0.203506,1.55989,-0.0958297,-0.0618976,0.869201
26,40,-0.0872665,-0.698132,-0.174533,-0.174533,-0.0950659,-0.69642,-0.17247,-0.203506,1.55989,-0.0958297,-0.0618976,0.869201
26,40,-0.0872665,-0.698132,-0.174533,-0.174533,-0.0950659,-0.69642,-0.17247,-0.203506,1.55989,-0.0958297,-0.0618976,0.869201
26,40,-0.0872665,-0.698132,-0.174533,-0.174533,-0.0950659,-0.69642,-0.17247,-0.203506,1.55989,-0.0958297,-0.0618976,0.869201
26,40,-0.0872665,-0.698132,-0.174533,-0.174533,-0.0950659,-0.69642,-0.17247,-0.203506,1.55989,-0.0958297,-0.0618976,0.869201
26,40,-0.0872665,-0.698132,-0.174533,-0.174533,-0.0950659,-0.69642,-0.17247,-0.203506,1.55989,-0.0958297,-0.0618976,0.869201
26,40,-0.0872665,-0.698132,-0.174533,-0.174533,-0.0950659,-0.69642,-0.17247,-0.203506,1.55989,-0.0958297,-0.0618976,0.869201
26,40,-0.0872665,-0.698132,-0.174533,-0.174533,-0.0950659,-0.69642,-0.17247,-0.203506,1.55989,-0.0958297,-0.0618976,0.869201
26,40,-0.0872665,-0.698132,-0.174533,-0.174533,-0.0950659,-0.69642,-0.17247,-0.203506,1.55989,-0.0958297,-0.0618976,0.869201
26,40,-0.0872665,-0.698132,-0.174533,-0.174533,-0.0950659,-0.69642,-0.17247,-0.203506,1.55989,-0.0958297,-0.0618976,0.869201
26,40,-0.0872665,-0.698132,-0.174533,-0.174533,-0.0950659,-0.69642,-0.17247,-0.203506,1.55989,-0.0958297,-0.0618976,0.869201
26,40,-0.0872665,-0.698132,-0.174533,-0.174533,-0.0950659,-0.69642,-0.17247,-0.203506,1.55989,-0.0958297,-0.0618976,0.869201
26,40,-0.0872665,-0.698132,-0.174533,-0.174533,-0.0950659,-0.69642,-0.17247,-0.203506,1.55989,-0.0958297,-0.0618976,0.869201
26,40,-0.0872665,-0.698132,-0.174533,-0.174533,-0.0950659,-0.69642,-0.17247,-0.203506,1.55989,-0.0958297,-0.0618976,0.869201
26,40,-0.0872665,-0.698132,-0.174533,-0.174533,-0.0950659,-0.69642,-0.17247,-0.203506,1.55989,-0.0958297,-0.0618976,0.869201
26,40,-0.0872665,-0.698132,-0.174533,-0.174533,-0.0950659,-0.69642,-0.17247,-0.203506,1.55989,-0.0958297,-0.0618976,0.869201
26,40,-0.0872665,-0.698132,-0.174533,-0.174533,-0.0950659,-0.69642,-0.17247,-0.203506,1.55989,-0.0958297,-0.0618976,0.869201
26,40,-0.0872665,-0.698132,-0.174533,-0.174533,-0.0950659,-0.69642,-0.17247,-0.203506,1.55989,-0.0958297,-0.0618976,0.869201
26,40,-0.0872665,-0.698132,-0.174533,-0.174533,-0.0950659,-0.69642,-0.17247,-0.203506,1.55989,-0.0958297,-0.0618976,0.869201
26,40,-0.0872665,-0.698132,-0.174533,-0.174533,-0.0950659,-0.69642,-0.17247,-0.203506,1.55989,-0.0958297,-0.0618976,0.869201
26,40,-0.0872665,-0.698132,-0.174533,-0.174533,-0.0950659,-0.69642,-0.17247,-0.203506,1.55989,-0.0958297,-0.0618976,0.869201
26,40,-0.0872665,-0.698132,-0.174533,-0.174533,-0.0950659,-0.69642,-0.17247,-0.203506,1.55989,-0.0958297,-0.0618976,0.869201
26,40,-0.0872665,-0.698132,-0.174533,-0.174533,-0.0950659,-0.69642,-0.17247,-0.203506,1.55989,-0.0958297,-0.0618976,0.869201
26,40,-0.0872665,-0.698132,-0.174533,-0.174533,-0.0950659,-0.69642,-0.17247,-0.203506,1.55989,-0.0958297,-0.0618976,0.869201
26,40,-0.0872665,-0.698132,-0.174533,-0.174533,-0.0950659,-0.69642,-0.17247,-0.203506,1.55989,-0.0958297,-0.0618976,0.869201
26,40,-0.0872665,-0.698132,-0.174533,-0.174533,-0.0950659,-0.69642,-0.17247,-0.203506,1.55989,-0.0958297,-0.0618976,0.869201
26,40,-0.0872665,-0.698132,-0.174533,-0.174533,-0.0950659,-0.69642,-0.17247,-0.203506,1.55989,-0.0958297,-0.0618976,0.869201
26,40,-0.0872665,-0.698132,-0.174533,-0.174533,-0.0950659,-0.69642,-0.17247,-0.203506,1.55989,-0.0958297,-0.0618976,0.869201
26,40,-0.0872665,-0.698132,-0.174533,-0.174533,-0.0950659,-0.69642,-0.17247,-0.203506,1.55989,-0.0958297,-0.0618976,0.869201
26,40,-0.0872665,-0.698132,-0.174533,-0.174533,-0.0950659,-0.69642,-0.17247,-0.203506,1.55989,-0.0958297,-0.0618976,0.869201
26,40,-0.0872665,-0.698132,-0.174533,-0.174533,-0.0950659,-0.69642,-0.17247,-0.203506,1.55989,-0.0958297,-0.0618976,0.869201
26,40,-0.0872665,-0.698132,-0.174533,-0.174533,-0.0950659,-0.69642,-0.17247,-0.203506,1.55989,-0.0958297,-0.0618976,0.869201
26,40,-0.0872665,-0.698132,-0.174533,-0.174533,-0.0950659,-0.69642,-0.17247,-0.203506,1.55989,-0.0958297,-0.0618976,0.869201
26,40,-0.0872665,-0.698132,-0.174533,-0.174533,-0.0950659,-0.69642,-0.17247,-0.203506,1.55989,-0.0958297,-0.0618976,0.869201
26,40,-0.0872665,-0.698132,-0.174533,-0.174533,-0.0950659,-0.69642,-0.17247,-0.203506,1.55989,-0.0958297,-0.0618976,0.869201
26,40,-0.0872665,-0.698132,-0.174533,-0.174533,-0.0950659,-0.69642,-0.17247,-0.203506,1.55989,-0.0958297,-0.0618976,0.869201
26,40,-0.0872665,-0.698132,-0.174533,-0.174533,-0.0950659,-0.69642,-0.17247,-0.203506,1.55989,-0.0958297,-0.0618976,0.869201
26,40,-0.0872665,-0.698132,-0.174533,-0.174533,-0.0950659,-0.69642,-0.17247,-0.203506,1.55989,-0.0958297,-0.0618976,0.869201
26,40,-0.0872665,-0.698132,-0.174533,-0.174533,-0.0950659,-0.69642,-0.17247,-0.203506,1.55989,-0.0958297,-0.0618976,0.869201
26,40,-0.0872665,-0.698132,-0.174533,-0.174533,-0.0950659,-0.69642,-0.17247,-0.203506,1.55989,-0.0958297,-0.0618976,0.869201
26,40,-0.0872665,-0.698132,-0.174533,-0.174533,-0.0950659,-0.69642,-0.17247,-0.203506,1.55989,-0.0958297,-0.0618976,0.869201
26,40,-0.0872665,-0.698132,-0.174533,-0.174533,-0.0950659,-0.69642,-0.17247,-0.203506,1.55989,-0.0958297,-0.0618976,0.869201
26,40,-0.0872665,-0.698132,-0.174533,-0.174533,-0.0950659,-0.69642,-0.17247,-0.203506,1.55989,-0.0958297,-0.0618976,0.869201
26,40,-0.0872665,-0.698132,-0.174533,-0.174533,-0.0950659,-0.69642,-0.17247,-0.203506,1.55989,-0.0958297,-0.0618976,0.869201
26,40,-0.0872665,-0.698132,-0.174533,-0.174533,-0.0950659,-0.69642,-0.17247,-0.203506,1.55989,-0.0958297,-0.0618976,0.869201
26,40,-0.0872665,-0.698132,-0.174533,-0.174533,-0.0950659,-0.69642,-0.17247,-0.203506,1.55989,-0.0958297,-0.0618976,0.869201
26,40,-0.0872665,-0.698132,-0.174533,-0.174533,-0.0950659,-0.69642,-0.17247,-0.203506,1.55989,-0.0958297,-0.0618976,0.869201
26,40,-0.0872665,-0.698132,-0.174533,-0.174533,-0.0950659,-0.69642,-0.17247,-0.203506,1.55989,-0.0958297,-0.0618976,0.869201
26,40,-0.0872665,-0.698132,-0.174533,-0.174533,-0.0950659,-0.69642,-0.17247,-0.203506,1.55989,-0.0958297,-0.0618976,0.869201
26,40,-0.0872665,-0.698132,-0.174533,-0.174533,-0.0950659,-0.69642,-0.17247,-0.203506,1.55989,-0.0958297,-0.0618976,0.869201
26,40,-0.0872665,-0.698132,-0.174533,-0.174533,-0.0950659,-0.69642,-0.17247,-0.203506,1.55989,-0.0958297,-0.0618976,0.869201
26,40,-0.0872665,-0.698132,-0.174533,-0.174533,-0.0950659,-0.69642,-0.17247,-0.203506,1.55989,-0.0958297,-0.0618976,0.869201
26,40,-0.0872665,-0.698132,-0.174533,-0.174533,-0.0950659,-0.69642,-0.17247,-0.203506,1.55989,-0.0958297,-0.0618976,0.869201
26,40,-0.0872665,-0.698132,-0.174533,-0.174533,-0.0950659,-0.69642,-0.17247,-0.203506,1.55989,-0.0958297,-0.0618976,0.869201
26,40,-0.0872665,-0.698132,-0.174533,-0.174533,-0.0950659,-0.69642,-0.17247,-0.203506,1.55989,-0.0958297,-0.0618976,0.869201
26,40,-0.0872665,-0.698132,-0.174533,-0.174533,-0.0950659,-0.69642,-0.17247,-0.203506,1.55989,-0.0958297,-0.0618976,0.869201
26,40,-0.0872665,-0.698132,-0.174533,-0.174533,-0.0950659,-0.69642,-0.17247,-0.203506,1.55989,-0.0958297,-0.0618976,0.869201
26,40,-0.0872665,-0.698132,-0.174533,-0.174533,-0.0950659,-0.69642,-0.17247,-0.203506,1.55989,-0.0958297,-0.0618976,0.869201
26,40,-0.0872665,-0.698132,-0.174533,-0.174533,-0.0950659,-0.69642,-0.17247,-0.203506,1.55989,-0.0958297,-0.0618976,0.869201
26,40,-0.0872665,-0.698132,-0.174533,-0.174533,-0.0950659,-0.69642,-0.17247,-0.203506,1.55989,-0.0958297,-0.0618976,0.869201
26,40,-0.0872665,-0.698132,-0.174533,-0.174533,-0.0950659,-0.69642,-0.17247,-0.203506,1.55989,-0.0958297,-0.0618976,0.869201
26,40,-0.0872665,-0.698132,-0.174533,-0.174533,-0.0950659,-0.69642,-0.17247,-0.203506,1.55989,-0.0958297,-0.0618976,0.869201
26,40,-0.0872665,-0.698132,-0.174533,-0.174533,-0.0950659,-0.69642,-0.17247,-0.203506,1.55989,-0.0958297,-0.0618976,0.869201
26,40,-0.0872665,-0.698132,-0.174533,-0.174533,-0.0950659,-0.69642,-0.17247,-0.203506,1.55989,-0.0958297,-0.0618976,0.869201
26,40,-0.0872665,-0.698132,-0.174533,-0.174533,-0.0950659,-0.69642,-0.17247,-0.203506,1.55989,-0.0958297,-0.0618976,0.869201
26,40,-0.0872665,-0.698132,-0.174533,-0.174533,-0.0950659,-0.69642,-0.17247,-0.203506,1.55989,-0.0958297,-0.0618976,0.869201
26,40,-0.0872665,-0.698132,-0.174533,-0.174533,-0.0950659,-0.69642,-0.17247,-0.203506,1.55989,-0.0958297,-0.0618976,0.869201
26,40,-0.0872665,-0.698132,-0.174533,-0.174533,-0.0950659,-0.69642,-0.17247,-0.203506,1.55989,-0.0958297,-0.0618976,0.869201
26,40,-0.0872665,-0.698132,-0.174533,-0.174533,-0.0950659,-0.69642,-0.17247,-0.203506,1.55989,-0.0958297,-0.0618976,0.869201
26,40,-0.0872665,-0.698132,-0.174533,-0.174533,-0.0950659,-0.69642,-0.17247,-0.203506,1.55989,-0.0958297,-0.0618976,0.869201
26,40,-0.0872665,-0.698132,-0.174533,-0.174533,-0.0950659,-0.69642,-0.17247,-0.203506,1.55989,-0.0958297,-0.0618976,0.869201
26,40,-0.0872665,-0.698132,-0.174533,-0.174533,-0.0950659,-0.69642,-0.17247,-0.203506,1.55989,-0.0958297,-0.0618976,0.869201
26,40,-0.0872665,-0.698132,-0.174533,-0.174533,-0.0950659,-0.69642,-0.17247,-0.203506,1.55989,-0.0958297,-0.0618976,0.869201
26,40,-0.0872665,-0.698132,-0.174533,-0.174533,-0.0950659,-0.69642,-0.17247,-0.203506,1.55989,-0.0958297,-0.0618976,0.869201
26,40,-0.0872665,-0.698132,-0.174533,-0.174533,-0.0950659,-0.69642,-0.17247,-0.203506,1.55989,-0.0958297,-0.0618976,0.869201
26,40,-0.0872665,-0.698132,-0.174533,-0.174533,-0.0950659,-0.69642,-0.17247,-0.203506,1.55989,-0.0958297,-0.0618976,0.869201
26,40,-0.0872665,-0.698132,-0.174533,-0.174533,-0.0950659,-0.69642,-0.17247,-0.203506,1.55989,-0.0958297,-0.0618975,0.869201
26,40,-0.0872665,-0.698132,-0.174533,-0.174533,-0.0950659,-0.69642,-0.17247,-0.203506,1.55989,-0.0958297,-0.0618973,0.869201
26,40,-0.0872665,-0.698132,-0.174533,-0.174533,-0.0950659,-0.69642,-0.172409,-0.203525,1.55989,-0.0958297,-0.06374,0.869756
26,40,-0.0872665,-0.698132,-0.174533,-0.174533,-0.0950659,-0.69642,-0.172409,-0.203525,1.55989,-0.0958297,-0.06374,0.869756
26,40,-0.0872665,-0.698132,-0.174533,-0.174533,-0.0950659,-0.69642,-0.172409,-0.203525,1.55989,-0.0958297,-0.06374,0.869756
26,40,-0.0872665,-0.698132,-0.174533,-0.174533,-0.0950659,-0.69642,-0.172409,-0.203525,1.55989,-0.0958297,-0.06374,0.869756
26,40,-0.0872665,-0.698132,-0.174533,-0.174533,-0.0950659,-0.69642,-0.172409,-0.203525,1.55989,-0.0958297,-0.06374,0.869756
26,40,-0.0872665,-0.698132,-0.174533,-0.174533,-0.0950659,-0.69642,-0.172409,-0.203525,1.55989,-0.0958297,-0.06374,0.869756
26,40,-0.0872665,-0.698132,-0.174533,-0.174533,-0.0950659,-0.69642,-0.172409,-0.203525,1.55989,-0.0958297,-0.06374,0.869756
26,40,-0.0872665,-0.698132,-0.174533,-0.174533,-0.0950659,-0.69642,-0.172409,-0.203525,1.55989,-0.0958297,-0.06374,0.869756
26,40,-0.0872665,-0.698132,-0.174533,-0.174533,-0.0950659,-0.69642,-0.172409,-0.203525,1.55989,-0.0958297,-0.06374,0.869756
26,40,-0.0872665,-0.698132,-0.174533,-0.174533,-0.0950659,-0.69642,-0.172409,-0.203525,1.55989,-0.0958297,-0.06374,0.869756
26,40,-0.0872665,-0.698132,-0.174533,-0.174533,-0.0950659,-0.69642,-0.172409,-0.203525,1.55989,-0.0958297,-0.06374,0.869756
26,40,-0.0872665,-0.698132,-0.174533,-0.174533,-0.0950659,-0.69642,-0.172409,-0.203525,1.55989,-0.0958297,-0.06374,0.869756
26,40,-0.0872665,-0.698132,-0.174533,-0.174533,-0.0950659,-0.69642,-0.172409,-0.203525,1.55989,-0.0958297,-0.06374,0.869756
26,40,-0.0872665,-0.698132,-0.174533,-0.174533,-0.0950659,-0.69642,-0.172409,-0.203525,1.55989,-0.0958297,-0.06374,0.869756
26,40,-0.0872665,-0.698132,-0.174533,-0.174533,-0.0950659,-0.69642,-0.172409,-0.203525,1.55989,-0.0958297,-0.06374,0.869756
26,40,-0.0872665,-0.698132,-0.174533,-0.174533,-0.0950659,-0.69642,-0.172409,-0.203525,1.55989,-0.0958297,-0.06374,0.869756
26,40,-0.0872665,-0.698132,-0.174533,-0.174533,-0.0950659,-0.69642,-0.172409,-0.203525,1.55989,-0.0958297,-0.06374,0.869756
26,40,-0.0872665,-0.698132,-0.174533,-0.174533,-0.0950659,-0.69642,-0.172409,-0.203525,1.55989,-0.0958297,-0.06374,0.869756
26,40,-0.0872665,-0.698132,-0.174533,-0.174533,-0.0950659,-0.69642,-0.172409,-0.203525,1.55989,-0.0958297,-0.06374,0.869756
26,40,-0.0872665,-0.698132,-0.174533,-0.174533,-0.0950659,-0.69642,-0.172409,-0.203525,1.55989,-0.0958297,-0.06374,0.869756
26,40,-0.0872665,-0.698132,-0.174533,-0.174533,-0.0950659,-0.69642,-0.172409,-0.203525,1.55989,-0.0958297,-0.06374,0.869756
26,40,-0.0872665,-0.698132,-0.174533,-0.174533,-0.0950659,-0.69642,-0.172409,-0.203525,1.55989,-0.0958297,-0.06374,0.869756
26,40,-0.0872665,-0.698132,-0.174533,-0.174533,-0.0950659,-0.69642,-0.172409,-0.203525,1.55989,-0.0958297,-0.06374,0.869756
26,40,-0.0872665,-0.698132,-0.174533,-0.174533,-0.0950659,-0.69642,-0.172409,-0.203525,1.55989,-0.0958297,-0.06374,0.869756
26,40,-0.0872665,-0.698132,-0.174533,-0.174533,-0.0950659,-0.69642,-0.172409,-0.203525,1.55989,-0.0958297,-0.06374,0.869756
26,40,-0.0872665,-0.698132,-0.174533,-0.174533,-0.0950659,-0.69642,-0.172409,-0.203525,1.55989,-0.0958297,-0.06374,0.869756
26,40,-0.0872665,-0.698132,-0.174533,-0.174533,-0.0950659,-0.69642,-0.172409,-0.203525,1.55989,-0.0958297,-0.06374,0.869756
26,40,-0.0872665,-0.698132,-0.174533,-0.174533,-0.0950659,-0.69642,-0.172409,-0.203525,1.55989,-0.0958297,-0.06374,0.869756
26,40,-0.0872665,-0.698132,-0.174533,-0.174533,-0.0950659,-0.69642,-0.172409,-0.203525,1.55989,-0.0958297,-0.06374,0.869756
26,40,-0.0872665,-0.698132,-0.174533,-0.174533,-0.0950659,-0.69642,-0.172409,-0.203525,1.55989,-0.0958297,-0.06374,0.869756
26,40,-0.0872665,-0.698132,-0.174533,-0.174533,-0.0950659,-0.69642,-0.172409,-0.203525,1.55989,-0.0958297,-0.06374,0.869756
26,40,-0.0872665,-0.698132,-0.174533,-0.174533,-0.0950659,-0.69642,-0.172409,-0.203525,1.55989,-0.0958297,-0.06374,0.869756
26,40,-0.0872665,-0.698132,-0.174533,-0.174533,-0.0950659,-0.69642,-0.172409,-0.203525,1.55989,-0.0958297,-0.0637439,0.869754
26,40,-0.0872665,-0.698132,-0.174533,-0.174533,-0.0950659,-0.69642,-0.172409,-0.203525,1.55989,-0.0958297,-0.0637439,0.869754
26,40,-0.0872665,-0.698132,-0.174533,-0.174533,-0.0950659,-0.69642,-0.172409,-0.203525,1.55989,-0.0958297,-0.0637439,0.869754
26,40,-0.0872665,-0.698132,-0.174533,-0.174533,-0.0950659,-0.69642,-0.172409,-0.203525,1.55989,-0.0958297,-0.0637439,0.869754
26,40,-0.0872665,-0.698132,-0.174533,-0.174533,-0.0950659,-0.69642,-0.172478,-0.203568,1.55989,-0.0958297,-0.0616629,0.87107
26,40,-0.0872665,-0.698132,-0.174533,-0.174533,-0.0950659,-0.69642,-0.172478,-0.203568,1.55989,-0.0958297,-0.0616629,0.87107
26,40,-0.0872665,-0.698132,-0.174533,-0.174533,-0.0950659,-0.69642,-0.172478,-0.203568,1.55989,-0.0958297,-0.0616629,0.87107
26,40,-0.0872665,-0.698132,-0.174533,-0.174533,-0.0950659,-0.69642,-0.172478,-0.203568,1.55989,-0.0958297,-0.0616629,0.87107
26,40,-0.0872665,-0.698132,-0.174533,-0.174533,-0.0950659,-0.69642,-0.172478,-0.203568,1.55989,-0.0958297,-0.0616629,0.87107
26,40,-0.0872665,-0.698132,-0.174533,-0.174533,-0.0950659,-0.69642,-0.172478,-0.203568,1.55989,-0.0958297,-0.0616629,0.87107
26,40,-0.0872665,-0.698132,-0.174533,-0.174533,-0.0950659,-0.69642,-0.172478,-0.203568,1.55989,-0.0958297,-0.0616629,0.87107
26,40,-0.0872665,-0.698132,-0.174533,-0.174533,-0.0950659,-0.69642,-0.172478,-0.203568,1.55989,-0.0958297,-0.0616629,0.87107
26,40,-0.0872665,-0.698132,-0.174533,-0.174533,-0.0950659,-0.69642,-0.172478,-0.203568,1.55989,-0.0958297,-0.0616629,0.87107
26,40,-0.0872665,-0.698132,-0.174533,-0.174533,-0.0950659,-0.69642,-0.172478,-0.203568,1.55989,-0.0958297,-0.0616629,0.87107
26,40,-0.0872665,-0.698132,-0.174533,-0.174533,-0.0950659,-0.69642,-0.172478,-0.203568,1.55989,-0.0958297,-0.0616629,0.87107
26,40,-0.0872665,-0.698132,-0.174533,-0.174533,-0.0950659,-0.69642,-0.172478,-0.203568,1.55989,-0.0958297,-0.0616629,0.87107
26,40,-0.0872665,-0.698132,-0.174533,-0.174533,-0.0950659,-0.69642,-0.172478,-0.203568,1.55989,-0.0958297,-0.0616629,0.87107
26,40,-0.0872665,-0.698132,-0.174533,-0.174533,-0.0950659,-0.69642,-0.172478,-0.203568,1.55989,-0.0958297,-0.0616629,0.87107
26,40,-0.0872665,-0.698132,-0.174533,-0.174533,-0.0950659,-0.69642,-0.172478,-0.203568,1.55989,-0.0958297,-0.0616629,0.87107
26,40,-0.0872665,-0.698132,-0.174533,-0.174533,-0.0950659,-0.69642,-0.172478,-0.203568,1.55989,-0.0958297,-0.0616629,0.87107
26,40,-0.0872665,-0.698132,-0.174533,-0.174533,-0.0950659,-0.69642,-0.172478,-0.203568,1.55989,-0.0958297,-0.0616629,0.87107
26,40,-0.0872665,-0.698132,-0.174533,-0.174533,-0.0950659,-0.69642,-0.172478,-0.203568,1.55989,-0.0958297,-0.0616629,0.87107
26,40,-0.0872665,-0.698132,-0.174533,-0.174533,-0.0950659,-0.69642,-0.172478,-0.203568,1.55989,-0.0958297,-0.0616629,0.87107
26,40,-0.0872665,-0.698132,-0.174533,-0.174533,-0.0950659,-0.69642,-0.172478,-0.203568,1.55989,-0.0958297,-0.0616629,0.87107
26,40,-0.0872665,-0.698132,-0.174533,-0.174533,-0.0950659,-0.69642,-0.172478,-0.203568,1.55989,-0.0958297,-0.0616629,0.87107
26,40,-0.0872665,-0.698132,-0.174533,-0.174533,-0.0950659,-0.69642,-0.172478,-0.203568,1.55989,-0.0958297,-0.0616629,0.87107
26,40,-0.0872665,-0.698132,-0.174533,-0.174533,-0.0950659,-0.69642,-0.172478,-0.203568,1.55989,-0.0958297,-0.0616629,0.87107
26,40,-0.0872665,-0.698132,-0.174533,-0.174533,-0.0950659,-0.69642,-0.172478,-0.203568,1.55989,-0.0958297,-0.0616629,0.87107
26,40,-0.0872665,-0.698132,-0.174533,-0.174533,-0.0950659,-0.69642,-0.172478,-0.203568,1.55989,-0.0958297,-0.0616629,0.87107
26,40,-0.0872665,-0.698132,-0.174533,-0.174533,-0.0950659,-0.69642,-0.172478,-0.203568,1.55989,-0.0958297,-0.0616629,0.87107
26,40,-0.0872665,-0.698132,-0.174533,-0.174533,-0.0950659,-0.69642,-0.172478,-0.203568,1.55989,-0.0958297,-0.0616629,0.87107
26,40,-0.0872665,-0.698132,-0.174533,-0.174533,-0.0950659,-0.69642,-0.172478,-0.203568,1.55989,-0.0958297,-0.0616629,0.87107
26,40,-0.0872665,-0.698132,-0.174533,-0.174533,-0.0950659,-0.69642,-0.172478,-0.203568,1.55989,-0.0958297,-0.0616629,0.87107
26,40,-0.0872665,-0.698132,-0.174533,-0.174533,-0.0950659,-0.69642,-0.172478,-0.203568,1.55989,-0.0958297,-0.0616629,0.87107
26,40,-0.0872665,-0.698132,-0.174533,-0.174533,-0.0950659,-0.69642,-0.172478,-0.203568,1.55989,-0.0958297,-0.0616629,0.87107
26,40,-0.0872665,-0.698132,-0.174533,-0.174533,-0.0950659,-0.69642,-0.172478,-0.203568,1.55989,-0.0958297,-0.0616629,0.87107
26,40,-0.0872665,-0.698132,-0.174533,-0.174533,-0.0950659,-0.69642,-0.172478,-0.203568,1.55989,-0.0958297,-0.0616629,0.87107
26,40,-0.0872665,-0.698132,-0.174533,-0.174533,-0.0950659,-0.69642,-0.172478,-0.203568,1.55989,-0.0958297,-0.0616629,0.87107
26,40,-0.0872665,-0.698132,-0.174533,-0.174533,-0.0950659,-0.69642,-0.172478,-0.203568,1.55989,-0.0958297,-0.0616629,0.87107
26,40,-0.0872665,-0.698132,-0.174533,-0.174533,-0.0950659,-0.69642,-0.172478,-0.203568,1.55989,-0.0958297,-0.0616629,0.87107
26,40,-0.0872665,-0.698132,-0.174533,-0.174533,-0.0950659,-0.69642,-0.172478,-0.203568,1.55989,-0.0958297,-0.0616629,0.87107
26,40,-0.0872665,-0.698132,-0.174533,-0.174533,-0.0950659,-0.69642,-0.172478,-0.203568,1.55989,-0.0958297,-0.0616629,0.87107
26,40,-0.0872665,-0.698132,-0.174533,-0.174533,-0.0950659,-0.69642,-0.172478,-0.203568,1.55989,-0.0958297,-0.0616629,0.87107
26,40,-0.0872665,-0.698132,-0.174533,-0.174533,-0.0950659,-0.69642,-0.172478,-0.203568,1.55989,-0.0958297,-0.0616629,0.87107
26,40,-0.0872665,-0.698132,-0.174533,-0.174533,-0.0950659,-0.69642,-0.172478,-0.203568,1.55989,-0.0958297,-0.0616629,0.87107
26,40,-0.0872665,-0.698132,-0.174533,-0.174533,-0.0950659,-0.69642,-0.172478,-0.203568,1.55989,-0.0958297,-0.0616629,0.87107
26,40,-0.0872665,-0.698132,-0.174533,-0.174533,-0.0950659,-0.69642,-0.172478,-0.203568,1.55989,-0.0958297,-0.0616629,0.87107
26,40,-0.0872665,-0.698132,-0.174533,-0.174533,-0.0950659,-0.69642,-0.172478,-0.203568,1.55989,-0.0958297,-0.0616629,0.87107
26,40,-0.0872665,-0.698132,-0.174533,-0.174533,-0.0950659,-0.69642,-0.172478,-0.203568,1.55989,-0.0958297,-0.0616629,0.87107
26,40,-0.0872665,-0.698132,-0.174533,-0.174533,-0.0950659,-0.69642,-0.172478,-0.203568,1.55989,-0.0958297,-0.0616629,0.87107
26,40,-0.0872665,-0.698132,-0.174533,-0.174533,-0.0950659,-0.69642,-0.172478,-0.203568,1.55989,-0.0958297,-0.0616629,0.87107
26,40,-0.0872665,-0.698132,-0.174533,-0.174533,-0.0950659,-0.69642,-0.172478,-0.203568,1.55989,-0.0958297,-0.0616629,0.87107
26,40,-0.0872665,-0.698132,-0.174533,-0.174533,-0.0950659,-0.69642,-0.172478,-0.203568,1.55989,-0.0958297,-0.0616629,0.87107
26,40,-0.0872665,-0.698132,-0.174533,-0.174533,-0.0950659,-0.69642,-0.172478,-0.203568,1.55989,-0.0958297,-0.0616629,0.87107
26,40,-0.0872665,-0.698132,-0.174533,-0.174533,-0.0950659,-0.69642,-0.172478,-0.203568,1.55989,-0.0958297,-0.0616629,0.87107
26,40,-0.0872665,-0.698132,-0.174533,-0.174533,-0.0950659,-0.69642,-0.172478,-0.203568,1.55989,-0.0958297,-0.0616629,0.87107
26,40,-0.0872665,-0.698132,-0.174533,-0.174533,-0.0950659,-0.69642,-0.172478,-0.203568,1.55989,-0.0958297,-0.0616629,0.87107
26,40,-0.0872665,-0.698132,-0.174533,-0.174533,-0.0950659,-0.69642,-0.172478,-0.203568,1.55989,-0.0958297,-0.0616629,0.87107
26,40,-0.0872665,-0.698132,-0.174533,-0.174533,-0.0950659,-0.69642,-0.172478,-0.203568,1.55989,-0.0958297,-0.0616629,0.87107
26,40,-0.0872665,-0.698132,-0.174533,-0.174533,-0.0950659,-0.69642,-0.172478,-0.203568,1.55989,-0.0958297,-0.0616629,0.87107
26,40,-0.0872665,-0.698132,-0.174533,-0.174533,-0.0950659,-0.69642,-0.172478,-0.203568,1.55989,-0.0958297,-0.0616629,0.87107
26,40,-0.0872665,-0.698132,-0.174533,-0.174533,-0.0950659,-0.69642,-0.172478,-0.203568,1.55989,-0.0958297,-0.0616629,0.87107
26,40,-0.0872665,-0.698132,-0.174533,-0.174533,-0.0950659,-0.69642,-0.172478,-0.203568,1.55989,-0.0958297,-0.0616629,0.87107
26,40,-0.0872665,-0.698132,-0.174533,-0.174533,-0.0950659,-0.69642,-0.172478,-0.203568,1.55989,-0.0958297,-0.0616629,0.87107
26,40,-0.0872665,-0.698132,-0.174533,-0.174533,-0.0950659,-0.69642,-0.172478,-0.203568,1.55989,-0.0958297,-0.0616629,0.87107
26,40,-0.0872665,-0.698132,-0.174533,-0.174533,-0.0950659,-0.69642,-0.172478,-0.203568,1.55989,-0.0958297,-0.0616629,0.87107
26,40,-0.0872665,-0.698132,-0.174533,-0.174533,-0.0950659,-0.69642,-0.172478,-0.203568,1.55989,-0.0958297,-0.0616629,0.87107
26,40,-0.0872665,-0.698132,-0.174533,-0.174533,-0.0950659,-0.69642,-0.172478,-0.203568,1.55989,-0.0958297,-0.0616629,0.87107
26,40,-0.0872665,-0.698132,-0.174533,-0.174533,-0.0950659,-0.69642,-0.172478,-0.203568,1.55989,-0.0958297,-0.0616629,0.87107
26,40,-0.0872665,-0.698132,-0.174533,-0.174533,-0.0950659,-0.69642,-0.172478,-0.203568,1.55989,-0.0958297,-0.0616629,0.87107
26,40,-0.0872665,-0.698132,-0.174533,-0.174533,-0.0950659,-0.69642,-0.172478,-0.203568,1.55989,-0.0958297,-0.0616629,0.87107
26,40,-0.0872665,-0.698132,-0.174533,-0.174533,-0.0950659,-0.69642,-0.172478,-0.203568,1.55989,-0.0958297,-0.0616629,0.87107
26,40,-0.0872665,-0.698132,-0.174533,-0.174533,-0.0950659,-0.69642,-0.172478,-0.203568,1.55989,-0.0958297,-0.0616629,0.87107
26,40,-0.0872665,-0.698132,-0.174533,-0.174533,-0.0950659,-0.69642,-0.172478,-0.203568,1.55989,-0.0958297,-0.0616629,0.87107
26,40,-0.0872665,-0.698132,-0.174533,-0.174533,-0.0950659,-0.69642,-0.172478,-0.203568,1.55989,-0.0958297,-0.0616629,0.87107
26,40,-0.0872665,-0.698132,-0.174533,-0.174533,-0.0950659,-0.69642,-0.172478,-0.203568,1.55989,-0.0958297,-0.0616629,0.87107
26,40,-0.0872665,-0.698132,-0.174533,-0.174533,-0.0950659,-0.69642,-0.172478,-0.203568,1.55989,-0.0958297,-0.0616629,0.87107
26,40,-0.0872665,-0.698132,-0.174533,-0.174533,-0.0950659,-0.69642,-0.172478,-0.203568,1.55989,-0.0958297,-0.0616629,0.87107
26,40,-0.0872665,-0.698132,-0.174533,-0.174533,-0.0950659,-0.69642,-0.172478,-0.203568,1.55989,-0.0958297,-0.0616629,0.87107
26,40,-0.0872665,-0.698132,-0.174533,-0.174533,-0.0950659,-0.69642,-0.172478,-0.203568,1.55989,-0.0958297,-0.0616629,0.87107
26,40,-0.0872665,-0.698132,-0.174533,-0.174533,-0.0950659,-0.69642,-0.172478,-0.203568,1.55989,-0.0958297,-0.0616629,0.87107
26,40,-0.0872665,-0.698132,-0.174533,-0.174533,-0.0950659,-0.69642,-0.172478,-0.203568,1.55989,-0.0958297,-0.0616629,0.87107
26,40,-0.0872665,-0.698132,-0.174533,-0.174533,-0.0950659,-0.69642,-0.172478,-0.203568,1.55989,-0.0958297,-0.0616629,0.87107
26,40,-0.0872665,-0.698132,-0.174533,-0.174533,-0.0950659,-0.69642,-0.172478,-0.203568,1.55989,-0.0958297,-0.0616629,0.87107
26,40,-0.0872665,-0.698132,-0.174533,-0.174533,-0.0950659,-0.69642,-0.172478,-0.203568,1.55989,-0.0958297,-0.0616629,0.87107
26,40,-0.0872665,-0.698132,-0.174533,-0.174533,-0.0950659,-0.69642,-0.172478,-0.203568,1.55989,-0.0958297,-0.0616629,0.87107
26,40,-0.0872665,-0.698132,-0.174533,-0.174533,-0.0950659,-0.69642,-0.172478,-0.203568,1.55989,-0.0958297,-0.0616629,0.87107
26,40,-0.0872665,-0.698132,-0.174533,-0.174533,-0.0950659,-0.69642,-0.172478,-0.203568,1.55989,-0.0958297,-0.0616629,0.87107
26,40,-0.0872665,-0.698132,-0.174533,-0.174533,-0.0950659,-0.69642,-0.172478,-0.203568,1.55989,-0.0958297,-0.0616629,0.87107
26,40,-0.0872665,-0.698132,-0.174533,-0.174533,-0.0950659,-0.69642,-0.172478,-0.203568,1.55989,-0.0958297,-0.0616629,0.87107
26,40,-0.0872665,-0.698132,-0.174533,-0.174533,-0.0950659,-0.69642,-0.172478,-0.203568,1.55989,-0.0958297,-0.0616629,0.87107
26,40,-0.0872665,-0.698132,-0.174533,-0.174533,-0.0950659,-0.69642,-0.172478,-0.203568,1.55989,-0.0958297,-0.0616629,0.87107
26,40,-0.0872665,-0.698132,-0.174533,-0.174533,-0.0950659,-0.69642,-0.172478,-0.203568,1.55989,-0.0958297,-0.0616629,0.87107
26,40,-0.0872665,-0.698132,-0.174533,-0.174533,-0.0950659,-0.69642,-0.172478,-0.203568,1.55989,-0.0958297,-0.0616629,0.87107
26,40,-0.0872665,-0.698132,-0.174533,-0.174533,-0.0950659,-0.69642,-0.172478,-0.203568,1.55989,-0.0958297,-0.0616629,0.87107
26,40,-0.0872665,-0.698132,-0.174533,-0.174533,-0.0950659,-0.69642,-0.172478,-0.203568,1.55989,-0.0958297,-0.0616629,0.87107
26,40,-0.0872665,-0.698132,-0.174533,-0.174533,-0.0950659,-0.69642,-0.172478,-0.203568,1.55989,-0.0958297,-0.0616629,0.87107
26,40,-0.0872665,-0.698132,-0.174533,-0.174533,-0.0950659,-0.69642,-0.172478,-0.203568,1.55989,-0.0958297,-0.0616629,0.87107
26,40,-0.0872665,-0.698132,-0.174533,-0.174533,-0.0950659,-0.69642,-0.172478,-0.203568,1.55989,-0.0958297,-0.0616629,0.87107
26,40,-0.0872665,-0.698132,-0.174533,-0.174533,-0.0950659,-0.69642,-0.172478,-0.203568,1.55989,-0.0958297,-0.0616629,0.87107
26,40,-0.0872665,-0.698132,-0.174533,-0.174533,-0.0950659,-0.69642,-0.172478,-0.203568,1.55989,-0.0958297,-0.0616629,0.87107
26,40,-0.0872665,-0.698132,-0.174533,-0.174533,-0.0950659,-0.69642,-0.172478,-0.203568,1.55989,-0.0958297,-0.0616629,0.87107
26,40,-0.0872665,-0.698132,-0.174533,-0.174533,-0.0950659,-0.69642,-0.172478,-0.203568,1.55989,-0.0958297,-0.0616629,0.87107
26,40,-0.0872665,-0.698132,-0.174533,-0.174533,-0.0950659,-0.69642,-0.172478,-0.203568,1.55989,-0.0958297,-0.0616629,0.87107
26,40,-0.0872665,-0.698132,-0.174533,-0.174533,-0.0950659,-0.69642,-0.172478,-0.203568,1.55989,-0.0958297,-0.0616629,0.87107
26,40,-0.0872665,-0.698132,-0.174533,-0.174533,-0.0950659,-0.69642,-0.172478,-0.203568,1.55989,-0.0958297,-0.0616629,0.87107
26,40,-0.0872665,-0.698132,-0.174533,-0.174533,-0.0950659,-0.69642,-0.172478,-0.203568,1.55989,-0.0958297,-0.0616629,0.87107
26,40,-0.0872665,-0.698132,-0.174533,-0.174533,-0.0950659,-0.69642,-0.172478,-0.203568,1.55989,-0.0958297,-0.0616629,0.87107
26,40,-0.0872665,-0.698132,-0.174533,-0.174533,-0.0950659,-0.69642,-0.172478,-0.203568,1.55989,-0.0958297,-0.0616629,0.87107
26,40,-0.0872665,-0.698132,-0.174533,-0.174533,-0.0950659,-0.69642,-0.172478,-0.203568,1.55989,-0.0958297,-0.0616629,0.87107
26,40,-0.0872665,-0.698132,-0.174533,-0.174533,-0.0950659,-0.69642,-0.172478,-0.203568,1.55989,-0.0958297,-0.0616629,0.87107
26,40,-0.0872665,-0.698132,-0.174533,-0.174533,-0.0950659,-0.69642,-0.172478,-0.203568,1.55989,-0.0958297,-0.0616629,0.87107
26,40,-0.0872665,-0.698132,-0.174533,-0.174533,-0.0950659,-0.69642,-0.172478,-0.203568,1.55989,-0.0958297,-0.0616629,0.87107
26,40,-0.0872665,-0.698132,-0.174533,-0.174533,-0.0950659,-0.69642,-0.172478,-0.203568,1.55989,-0.0958297,-0.0616629,0.87107
26,40,-0.0872665,-0.698132,-0.174533,-0.174533,-0.0950659,-0.69642,-0.172478,-0.203568,1.55989,-0.0958297,-0.0616629,0.87107
26,40,-0.0872665,-0.698132,-0.174533,-0.174533,-0.0950659,-0.69642,-0.172478,-0.203568,1.55989,-0.0958297,-0.0616629,0.87107
26,40,-0.0872665,-0.698132,-0.174533,-0.174533,-0.0950659,-0.69642,-0.172478,-0.203568,1.55989,-0.0958297,-0.0616629,0.87107
26,40,-0.0872665,-0.698132,-0.174533,-0.174533,-0.0950659,-0.69642,-0.172478,-0.203568,1.55989,-0.0958297,-0.0616629,0.87107
26,40,-0.0872665,-0.698132,-0.174533,-0.174533,-0.0950659,-0.69642,-0.172478,-0.203568,1.55989,-0.0958297,-0.0616629,0.87107
26,40,-0.0872665,-0.698132,-0.174533,-0.174533,-0.0950659,-0.69642,-0.172478,-0.203568,1.55989,-0.0958297,-0.0616629,0.87107
26,40,-0.0872665,-0.698132,-0.174533,-0.174533,-0.0950659,-0.69642,-0.172478,-0.203568,1.55989,-0.0958297,-0.0616629,0.87107
26,40,-0.0872665,-0.698132,-0.174533,-0.174533,-0.0950659,-0.69642,-0.172478,-0.203568,1.55989,-0.0958297,-0.0616629,0.87107
26,40,-0.0872665,-0.698132,-0.174533,-0.174533,-0.0950659,-0.69642,-0.172478,-0.203568,1.55989,-0.0958297,-0.0616629,0.87107
26,40,-0.0872665,-0.698132,-0.174533,-0.174533,-0.0950659,-0.69642,-0.172416,-0.203587,1.55989,-0.0958297,-0.0635104,0.871626
26,40,-0.0872665,-0.698132,-0.174533,-0.174533,-0.0950659,-0.69642,-0.172416,-0.203587,1.55989,-0.0958297,-0.0635104,0.871626
26,40,-0.0872665,-0.698132,-0.174533,-0.174533,-0.0950659,-0.69642,-0.172416,-0.203587,1.55989,-0.0958297,-0.0635104,0.871626
26,40,-0.0872665,-0.698132,-0.174533,-0.174533,-0.0950659,-0.69642,-0.172416,-0.203587,1.55989,-0.0958297,-0.0635104,0.871626
26,40,-0.0872665,-0.698132,-0.174533,-0.174533,-0.0950659,-0.69642,-0.172416,-0.203587,1.55989,-0.0958297,-0.0635104,0.871626
26,40,-0.0872665,-0.698132,-0.174533,-0.174533,-0.0950659,-0.69642,-0.172416,-0.203587,1.55989,-0.0958297,-0.0635104,0.871626
26,40,-0.0872665,-0.698132,-0.174533,-0.174533,-0.0950659,-0.69642,-0.172416,-0.203587,1.55989,-0.0958297,-0.0635104,0.871626
26,40,-0.0872665,-0.698132,-0.174533,-0.174533,-0.0950659,-0.69642,-0.172416,-0.203587,1.55989,-0.0958297,-0.0635104,0.871626
26,40,-0.0872665,-0.698132,-0.174533,-0.174533,-0.0950659,-0.69642,-0.172416,-0.203587,1.55989,-0.0958297,-0.0635104,0.871626
26,40,-0.0872665,-0.698132,-0.174533,-0.174533,-0.0950659,-0.69642,-0.172416,-0.203587,1.55989,-0.0958297,-0.0635104,0.871626
26,40,-0.0872665,-0.698132,-0.174533,-0.174533,-0.0950659,-0.69642,-0.172416,-0.203587,1.55989,-0.0958297,-0.0635104,0.871626
26,40,-0.0872665,-0.698132,-0.174533,-0.174533,-0.0950659,-0.69642,-0.172416,-0.203587,1.55989,-0.0958297,-0.0635104,0.871626
26,40,-0.0872665,-0.698132,-0.174533,-0.174533,-0.0950659,-0.69642,-0.172416,-0.203587,1.55989,-0.0958297,-0.0635104,0.871626
26,40,-0.0872665,-0.698132,-0.174533,-0.174533,-0.0950659,-0.69642,-0.172416,-0.203587,1.55989,-0.0958297,-0.0635104,0.871626
26,40,-0.0872665,-0.698132,-0.174533,-0.174533,-0.0950659,-0.69642,-0.172416,-0.203587,1.55989,-0.0958297,-0.0635104,0.871626
26,40,-0.0872665,-0.698132,-0.174533,-0.174533,-0.0950659,-0.69642,-0.172416,-0.203587,1.55989,-0.0958297,-0.0635104,0.871626
26,40,-0.0872665,-0.698132,-0.174533,-0.174533,-0.0950659,-0.69642,-0.172416,-0.203587,1.55989,-0.0958297,-0.0635104,0.871626
26,40,-0.0872665,-0.698132,-0.174533,-0.174533,-0.0950659,-0.69642,-0.172416,-0.203587,1.55989,-0.0958297,-0.0635104,0.871626
26,40,-0.0872665,-0.698132,-0.174533,-0.174533,-0.0950659,-0.69642,-0.172416,-0.203587,1.55989,-0.0958297,-0.0635104,0.871626
26,40,-0.0872665,-0.698132,-0.174533,-0.174533,-0.0950659,-0.69642,-0.172416,-0.203587,1.55989,-0.0958297,-0.0635104,0.871626
26,40,-0.0872665,-0.698132,-0.174533,-0.174533,-0.0950659,-0.69642,-0.172416,-0.203587,1.55989,-0.0958297,-0.0635104,0.871626
26,40,-0.0872665,-0.698132,-0.174533,-0.174533,-0.0950659,-0.69642,-0.172416,-0.203587,1.55989,-0.0958297,-0.0635104,0.871626
26,40,-0.0872665,-0.698132,-0.174533,-0.174533,-0.0950659,-0.69642,-0.172416,-0.203587,1.55989,-0.0958297,-0.0635104,0.871626
26,40,-0.0872665,-0.698132,-0.174533,-0.174533,-0.0950659,-0.69642,-0.172416,-0.203587,1.55989,-0.0958297,-0.0635104,0.871626
26,40,-0.0872665,-0.698132,-0.174533,-0.174533,-0.0950659,-0.69642,-0.172416,-0.203587,1.55989,-0.0958297,-0.0635104,0.871626
26,40,-0.0872665,-0.698132,-0.174533,-0.174533,-0.0950659,-0.69642,-0.172416,-0.203587,1.55989,-0.0958297,-0.0635104,0.871626
26,40,-0.0872665,-0.698132,-0.174533,-0.174533,-0.0950659,-0.69642,-0.172416,-0.203587,1.55989,-0.0958297,-0.0635104,0.871626
26,40,-0.0872665,-0.698132,-0.174533,-0.174533,-0.0950659,-0.69642,-0.172416,-0.203587,1.55989,-0.0958297,-0.0635104,0.871626
26,40,-0.0872665,-0.698132,-0.174533,-0.174533,-0.0950659,-0.69642,-0.172416,-0.203587,1.55989,-0.0958297,-0.0635104,0.871626
26,40,-0.0872665,-0.698132,-0.174533,-0.174533,-0.0950659,-0.69642,-0.172416,-0.203587,1.55989,-0.0958297,-0.0635104,0.871626
26,40,-0.0872665,-0.698132,-0.174533,-0.174533,-0.0950659,-0.69642,-0.172416,-0.203587,1.55989,-0.0958297,-0.0635104,0.871626
26,40,-0.0872665,-0.698132,-0.174533,-0.174533,-0.0950659,-0.69642,-0.172416,-0.203587,1.55989,-0.0958297,-0.0635104,0.871626
26,40,-0.0872665,-0.698132,-0.174533,-0.174533,-0.0950659,-0.69642,-0.172416,-0.203587,1.55989,-0.0958297,-0.0635104,0.871626
26,40,-0.0872665,-0.698132,-0.174533,-0.174533,-0.0950659,-0.69642,-0.172416,-0.203587,1.55989,-0.0958297,-0.0635104,0.871626
26,40,-0.0872665,-0.698132,-0.174533,-0.174533,-0.0950659,-0.69642,-0.172416,-0.203587,1.55989,-0.0958297,-0.0635104,0.871626
26,40,-0.0872665,-0.698132,-0.174533,-0.174533,-0.0950659,-0.69642,-0.172416,-0.203587,1.55989,-0.0958297,-0.0635104,0.871626
26,40,-0.0872665,-0.698132,-0.174533,-0.174533,-0.0950659,-0.69642,-0.172416,-0.203587,1.55989,-0.0958297,-0.0635104,0.871626
26,40,-0.0872665,-0.698132,-0.174533,-0.174533,-0.0950659,-0.69642,-0.172416,-0.203587,1.55989,-0.0958297,-0.0635104,0.871626
26,40,-0.0872665,-0.698132,-0.174533,-0.174533,-0.0950659,-0.69642,-0.172416,-0.203587,1.55989,-0.0958297,-0.0635104,0.871626
26,40,-0.0872665,-0.698132,-0.174533,-0.174533,-0.0950659,-0.69642,-0.172416,-0.203587,1.55989,-0.0958297,-0.0635104,0.871626
26,40,-0.0872665,-0.698132,-0.174533,-0.174533,-0.0950659,-0.69642,-0.172354,-0.203605,1.55989,-0.0958297,-0.0653571,0.872183
26,40,-0.0872665,-0.698132,-0.174533,-0.174533,-0.0950659,-0.69642,-0.172354,-0.203605,1.55989,-0.0958297,-0.0653571,0.872183
26,40,-0.0872665,-0.698132,-0.174533,-0.174533,-0.0950659,-0.69642,-0.172354,-0.203605,1.55989,-0.0958297,-0.0653571,0.872183
26,40,-0.0872665,-0.698132,-0.174533,-0.174533,-0.0950659,-0.69642,-0.172354,-0.203605,1.55989,-0.0958297,-0.0653571,0.872183
26,40,-0.0872665,-0.698132,-0.174533,-0.174533,-0.0950659,-0.69642,-0.172354,-0.203605,1.55989,-0.0958297,-0.0653571,0.872183
26,40,-0.0872665,-0.698132,-0.174533,-0.174533,-0.0950659,-0.69642,-0.172354,-0.203605,1.55989,-0.0958297,-0.0653571,0.872183
26,40,-0.0872665,-0.698132,-0.174533,-0.174533,-0.0950659,-0.69642,-0.172354,-0.203605,1.55989,-0.0958297,-0.0653571,0.872183
26,40,-0.0872665,-0.698132,-0.174533,-0.174533,-0.0950659,-0.69642,-0.172354,-0.203605,1.55989,-0.0958297,-0.0653571,0.872183
26,40,-0.0872665,-0.698132,-0.174533,-0.174533,-0.0950659,-0.69642,-0.172354,-0.203605,1.55989,-0.0958297,-0.0653571,0.872183
26,40,-0.0872665,-0.698132,-0.174533,-0.174533,-0.0950659,-0.69642,-0.172354,-0.203605,1.55989,-0.0958297,-0.0653571,0.872183
26,40,-0.0872665,-0.698132,-0.174533,-0.174533,-0.0950659,-0.69642,-0.172354,-0.203605,1.55989,-0.0958297,-0.0653571,0.872183
26,40,-0.0872665,-0.698132,-0.174533,-0.174533,-0.0950659,-0.69642,-0.172354,-0.203605,1.55989,-0.0958297,-0.0653571,0.872183
26,40,-0.0872665,-0.698132,-0.174533,-0.174533,-0.0950659,-0.69642,-0.172354,-0.203605,1.55989,-0.0958297,-0.0653571,0.872183
26,40,-0.0872665,-0.698132,-0.174533,-0.174533,-0.0950659,-0.69642,-0.172354,-0.203605,1.55989,-0.0958297,-0.0653571,0.872183
26,40,-0.0872665,-0.698132,-0.174533,-0.174533,-0.0950659,-0.69642,-0.172354,-0.203605,1.55989,-0.0958297,-0.0653571,0.872183
26,40,-0.0872665,-0.698132,-0.174533,-0.174533,-0.0950659,-0.69642,-0.172354,-0.203605,1.55989,-0.0958297,-0.0653571,0.872183
26,40,-0.0872665,-0.698132,-0.174533,-0.174533,-0.0950659,-0.69642,-0.172354,-0.203605,1.55989,-0.0958297,-0.0653571,0.872183
26,40,-0.0872665,-0.698132,-0.174533,-0.174533,-0.0950659,-0.69642,-0.172354,-0.203605,1.55989,-0.0958297,-0.0653571,0.872183
26,40,-0.0872665,-0.698132,-0.174533,-0.174533,-0.0950659,-0.69642,-0.172354,-0.203605,1.55989,-0.0958297,-0.0653571,0.872183
26,40,-0.0872665,-0.698132,-0.174533,-0.174533,-0.0950659,-0.69642,-0.172354,-0.203605,1.55989,-0.0958297,-0.0653571,0.872183
26,40,-0.0872665,-0.698132,-0.174533,-0.174533,-0.0950659,-0.69642,-0.172354,-0.203605,1.55989,-0.0958297,-0.0653571,0.872183
26,40,-0.0872665,-0.698132,-0.174533,-0.174533,-0.0950659,-0.69642,-0.172354,-0.203605,1.55989,-0.0958297,-0.0653571,0.872183
26,40,-0.0872665,-0.698132,-0.174533,-0.174533,-0.0950659,-0.69642,-0.172354,-0.203605,1.55989,-0.0958297,-0.0653571,0.872183
26,40,-0.0872665,-0.698132,-0.174533,-0.174533,-0.0950659,-0.69642,-0.172354,-0.203605,1.55989,-0.0958297,-0.0653571,0.872183
26,40,-0.0872665,-0.698132,-0.174533,-0.174533,-0.0950659,-0.69642,-0.172354,-0.203605,1.55989,-0.0958297,-0.0653571,0.872183
26,40,-0.0872665,-0.698132,-0.174533,-0.174533,-0.0950659,-0.69642,-0.172354,-0.203605,1.55989,-0.0958297,-0.0653571,0.872183
26,40,-0.0872665,-0.698132,-0.174533,-0.174533,-0.0950659,-0.69642,-0.172354,-0.203605,1.55989,-0.0958297,-0.0653571,0.872183
26,40,-0.0872665,-0.698132,-0.174533,-0.174533,-0.0950659,-0.69642,-0.172354,-0.203605,1.55989,-0.0958297,-0.0653571,0.872183
26,40,-0.0872665,-0.698132,-0.174533,-0.174533,-0.0950659,-0.69642,-0.172354,-0.203605,1.55989,-0.0958297,-0.0653571,0.872183
26,40,-0.0872665,-0.698132,-0.174533,-0.174533,-0.0950659,-0.69642,-0.172354,-0.203605,1.55989,-0.0958297,-0.0653571,0.872183
26,40,-0.0872665,-0.698132,-0.174533,-0.174533,-0.0950659,-0.69642,-0.172354,-0.203605,1.55989,-0.0958297,-0.0653571,0.872183
26,40,-0.0872665,-0.698132,-0.174533,-0.174533,-0.0950659,-0.69642,-0.172354,-0.203605,1.55989,-0.0958297,-0.0653571,0.872183
26,40,-0.0872665,-0.698132,-0.174533,-0.174533,-0.0950659,-0.69642,-0.172354,-0.203605,1.55989,-0.0958297,-0.0653571,0.872183
26,40,-0.0872665,-0.698132,-0.174533,-0.174533,-0.0950659,-0.69642,-0.172354,-0.203605,1.55989,-0.0958297,-0.0653571,0.872183
26,40,-0.0872665,-0.698132,-0.174533,-0.174533,-0.0950659,-0.69642,-0.172354,-0.203605,1.55989,-0.0958297,-0.0653571,0.872183
26,40,-0.0872665,-0.698132,-0.174533,-0.174533,-0.0950659,-0.69642,-0.172293,-0.203624,1.55989,-0.0958297,-0.0672083,0.87274
26,40,-0.0872665,-0.698132,-0.174533,-0.174533,-0.0950659,-0.69642,-0.172293,-0.203624,1.55989,-0.0958297,-0.0672083,0.87274
26,40,-0.0872665,-0.698132,-0.174533,-0.174533,-0.0950659,-0.69642,-0.172293,-0.203624,1.55989,-0.0958297,-0.0672083,0.87274
26,40,-0.0872665,-0.698132,-0.174533,-0.174533,-0.0950659,-0.69642,-0.172293,-0.203624,1.55989,-0.0958297,-0.0672083,0.87274
26,40,-0.0872665,-0.698132,-0.174533,-0.174533,-0.0950659,-0.69642,-0.172293,-0.203624,1.55989,-0.0958297,-0.0672083,0.87274
26,40,-0.0872665,-0.698132,-0.174533,-0.174533,-0.0950659,-0.69642,-0.172293,-0.203624,1.55989,-0.0958297,-0.0672083,0.87274
26,40,-0.0872665,-0.698132,-0.174533,-0.174533,-0.0950659,-0.69642,-0.172293,-0.203624,1.55989,-0.0958297,-0.0672083,0.87274
26,40,-0.0872665,-0.698132,-0.174533,-0.174533,-0.0950659,-0.69642,-0.172293,-0.203624,1.55989,-0.0958297,-0.0672083,0.87274
26,40,-0.0872665,-0.698132,-0.174533,-0.174533,-0.0950659,-0.69642,-0.172293,-0.203624,1.55989,-0.0958297,-0.0672083,0.87274
26,40,-0.0872665,-0.698132,-0.174533,-0.174533,-0.0950659,-0.69642,-0.172293,-0.203624,1.55989,-0.0958297,-0.0672083,0.87274
26,40,-0.0872665,-0.698132,-0.174533,-0.174533,-0.0950659,-0.69642,-0.172293,-0.203624,1.55989,-0.0958297,-0.0672083,0.87274
26,40,-0.0872665,-0.698132,-0.174533,-0.174533,-0.0950659,-0.69642,-0.172293,-0.203624,1.55989,-0.0958297,-0.0672083,0.87274
26,40,-0.0872665,-0.698132,-0.174533,-0.174533,-0.0950659,-0.69642,-0.172293,-0.203624,1.55989,-0.0958297,-0.0672083,0.87274
26,40,-0.0872665,-0.698132,-0.174533,-0.174533,-0.0950659,-0.69642,-0.172293,-0.203624,1.55989,-0.0958297,-0.0672083,0.87274
26,40,-0.0872665,-0.698132,-0.174533,-0.174533,-0.0950659,-0.69642,-0.172293,-0.203624,1.55989,-0.0958297,-0.0672083,0.87274
26,40,-0.0872665,-0.698132,-0.174533,-0.174533,-0.0950659,-0.69642,-0.172293,-0.203624,1.55989,-0.0958297,-0.0672222,0.872732
26,40,-0.0872665,-0.698132,-0.174533,-0.174533,-0.0950659,-0.69642,-0.172293,-0.203624,1.55989,-0.0958297,-0.0672222,0.872732
26,40,-0.0872665,-0.698132,-0.174533,-0.174533,-0.0950659,-0.69642,-0.172293,-0.203624,1.55989,-0.0958297,-0.0672222,0.872732
26,40,-0.0872665,-0.698132,-0.174533,-0.174533,-0.0950659,-0.69642,-0.172293,-0.203624,1.55989,-0.0958297,-0.0672222,0.872732
26,40,-0.0872665,-0.698132,-0.174533,-0.174533,-0.0950659,-0.69642,-0.172293,-0.203624,1.55989,-0.0958297,-0.0672222,0.872732
26,40,-0.0872665,-0.698132,-0.174533,-0.174533,-0.0950659,-0.69642,-0.172293,-0.203624,1.55989,-0.0958297,-0.0672222,0.872732
26,40,-0.0872665,-0.698132,-0.174533,-0.174533,-0.0950659,-0.69642,-0.172293,-0.203624,1.55989,-0.0958297,-0.0672222,0.872732
26,40,-0.0872665,-0.698132,-0.174533,-0.174533,-0.0950659,-0.69642,-0.172293,-0.203624,1.55989,-0.0958297,-0.0672222,0.872732
26,40,-0.0872665,-0.698132,-0.174533,-0.174533,-0.0950659,-0.69642,-0.172293,-0.203624,1.55989,-0.0958297,-0.0672222,0.872732
26,40,-0.0872665,-0.698132,-0.174533,-0.174533,-0.0950659,-0.69642,-0.172293,-0.203624,1.55989,-0.0958297,-0.0672222,0.872732
26,40,-0.0872665,-0.698132,-0.174533,-0.174533,-0.0950659,-0.69642,-0.172293,-0.203624,1.55989,-0.0958297,-0.0672222,0.872732
26,40,-0.0872665,-0.698132,-0.174533,-0.174533,-0.0950659,-0.69642,-0.172293,-0.203624,1.55989,-0.0958297,-0.0672222,0.872732
26,40,-0.0872665,-0.698132,-0.174533,-0.174533,-0.0950659,-0.69642,-0.172293,-0.203624,1.55989,-0.0958297,-0.0672222,0.872732
26,40,-0.0872665,-0.698132,-0.174533,-0.174533,-0.0950659,-0.69642,-0.172293,-0.203624,1.55989,-0.0958297,-0.0672222,0.872732
26,40,-0.0872665,-0.698132,-0.174533,-0.174533,-0.0950659,-0.69642,-0.172231,-0.203642,1.55989,-0.0958297,-0.0690758,0.87329
26,40,-0.0872665,-0.698132,-0.174533,-0.174533,-0.0950659,-0.69642,-0.172231,-0.203642,1.55989,-0.0958297,-0.0690758,0.87329
26,40,-0.0872665,-0.698132,-0.174533,-0.174533,-0.0950659,-0.69642,-0.172231,-0.203642,1.55989,-0.0958297,-0.0690758,0.87329
26,40,-0.0872665,-0.698132,-0.174533,-0.174533,-0.0950659,-0.69642,-0.172231,-0.203642,1.55989,-0.0958297,-0.0690758,0.87329
26,40,-0.0872665,-0.698132,-0.174533,-0.174533,-0.0950659,-0.69642,-0.172231,-0.203642,1.55989,-0.0958297,-0.0690758,0.87329
26,40,-0.0872665,-0.698132,-0.174533,-0.174533,-0.0950659,-0.69642,-0.172231,-0.203642,1.55989,-0.0958297,-0.0690758,0.87329
26,40,-0.0872665,-0.698132,-0.174533,-0.174533,-0.0950659,-0.69642,-0.172231,-0.203642,1.55989,-0.0958297,-0.0690758,0.87329
26,40,-0.0872665,-0.698132,-0.174533,-0.174533,-0.0950659,-0.69642,-0.172231,-0.203642,1.55989,-0.0958297,-0.0690758,0.87329
