stim_pw [us],stim_amp [mA],com_elbow_fe [rad],com_forearm_ps [rad],com_wrist_fe [rad],com_wrist_ru [rad],act_elbow_fe [rad],act_forearm_ps [rad],act_wrist_fe [rad],act_wrist_ru [rad],elbow_fe_trq [Nm],forearm_ps_trq [Nm],wrist_fe_trq [Nm],wrist_ru_trq [Nm]
26,60,-1.0472,-0.698132,-0.174533,0.174533,-1.04472,-0.691946,-0.147241,0.135492,-0.494964,-0.346156,-0.818803,1.17124
26,60,-1.0472,-0.698132,-0.174533,0.174533,-1.04472,-0.691946,-0.147241,0.135492,-0.494964,-0.346156,-0.818803,1.17124
26,60,-1.0472,-0.698132,-0.174533,0.174533,-1.04472,-0.691946,-0.147241,0.135492,-0.494964,-0.346156,-0.818803,1.17124
26,60,-1.0472,-0.698132,-0.174533,0.174533,-1.04472,-0.691946,-0.147241,0.135492,-0.494964,-0.346156,-0.818803,1.17124
26,60,-1.0472,-0.698132,-0.174533,0.174533,-1.04472,-0.691946,-0.147241,0.135492,-0.494964,-0.346156,-0.818803,1.17124
26,60,-1.0472,-0.698132,-0.174533,0.174533,-1.04472,-0.691946,-0.147241,0.135492,-0.494964,-0.346156,-0.818803,1.17124
26,60,-1.0472,-0.698132,-0.174533,0.174533,-1.04472,-0.691946,-0.147241,0.135492,-0.494964,-0.346156,-0.818803,1.17124
26,60,-1.0472,-0.698132,-0.174533,0.174533,-1.04472,-0.691946,-0.147241,0.135492,-0.494964,-0.346156,-0.818803,1.17124
26,60,-1.0472,-0.698132,-0.174533,0.174533,-1.04472,-0.691946,-0.147241,0.135492,-0.494964,-0.346156,-0.818803,1.17124
26,60,-1.0472,-0.698132,-0.174533,0.174533,-1.04472,-0.691946,-0.147241,0.135492,-0.494964,-0.346156,-0.818803,1.17124
26,60,-1.0472,-0.698132,-0.174533,0.174533,-1.04472,-0.691946,-0.147241,0.135492,-0.494964,-0.346156,-0.818803,1.17124
26,60,-1.0472,-0.698132,-0.174533,0.174533,-1.04472,-0.691946,-0.147241,0.135492,-0.494964,-0.346156,-0.818803,1.17124
26,60,-1.0472,-0.698132,-0.174533,0.174533,-1.04472,-0.691946,-0.147241,0.135492,-0.494964,-0.346156,-0.818803,1.17124
26,60,-1.0472,-0.698132,-0.174533,0.174533,-1.04472,-0.691946,-0.147241,0.135492,-0.494964,-0.346156,-0.818803,1.17124
26,60,-1.0472,-0.698132,-0.174533,0.174533,-1.04472,-0.691946,-0.147241,0.135492,-0.494964,-0.346156,-0.818803,1.17124
26,60,-1.0472,-0.698132,-0.174533,0.174533,-1.04472,-0.691946,-0.147241,0.135492,-0.494964,-0.346156,-0.818803,1.17124
26,60,-1.0472,-0.698132,-0.174533,0.174533,-1.04472,-0.691946,-0.147241,0.135492,-0.494964,-0.346156,-0.818803,1.17124
26,60,-1.0472,-0.698132,-0.174533,0.174533,-1.04472,-0.691946,-0.147241,0.135492,-0.494964,-0.346156,-0.818803,1.17124
26,60,-1.0472,-0.698132,-0.174533,0.174533,-1.04472,-0.691946,-0.147241,0.135492,-0.494964,-0.346156,-0.818803,1.17124
26,60,-1.0472,-0.698132,-0.174533,0.174533,-1.04472,-0.691946,-0.147241,0.135492,-0.494964,-0.346156,-0.818803,1.17124
26,60,-1.0472,-0.698132,-0.174533,0.174533,-1.04472,-0.691946,-0.147241,0.135492,-0.494964,-0.346156,-0.818803,1.17124
26,60,-1.0472,-0.698132,-0.174533,0.174533,-1.04472,-0.691946,-0.147241,0.135492,-0.494964,-0.346156,-0.818803,1.17124
26,60,-1.0472,-0.698132,-0.174533,0.174533,-1.04472,-0.691946,-0.147241,0.135492,-0.494964,-0.346156,-0.818803,1.17124
26,60,-1.0472,-0.698132,-0.174533,0.174533,-1.04472,-0.691946,-0.147241,0.135492,-0.494964,-0.346156,-0.818803,1.17124
26,60,-1.0472,-0.698132,-0.174533,0.174533,-1.04472,-0.691946,-0.147241,0.135492,-0.494964,-0.346156,-0.818803,1.17124
26,60,-1.0472,-0.698132,-0.174533,0.174533,-1.04472,-0.691946,-0.147241,0.135492,-0.494964,-0.346156,-0.818803,1.17124
26,60,-1.0472,-0.698132,-0.174533,0.174533,-1.04472,-0.691946,-0.147241,0.135492,-0.494964,-0.346156,-0.818803,1.17124
26,60,-1.0472,-0.698132,-0.174533,0.174533,-1.04472,-0.691946,-0.147241,0.135492,-0.494964,-0.346156,-0.818803,1.17123
26,60,-1.0472,-0.698132,-0.174533,0.174533,-1.04472,-0.691946,-0.147241,0.135492,-0.494964,-0.346156,-0.818803,1.17123
26,60,-1.0472,-0.698132,-0.174533,0.174533,-1.04472,-0.691946,-0.147241,0.135492,-0.494964,-0.346156,-0.818803,1.17123
26,60,-1.0472,-0.698132,-0.174533,0.174533,-1.04472,-0.691946,-0.147241,0.135492,-0.494964,-0.346156,-0.818803,1.17123
26,60,-1.0472,-0.698132,-0.174533,0.174533,-1.04472,-0.691946,-0.147241,0.135492,-0.494964,-0.346156,-0.818803,1.17123
26,60,-1.0472,-0.698132,-0.174533,0.174533,-1.04472,-0.691946,-0.147241,0.135492,-0.494964,-0.346156,-0.818803,1.17123
26,60,-1.0472,-0.698132,-0.174533,0.174533,-1.04472,-0.691946,-0.147241,0.135492,-0.494964,-0.346156,-0.818803,1.17123
26,60,-1.0472,-0.698132,-0.174533,0.174533,-1.04472,-0.691946,-0.147241,0.135492,-0.494964,-0.346156,-0.818803,1.17123
26,60,-1.0472,-0.698132,-0.174533,0.174533,-1.04472,-0.691946,-0.147241,0.135492,-0.494964,-0.346156,-0.818803,1.17123
26,60,-1.0472,-0.698132,-0.174533,0.174533,-1.04472,-0.691946,-0.147241,0.135492,-0.494964,-0.346156,-0.818803,1.17123
26,60,-1.0472,-0.698132,-0.174533,0.174533,-1.04472,-0.691946,-0.147241,0.135492,-0.494964,-0.346156,-0.818803,1.17123
26,60,-1.0472,-0.698132,-0.174533,0.174533,-1.04472,-0.691946,-0.147241,0.135492,-0.494964,-0.346156,-0.818803,1.17123
26,60,-1.0472,-0.698132,-0.174533,0.174533,-1.04472,-0.691946,-0.147241,0.135492,-0.494964,-0.346156,-0.818803,1.17123
26,60,-1.0472,-0.698132,-0.174533,0.174533,-1.04472,-0.691946,-0.147241,0.135492,-0.494964,-0.346156,-0.818803,1.17123
26,60,-1.0472,-0.698132,-0.174533,0.174533,-1.04472,-0.691946,-0.147241,0.135492,-0.494964,-0.346156,-0.818803,1.17123
26,60,-1.0472,-0.698132,-0.174533,0.174533,-1.04472,-0.691946,-0.147241,0.135492,-0.494964,-0.346156,-0.818803,1.17123
26,60,-1.0472,-0.698132,-0.174533,0.174533,-1.04472,-0.691946,-0.147241,0.135492,-0.494964,-0.346156,-0.818803,1.17123
26,60,-1.0472,-0.698132,-0.174533,0.174533,-1.04472,-0.691946,-0.147241,0.135492,-0.494964,-0.346156,-0.818803,1.17123
26,60,-1.0472,-0.698132,-0.174533,0.174533,-1.04472,-0.691946,-0.147241,0.135492,-0.494964,-0.346156,-0.818803,1.17122
26,60,-1.0472,-0.698132,-0.174533,0.174533,-1.04472,-0.691946,-0.147241,0.135492,-0.494964,-0.346156,-0.818803,1.17122
26,60,-1.0472,-0.698132,-0.174533,0.174533,-1.04472,-0.691946,-0.147241,0.135492,-0.494964,-0.346156,-0.818803,1.17122
26,60,-1.0472,-0.698132,-0.174533,0.174533,-1.04472,-0.691946,-0.147241,0.135492,-0.494964,-0.346156,-0.818803,1.17122
26,60,-1.0472,-0.698132,-0.174533,0.174533,-1.04472,-0.691946,-0.147241,0.135492,-0.494964,-0.346156,-0.818803,1.17122
26,60,-1.0472,-0.698132,-0.174533,0.174533,-1.04472,-0.691946,-0.147241,0.135492,-0.494964,-0.346156,-0.818803,1.17122
26,60,-1.0472,-0.698132,-0.174533,0.174533,-1.04472,-0.691946,-0.147241,0.135492,-0.494964,-0.346156,-0.818803,1.17122
26,60,-1.0472,-0.698132,-0.174533,0.174533,-1.04472,-0.691946,-0.147241,0.135492,-0.494964,-0.346156,-0.818803,1.17122
26,60,-1.0472,-0.698132,-0.174533,0.174533,-1.04472,-0.691946,-0.147241,0.135492,-0.494964,-0.346156,-0.818803,1.17122
26,60,-1.0472,-0.698132,-0.174533,0.174533,-1.04472,-0.691946,-0.147241,0.135492,-0.494964,-0.346156,-0.818803,1.17122
26,60,-1.0472,-0.698132,-0.174533,0.174533,-1.04472,-0.691946,-0.147241,0.135492,-0.494964,-0.346156,-0.818803,1.17122
26,60,-1.0472,-0.698132,-0.174533,0.174533,-1.04472,-0.691946,-0.147241,0.135492,-0.494964,-0.346156,-0.818803,1.17122
26,60,-1.0472,-0.698132,-0.174533,0.174533,-1.04472,-0.691946,-0.147241,0.135492,-0.494964,-0.346156,-0.818803,1.17122
26,60,-1.0472,-0.698132,-0.174533,0.174533,-1.04472,-0.691946,-0.147241,0.135492,-0.494964,-0.346156,-0.818803,1.17122
26,60,-1.0472,-0.698132,-0.174533,0.174533,-1.04472,-0.691946,-0.147241,0.135492,-0.494964,-0.346156,-0.818803,1.17122
26,60,-1.0472,-0.698132,-0.174533,0.174533,-1.04472,-0.691946,-0.147241,0.135492,-0.494964,-0.346156,-0.818803,1.17122
26,60,-1.0472,-0.698132,-0.174533,0.174533,-1.04472,-0.691946,-0.147241,0.135492,-0.494964,-0.346156,-0.818803,1.17122
26,60,-1.0472,-0.698132,-0.174533,0.174533,-1.04472,-0.691946,-0.147241,0.135492,-0.494964,-0.346156,-0.818803,1.17122
26,60,-1.0472,-0.698132,-0.174533,0.174533,-1.04472,-0.691946,-0.147241,0.135492,-0.494964,-0.346156,-0.818802,1.17122
26,60,-1.0472,-0.698132,-0.174533,0.174533,-1.04472,-0.691946,-0.147241,0.135492,-0.494964,-0.346156,-0.818802,1.17122
26,60,-1.0472,-0.698132,-0.174533,0.174533,-1.04472,-0.691946,-0.147241,0.135492,-0.494964,-0.346156,-0.818802,1.17122
26,60,-1.0472,-0.698132,-0.174533,0.174533,-1.04472,-0.691946,-0.147241,0.135492,-0.494964,-0.346156,-0.818802,1.17122
26,60,-1.0472,-0.698132,-0.174533,0.174533,-1.04472,-0.691997,-0.147241,0.135492,-0.494964,-0.343317,-0.818802,1.17122
26,60,-1.0472,-0.698132,-0.174533,0.174533,-1.04472,-0.691997,-0.147241,0.135492,-0.494964,-0.343317,-0.818802,1.17122
26,60,-1.0472,-0.698132,-0.174533,0.174533,-1.04472,-0.691997,-0.147241,0.135492,-0.494964,-0.343317,-0.818802,1.17122
26,60,-1.0472,-0.698132,-0.174533,0.174533,-1.04472,-0.691997,-0.147241,0.135492,-0.494964,-0.343317,-0.818802,1.17122
26,60,-1.0472,-0.698132,-0.174533,0.174533,-1.04472,-0.691997,-0.147241,0.135492,-0.494964,-0.343317,-0.818802,1.17122
26,60,-1.0472,-0.698132,-0.174533,0.174533,-1.04472,-0.691997,-0.147241,0.135492,-0.494964,-0.343317,-0.818802,1.17122
26,60,-1.0472,-0.698132,-0.174533,0.174533,-1.04472,-0.691997,-0.147241,0.135492,-0.494964,-0.343317,-0.818802,1.17122
26,60,-1.0472,-0.698132,-0.174533,0.174533,-1.04472,-0.691997,-0.147241,0.135492,-0.494964,-0.343317,-0.818802,1.17122
26,60,-1.0472,-0.698132,-0.174533,0.174533,-1.04472,-0.691997,-0.147241,0.135492,-0.494964,-0.343317,-0.818802,1.17122
26,60,-1.0472,-0.698132,-0.174533,0.174533,-1.04472,-0.691997,-0.147241,0.135492,-0.494964,-0.343317,-0.818802,1.17122
26,60,-1.0472,-0.698132,-0.174533,0.174533,-1.04472,-0.691997,-0.147241,0.135492,-0.494964,-0.343317,-0.818802,1.17122
26,60,-1.0472,-0.698132,-0.174533,0.174533,-1.04472,-0.691997,-0.147241,0.135492,-0.494964,-0.343317,-0.818802,1.17122
26,60,-1.0472,-0.698132,-0.174533,0.174533,-1.04472,-0.691997,-0.147241,0.135492,-0.494964,-0.343317,-0.818802,1.17121
26,60,-1.0472,-0.698132,-0.174533,0.174533,-1.04472,-0.691997,-0.147241,0.135492,-0.494964,-0.343317,-0.818802,1.17121
26,60,-1.0472,-0.698132,-0.174533,0.174533,-1.04472,-0.691997,-0.147241,0.135492,-0.494964,-0.343317,-0.818802,1.17121
26,60,-1.0472,-0.698132,-0.174533,0.174533,-1.04472,-0.691997,-0.147241,0.135492,-0.494964,-0.343317,-0.818802,1.17121
26,60,-1.0472,-0.698132,-0.174533,0.174533,-1.04472,-0.691997,-0.147241,0.135492,-0.494964,-0.343317,-0.818802,1.17121
26,60,-1.0472,-0.698132,-0.174533,0.174533,-1.04472,-0.691997,-0.147241,0.135492,-0.494964,-0.343317,-0.818802,1.17121
26,60,-1.0472,-0.698132,-0.174533,0.174533,-1.04472,-0.691997,-0.147241,0.135492,-0.494964,-0.343317,-0.818802,1.17121
26,60,-1.0472,-0.698132,-0.174533,0.174533,-1.04472,-0.691997,-0.147241,0.135492,-0.494964,-0.343317,-0.818802,1.17121
26,60,-1.0472,-0.698132,-0.174533,0.174533,-1.04472,-0.691997,-0.147241,0.135492,-0.494964,-0.343317,-0.818802,1.17121
26,60,-1.0472,-0.698132,-0.174533,0.174533,-1.04472,-0.691997,-0.147241,0.135492,-0.494964,-0.343317,-0.818802,1.17121
26,60,-1.0472,-0.698132,-0.174533,0.174533,-1.04472,-0.691997,-0.147241,0.135492,-0.494964,-0.343317,-0.818802,1.17121
26,60,-1.0472,-0.698132,-0.174533,0.174533,-1.04472,-0.691997,-0.147241,0.135492,-0.494964,-0.343317,-0.818802,1.17121
26,60,-1.0472,-0.698132,-0.174533,0.174533,-1.04472,-0.691997,-0.147241,0.135492,-0.494964,-0.343317,-0.818802,1.17121
26,60,-1.0472,-0.698132,-0.174533,0.174533,-1.04472,-0.691997,-0.147191,0.135534,-0.494964,-0.343317,-0.820278,1.16996
26,60,-1.0472,-0.698132,-0.174533,0.174533,-1.04472,-0.691997,-0.147191,0.135534,-0.494964,-0.343317,-0.820278,1.16996
26,60,-1.0472,-0.698132,-0.174533,0.174533,-1.04472,-0.691997,-0.147191,0.135534,-0.494964,-0.343317,-0.820278,1.16996
26,60,-1.0472,-0.698132,-0.174533,0.174533,-1.04472,-0.691997,-0.147191,0.135534,-0.494964,-0.343317,-0.820278,1.16996
26,60,-1.0472,-0.698132,-0.174533,0.174533,-1.04472,-0.691997,-0.147191,0.135534,-0.494964,-0.343317,-0.820278,1.16996
26,60,-1.0472,-0.698132,-0.174533,0.174533,-1.04472,-0.691997,-0.147191,0.135534,-0.494964,-0.343317,-0.820278,1.16995
26,60,-1.0472,-0.698132,-0.174533,0.174533,-1.04472,-0.691997,-0.147191,0.135534,-0.494964,-0.343317,-0.820278,1.16995
26,60,-1.0472,-0.698132,-0.174533,0.174533,-1.04472,-0.691997,-0.147191,0.135534,-0.494964,-0.343317,-0.820278,1.16995
26,60,-1.0472,-0.698132,-0.174533,0.174533,-1.04472,-0.691997,-0.147191,0.135534,-0.494964,-0.343317,-0.820278,1.16995
26,60,-1.0472,-0.698132,-0.174533,0.174533,-1.04472,-0.691997,-0.147188,0.135464,-0.494964,-0.343317,-0.820383,1.17205
26,60,-1.0472,-0.698132,-0.174533,0.174533,-1.04472,-0.691997,-0.147188,0.135464,-0.494964,-0.343317,-0.820383,1.17205
26,60,-1.0472,-0.698132,-0.174533,0.174533,-1.04472,-0.691997,-0.147188,0.135464,-0.494964,-0.343317,-0.820383,1.17205
26,60,-1.0472,-0.698132,-0.174533,0.174533,-1.04472,-0.691997,-0.147188,0.135464,-0.494964,-0.343317,-0.820383,1.17205
26,60,-1.0472,-0.698132,-0.174533,0.174533,-1.04472,-0.691997,-0.147188,0.135464,-0.494964,-0.343317,-0.820383,1.17205
26,60,-1.0472,-0.698132,-0.174533,0.174533,-1.04472,-0.691997,-0.147188,0.135464,-0.494964,-0.343317,-0.820383,1.17205
26,60,-1.0472,-0.698132,-0.174533,0.174533,-1.04472,-0.691997,-0.147188,0.135464,-0.494964,-0.343317,-0.820383,1.17205
26,60,-1.0472,-0.698132,-0.174533,0.174533,-1.04472,-0.691997,-0.147188,0.135464,-0.494964,-0.343317,-0.820383,1.17205
26,60,-1.0472,-0.698132,-0.174533,0.174533,-1.04472,-0.691997,-0.147188,0.135464,-0.494964,-0.343317,-0.820383,1.17205
26,60,-1.0472,-0.698132,-0.174533,0.174533,-1.04472,-0.691997,-0.147188,0.135464,-0.494964,-0.343317,-0.820383,1.17205
26,60,-1.0472,-0.698132,-0.174533,0.174533,-1.04472,-0.691997,-0.147188,0.135464,-0.494964,-0.343317,-0.820383,1.17205
26,60,-1.0472,-0.698132,-0.174533,0.174533,-1.04472,-0.691997,-0.147188,0.135464,-0.494964,-0.343317,-0.820383,1.17205
26,60,-1.0472,-0.698132,-0.174533,0.174533,-1.04472,-0.691997,-0.147188,0.135464,-0.494964,-0.343317,-0.820383,1.17205
26,60,-1.0472,-0.698132,-0.174533,0.174533,-1.04472,-0.691997,-0.147188,0.135464,-0.494964,-0.343317,-0.820383,1.17205
26,60,-1.0472,-0.698132,-0.174533,0.174533,-1.04472,-0.691997,-0.147188,0.135464,-0.494964,-0.343317,-0.820383,1.17205
26,60,-1.0472,-0.698132,-0.174533,0.174533,-1.04472,-0.691997,-0.147188,0.135464,-0.494964,-0.343317,-0.820383,1.17205
26,60,-1.0472,-0.698132,-0.174533,0.174533,-1.04472,-0.691997,-0.147188,0.135464,-0.494964,-0.343317,-0.820383,1.17205
26,60,-1.0472,-0.698132,-0.174533,0.174533,-1.04472,-0.691997,-0.147188,0.135464,-0.494964,-0.343317,-0.820383,1.17205
26,60,-1.0472,-0.698132,-0.174533,0.174533,-1.04472,-0.691997,-0.147188,0.135464,-0.494964,-0.343317,-0.820383,1.17205
26,60,-1.0472,-0.698132,-0.174533,0.174533,-1.04472,-0.691997,-0.147188,0.135464,-0.494964,-0.343317,-0.820383,1.17205
26,60,-1.0472,-0.698132,-0.174533,0.174533,-1.04472,-0.691997,-0.147188,0.135464,-0.494964,-0.343317,-0.820383,1.17205
26,60,-1.0472,-0.698132,-0.174533,0.174533,-1.04472,-0.691997,-0.147188,0.135464,-0.494964,-0.343317,-0.820383,1.17205
26,60,-1.0472,-0.698132,-0.174533,0.174533,-1.04472,-0.691997,-0.147188,0.135464,-0.494964,-0.343317,-0.820383,1.17205
26,60,-1.0472,-0.698132,-0.174533,0.174533,-1.04472,-0.691997,-0.147188,0.135464,-0.494964,-0.343317,-0.820383,1.17205
26,60,-1.0472,-0.698132,-0.174533,0.174533,-1.04472,-0.691997,-0.147188,0.135464,-0.494964,-0.343317,-0.820383,1.17205
26,60,-1.0472,-0.698132,-0.174533,0.174533,-1.04472,-0.691997,-0.147188,0.135464,-0.494964,-0.343317,-0.820383,1.17205
26,60,-1.0472,-0.698132,-0.174533,0.174533,-1.04472,-0.691997,-0.147188,0.135464,-0.494964,-0.343317,-0.820383,1.17205
26,60,-1.0472,-0.698132,-0.174533,0.174533,-1.04472,-0.691997,-0.147188,0.135464,-0.494964,-0.343317,-0.820383,1.17205
26,60,-1.0472,-0.698132,-0.174533,0.174533,-1.04472,-0.691997,-0.147188,0.135464,-0.494964,-0.343317,-0.820383,1.17205
26,60,-1.0472,-0.698132,-0.174533,0.174533,-1.04472,-0.691997,-0.147188,0.135464,-0.494964,-0.343317,-0.820383,1.17205
26,60,-1.0472,-0.698132,-0.174533,0.174533,-1.04472,-0.691997,-0.147188,0.135464,-0.494964,-0.343317,-0.820383,1.17205
26,60,-1.0472,-0.698132,-0.174533,0.174533,-1.04472,-0.691997,-0.147188,0.135464,-0.494964,-0.343317,-0.820383,1.17205
26,60,-1.0472,-0.698132,-0.174533,0.174533,-1.04472,-0.691997,-0.147188,0.135464,-0.494964,-0.343317,-0.820383,1.17205
26,60,-1.0472,-0.698132,-0.174533,0.174533,-1.04472,-0.691997,-0.147188,0.135464,-0.494964,-0.343317,-0.820383,1.17205
26,60,-1.0472,-0.698132,-0.174533,0.174533,-1.04472,-0.691997,-0.147188,0.135464,-0.494964,-0.343317,-0.820383,1.17205
26,60,-1.0472,-0.698132,-0.174533,0.174533,-1.04472,-0.691997,-0.147188,0.135464,-0.494964,-0.343317,-0.820383,1.17205
26,60,-1.0472,-0.698132,-0.174533,0.174533,-1.04472,-0.691997,-0.147188,0.135464,-0.494964,-0.343317,-0.820383,1.17205
26,60,-1.0472,-0.698132,-0.174533,0.174533,-1.04472,-0.691997,-0.147188,0.135464,-0.494964,-0.343317,-0.820383,1.17205
26,60,-1.0472,-0.698132,-0.174533,0.174533,-1.04472,-0.691997,-0.147188,0.135464,-0.494964,-0.343317,-0.820383,1.17205
26,60,-1.0472,-0.698132,-0.174533,0.174533,-1.04472,-0.691997,-0.147188,0.135464,-0.494964,-0.343317,-0.820383,1.17205
26,60,-1.0472,-0.698132,-0.174533,0.174533,-1.04472,-0.691997,-0.147188,0.135464,-0.494964,-0.343317,-0.820383,1.17205
26,60,-1.0472,-0.698132,-0.174533,0.174533,-1.04472,-0.691997,-0.147188,0.135464,-0.494964,-0.343317,-0.820383,1.17205
26,60,-1.0472,-0.698132,-0.174533,0.174533,-1.04472,-0.691997,-0.147188,0.135464,-0.494964,-0.343317,-0.820383,1.17205
26,60,-1.0472,-0.698132,-0.174533,0.174533,-1.04472,-0.691997,-0.147188,0.135464,-0.494964,-0.343317,-0.820383,1.17205
26,60,-1.0472,-0.698132,-0.174533,0.174533,-1.04472,-0.691997,-0.147188,0.135464,-0.494964,-0.343317,-0.820383,1.17205
26,60,-1.0472,-0.698132,-0.174533,0.174533,-1.04472,-0.691997,-0.147188,0.135464,-0.494964,-0.343317,-0.820383,1.17205
26,60,-1.0472,-0.698132,-0.174533,0.174533,-1.04472,-0.691997,-0.147188,0.135464,-0.494964,-0.343317,-0.820383,1.17205
26,60,-1.0472,-0.698132,-0.174533,0.174533,-1.04472,-0.691997,-0.147188,0.135464,-0.494964,-0.343317,-0.820383,1.17205
26,60,-1.0472,-0.698132,-0.174533,0.174533,-1.04472,-0.691997,-0.147188,0.135464,-0.494964,-0.343317,-0.820383,1.17205
26,60,-1.0472,-0.698132,-0.174533,0.174533,-1.04472,-0.691997,-0.147188,0.135464,-0.494964,-0.343317,-0.820383,1.17205
26,60,-1.0472,-0.698132,-0.174533,0.174533,-1.04472,-0.691997,-0.147188,0.135464,-0.494964,-0.343317,-0.820383,1.17205
26,60,-1.0472,-0.698132,-0.174533,0.174533,-1.04472,-0.691997,-0.147188,0.135464,-0.494964,-0.343317,-0.820383,1.17205
26,60,-1.0472,-0.698132,-0.174533,0.174533,-1.04472,-0.691997,-0.147188,0.135464,-0.494964,-0.343317,-0.820383,1.17205
26,60,-1.0472,-0.698132,-0.174533,0.174533,-1.04472,-0.691997,-0.147188,0.135464,-0.494964,-0.343317,-0.820383,1.17205
26,60,-1.0472,-0.698132,-0.174533,0.174533,-1.04472,-0.691997,-0.147188,0.135464,-0.494964,-0.343317,-0.820384,1.17205
26,60,-1.0472,-0.698132,-0.174533,0.174533,-1.04472,-0.691997,-0.147188,0.135464,-0.494964,-0.343317,-0.820384,1.17205
26,60,-1.0472,-0.698132,-0.174533,0.174533,-1.04472,-0.691997,-0.147188,0.135464,-0.494964,-0.343317,-0.820384,1.17205
26,60,-1.0472,-0.698132,-0.174533,0.174533,-1.04472,-0.691997,-0.147188,0.135464,-0.494964,-0.343317,-0.820384,1.17205
26,60,-1.0472,-0.698132,-0.174533,0.174533,-1.04472,-0.691997,-0.147188,0.135464,-0.494964,-0.343317,-0.820384,1.17206
26,60,-1.0472,-0.698132,-0.174533,0.174533,-1.04472,-0.691997,-0.147188,0.135464,-0.494964,-0.343317,-0.820384,1.17206
26,60,-1.0472,-0.698132,-0.174533,0.174533,-1.04472,-0.691997,-0.147188,0.135464,-0.494964,-0.343317,-0.820384,1.17206
26,60,-1.0472,-0.698132,-0.174533,0.174533,-1.04472,-0.691997,-0.147188,0.135464,-0.494964,-0.343317,-0.820384,1.17206
26,60,-1.0472,-0.698132,-0.174533,0.174533,-1.04472,-0.691997,-0.147188,0.135464,-0.494964,-0.343317,-0.820384,1.17206
26,60,-1.0472,-0.698132,-0.174533,0.174533,-1.04472,-0.691997,-0.147188,0.135464,-0.494964,-0.343317,-0.820384,1.17206
26,60,-1.0472,-0.698132,-0.174533,0.174533,-1.04472,-0.691997,-0.147188,0.135464,-0.494964,-0.343317,-0.820384,1.17206
26,60,-1.0472,-0.698132,-0.174533,0.174533,-1.04472,-0.691997,-0.147188,0.135464,-0.494964,-0.343317,-0.820384,1.17206
26,60,-1.0472,-0.698132,-0.174533,0.174533,-1.04472,-0.691997,-0.14724,0.13549,-0.494964,-0.343317,-0.818813,1.17127
26,60,-1.0472,-0.698132,-0.174533,0.174533,-1.04472,-0.691997,-0.14719,0.135533,-0.494964,-0.343317,-0.820285,1.17002
26,60,-1.0472,-0.698132,-0.174533,0.174533,-1.04472,-0.691997,-0.14719,0.135533,-0.494964,-0.343317,-0.820285,1.17002
26,60,-1.0472,-0.698132,-0.174533,0.174533,-1.04472,-0.691997,-0.14719,0.135533,-0.494964,-0.343317,-0.820285,1.17002
26,60,-1.0472,-0.698132,-0.174533,0.174533,-1.04472,-0.691997,-0.14719,0.135533,-0.494964,-0.343317,-0.820285,1.17002
26,60,-1.0472,-0.698132,-0.174533,0.174533,-1.04472,-0.691997,-0.14719,0.135533,-0.494964,-0.343317,-0.820285,1.17002
26,60,-1.0472,-0.698132,-0.174533,0.174533,-1.04472,-0.691997,-0.14719,0.135533,-0.494964,-0.343317,-0.820285,1.17002
26,60,-1.0472,-0.698132,-0.174533,0.174533,-1.04472,-0.691997,-0.14719,0.135533,-0.494964,-0.343317,-0.820285,1.17002
26,60,-1.0472,-0.698132,-0.174533,0.174533,-1.04472,-0.691997,-0.14719,0.135533,-0.494964,-0.343317,-0.820285,1.17002
26,60,-1.0472,-0.698132,-0.174533,0.174533,-1.04472,-0.691997,-0.14719,0.135533,-0.494964,-0.343317,-0.820285,1.17002
26,60,-1.0472,-0.698132,-0.174533,0.174533,-1.04472,-0.691997,-0.14719,0.135533,-0.494964,-0.343317,-0.820285,1.17002
26,60,-1.0472,-0.698132,-0.174533,0.174533,-1.04472,-0.691997,-0.14719,0.135533,-0.494964,-0.343317,-0.820285,1.17002
26,60,-1.0472,-0.698132,-0.174533,0.174533,-1.04472,-0.691997,-0.14719,0.135533,-0.494964,-0.343317,-0.820285,1.17002
26,60,-1.0472,-0.698132,-0.174533,0.174533,-1.04472,-0.691997,-0.14719,0.135533,-0.494964,-0.343317,-0.820285,1.17002
26,60,-1.0472,-0.698132,-0.174533,0.174533,-1.04472,-0.691997,-0.14719,0.135533,-0.494964,-0.343317,-0.820285,1.17002
26,60,-1.0472,-0.698132,-0.174533,0.174533,-1.04472,-0.691997,-0.14719,0.135533,-0.494964,-0.343317,-0.820285,1.17002
26,60,-1.0472,-0.698132,-0.174533,0.174533,-1.04472,-0.691997,-0.14719,0.135533,-0.494964,-0.343317,-0.820285,1.17002
26,60,-1.0472,-0.698132,-0.174533,0.174533,-1.04472,-0.691997,-0.14719,0.135533,-0.494964,-0.343317,-0.820285,1.17002
26,60,-1.0472,-0.698132,-0.174533,0.174533,-1.04472,-0.691997,-0.14719,0.135533,-0.494964,-0.343317,-0.820285,1.17002
26,60,-1.0472,-0.698132,-0.174533,0.174533,-1.04472,-0.691997,-0.14719,0.135533,-0.494964,-0.343317,-0.820285,1.17002
26,60,-1.0472,-0.698132,-0.174533,0.174533,-1.04472,-0.691997,-0.14719,0.135533,-0.494964,-0.343317,-0.820285,1.17002
26,60,-1.0472,-0.698132,-0.174533,0.174533,-1.04472,-0.691997,-0.14719,0.135533,-0.494964,-0.343317,-0.820285,1.17002
26,60,-1.0472,-0.698132,-0.174533,0.174533,-1.04472,-0.691997,-0.14719,0.135533,-0.494964,-0.343317,-0.820285,1.17002
26,60,-1.0472,-0.698132,-0.174533,0.174533,-1.04472,-0.691997,-0.14719,0.135533,-0.494964,-0.343317,-0.820285,1.17002
26,60,-1.0472,-0.698132,-0.174533,0.174533,-1.04472,-0.691997,-0.14719,0.135533,-0.494964,-0.343317,-0.820285,1.17002
26,60,-1.0472,-0.698132,-0.174533,0.174533,-1.04472,-0.691997,-0.14719,0.135533,-0.494964,-0.343317,-0.820285,1.17002
26,60,-1.0472,-0.698132,-0.174533,0.174533,-1.04472,-0.691997,-0.14719,0.135533,-0.494964,-0.343317,-0.820285,1.17002
26,60,-1.0472,-0.698132,-0.174533,0.174533,-1.04472,-0.691997,-0.14719,0.135533,-0.494964,-0.343317,-0.820285,1.17002
26,60,-1.0472,-0.698132,-0.174533,0.174533,-1.04472,-0.691997,-0.14719,0.135533,-0.494964,-0.343317,-0.820285,1.17002
26,60,-1.0472,-0.698132,-0.174533,0.174533,-1.04472,-0.691997,-0.14719,0.135533,-0.494964,-0.343317,-0.820285,1.17002
26,60,-1.0472,-0.698132,-0.174533,0.174533,-1.04472,-0.691997,-0.14719,0.135533,-0.494964,-0.343317,-0.820285,1.17002
26,60,-1.0472,-0.698132,-0.174533,0.174533,-1.04472,-0.691997,-0.14719,0.135533,-0.494964,-0.343317,-0.820285,1.17002
26,60,-1.0472,-0.698132,-0.174533,0.174533,-1.04472,-0.691997,-0.14719,0.135533,-0.494964,-0.343317,-0.820285,1.17002
26,60,-1.0472,-0.698132,-0.174533,0.174533,-1.04472,-0.691997,-0.14719,0.135533,-0.494964,-0.343317,-0.820285,1.17002
26,60,-1.0472,-0.698132,-0.174533,0.174533,-1.04472,-0.691997,-0.14719,0.135533,-0.494964,-0.343317,-0.820285,1.17002
26,60,-1.0472,-0.698132,-0.174533,0.174533,-1.04472,-0.691997,-0.14719,0.135533,-0.494964,-0.343317,-0.820285,1.17002
26,60,-1.0472,-0.698132,-0.174533,0.174533,-1.04472,-0.691997,-0.14719,0.135533,-0.494964,-0.343317,-0.820285,1.17002
26,60,-1.0472,-0.698132,-0.174533,0.174533,-1.04472,-0.691997,-0.14719,0.135533,-0.494964,-0.343317,-0.820285,1.17002
26,60,-1.0472,-0.698132,-0.174533,0.174533,-1.04472,-0.691997,-0.14719,0.135533,-0.494964,-0.343317,-0.820285,1.17002
26,60,-1.0472,-0.698132,-0.174533,0.174533,-1.04472,-0.691997,-0.14719,0.135533,-0.494964,-0.343317,-0.820285,1.17002
26,60,-1.0472,-0.698132,-0.174533,0.174533,-1.04472,-0.691997,-0.14719,0.135533,-0.494964,-0.343317,-0.820285,1.17002
26,60,-1.0472,-0.698132,-0.174533,0.174533,-1.04472,-0.691997,-0.14719,0.135533,-0.494964,-0.343317,-0.820285,1.17002
26,60,-1.0472,-0.698132,-0.174533,0.174533,-1.04472,-0.691997,-0.14719,0.135533,-0.494964,-0.343317,-0.820285,1.17002
26,60,-1.0472,-0.698132,-0.174533,0.174533,-1.04472,-0.691997,-0.14719,0.135533,-0.494964,-0.343317,-0.820285,1.17002
26,60,-1.0472,-0.698132,-0.174533,0.174533,-1.04472,-0.691997,-0.14719,0.135533,-0.494964,-0.343317,-0.820285,1.17002
26,60,-1.0472,-0.698132,-0.174533,0.174533,-1.04472,-0.691997,-0.14719,0.135533,-0.494964,-0.343317,-0.820285,1.17002
26,60,-1.0472,-0.698132,-0.174533,0.174533,-1.04472,-0.691997,-0.14719,0.135533,-0.494964,-0.343317,-0.820284,1.17002
26,60,-1.0472,-0.698132,-0.174533,0.174533,-1.04472,-0.691997,-0.14719,0.135533,-0.494964,-0.343317,-0.820284,1.17002
26,60,-1.0472,-0.698132,-0.174533,0.174533,-1.04472,-0.691997,-0.14719,0.135533,-0.494964,-0.343317,-0.820284,1.17002
26,60,-1.0472,-0.698132,-0.174533,0.174533,-1.04472,-0.691997,-0.14719,0.135533,-0.494964,-0.343317,-0.820284,1.17002
26,60,-1.0472,-0.698132,-0.174533,0.174533,-1.04472,-0.691997,-0.14719,0.135533,-0.494964,-0.343317,-0.820284,1.17002
26,60,-1.0472,-0.698132,-0.174533,0.174533,-1.04472,-0.691997,-0.14719,0.135533,-0.494964,-0.343317,-0.820284,1.17002
26,60,-1.0472,-0.698132,-0.174533,0.174533,-1.04472,-0.691997,-0.14719,0.135533,-0.494964,-0.343317,-0.820284,1.17002
26,60,-1.0472,-0.698132,-0.174533,0.174533,-1.04472,-0.691997,-0.14719,0.135533,-0.494964,-0.343317,-0.820284,1.17001
26,60,-1.0472,-0.698132,-0.174533,0.174533,-1.04472,-0.691997,-0.147141,0.135575,-0.494964,-0.343317,-0.821768,1.16875
26,60,-1.0472,-0.698132,-0.174533,0.174533,-1.04472,-0.691997,-0.147141,0.135575,-0.494964,-0.343317,-0.821768,1.16875
26,60,-1.0472,-0.698132,-0.174533,0.174533,-1.04472,-0.691997,-0.147141,0.135575,-0.494964,-0.343317,-0.821768,1.16875
26,60,-1.0472,-0.698132,-0.174533,0.174533,-1.04472,-0.691997,-0.147141,0.135575,-0.494964,-0.343317,-0.821768,1.16875
26,60,-1.0472,-0.698132,-0.174533,0.174533,-1.04472,-0.691997,-0.147141,0.135575,-0.494964,-0.343317,-0.821768,1.16875
26,60,-1.0472,-0.698132,-0.174533,0.174533,-1.04472,-0.691997,-0.147141,0.135575,-0.494964,-0.343317,-0.821768,1.16874
26,60,-1.0472,-0.698132,-0.174533,0.174533,-1.04472,-0.691997,-0.147141,0.135575,-0.494964,-0.343317,-0.821768,1.16874
26,60,-1.0472,-0.698132,-0.174533,0.174533,-1.04472,-0.691997,-0.147141,0.135575,-0.494964,-0.343317,-0.821768,1.16874
26,60,-1.0472,-0.698132,-0.174533,0.174533,-1.04472,-0.691997,-0.147141,0.135575,-0.494964,-0.343317,-0.821768,1.16874
26,60,-1.0472,-0.698132,-0.174533,0.174533,-1.04472,-0.691997,-0.147141,0.135575,-0.494964,-0.343317,-0.821768,1.16874
26,60,-1.0472,-0.698132,-0.174533,0.174533,-1.04472,-0.691997,-0.147141,0.135575,-0.494964,-0.343317,-0.821768,1.16874
26,60,-1.0472,-0.698132,-0.174533,0.174533,-1.04472,-0.691997,-0.147141,0.135575,-0.494964,-0.343317,-0.821768,1.16874
26,60,-1.0472,-0.698132,-0.174533,0.174533,-1.04472,-0.691997,-0.147141,0.135575,-0.494964,-0.343317,-0.821768,1.16874
26,60,-1.0472,-0.698132,-0.174533,0.174533,-1.04472,-0.691997,-0.147141,0.135575,-0.494964,-0.343317,-0.821768,1.16874
26,60,-1.0472,-0.698132,-0.174533,0.174533,-1.04472,-0.691997,-0.147141,0.135575,-0.494964,-0.343317,-0.821768,1.16874
26,60,-1.0472,-0.698132,-0.174533,0.174533,-1.04472,-0.691997,-0.147141,0.135575,-0.494964,-0.343317,-0.821768,1.16874
26,60,-1.0472,-0.698132,-0.174533,0.174533,-1.04472,-0.691997,-0.147141,0.135575,-0.494964,-0.343317,-0.821768,1.16874
26,60,-1.0472,-0.698132,-0.174533,0.174533,-1.04472,-0.691997,-0.147141,0.135575,-0.494964,-0.343317,-0.821768,1.16874
26,60,-1.0472,-0.698132,-0.174533,0.174533,-1.04472,-0.691997,-0.147141,0.135575,-0.494964,-0.343317,-0.821768,1.16874
26,60,-1.0472,-0.698132,-0.174533,0.174533,-1.04472,-0.691997,-0.147141,0.135575,-0.494964,-0.343317,-0.821767,1.16874
26,60,-1.0472,-0.698132,-0.174533,0.174533,-1.04472,-0.691997,-0.147141,0.135575,-0.494964,-0.343317,-0.821767,1.16874
26,60,-1.0472,-0.698132,-0.174533,0.174533,-1.04472,-0.691997,-0.147141,0.135575,-0.494964,-0.343317,-0.821767,1.16874
26,60,-1.0472,-0.698132,-0.174533,0.174533,-1.04472,-0.691997,-0.147141,0.135575,-0.494964,-0.343317,-0.821767,1.16874
26,60,-1.0472,-0.698132,-0.174533,0.174533,-1.04472,-0.691997,-0.147141,0.135575,-0.494964,-0.343317,-0.821767,1.16874
26,60,-1.0472,-0.698132,-0.174533,0.174533,-1.04472,-0.691997,-0.147141,0.135575,-0.494964,-0.343317,-0.821767,1.16874
26,60,-1.0472,-0.698132,-0.174533,0.174533,-1.04472,-0.691997,-0.147141,0.135575,-0.494964,-0.343317,-0.821767,1.16874
26,60,-1.0472,-0.698132,-0.174533,0.174533,-1.04472,-0.691997,-0.147141,0.135575,-0.494964,-0.343317,-0.821767,1.16874
26,60,-1.0472,-0.698132,-0.174533,0.174533,-1.04472,-0.691997,-0.147141,0.135575,-0.494964,-0.343317,-0.821767,1.16874
26,60,-1.0472,-0.698132,-0.174533,0.174533,-1.04472,-0.691997,-0.147141,0.135575,-0.494964,-0.343317,-0.821767,1.16874
26,60,-1.0472,-0.698132,-0.174533,0.174533,-1.04472,-0.691997,-0.147141,0.135575,-0.494964,-0.343317,-0.821767,1.16874
26,60,-1.0472,-0.698132,-0.174533,0.174533,-1.04472,-0.691997,-0.147141,0.135575,-0.494964,-0.343317,-0.821767,1.16874
26,60,-1.0472,-0.698132,-0.174533,0.174533,-1.04472,-0.691997,-0.147141,0.135575,-0.494964,-0.343318,-0.821767,1.16874
26,60,-1.0472,-0.698132,-0.174533,0.174533,-1.04472,-0.691997,-0.147141,0.135575,-0.494964,-0.34332,-0.821767,1.16874
26,60,-1.0472,-0.698132,-0.174533,0.174533,-1.04472,-0.691997,-0.147141,0.135575,-0.494964,-0.343321,-0.821767,1.16874
26,60,-1.0472,-0.698132,-0.174533,0.174533,-1.04472,-0.691997,-0.147141,0.135575,-0.494964,-0.343322,-0.821767,1.16874
26,60,-1.0472,-0.698132,-0.174533,0.174533,-1.04472,-0.691997,-0.147141,0.135575,-0.494964,-0.343323,-0.821767,1.16874
26,60,-1.0472,-0.698132,-0.174533,0.174533,-1.04472,-0.691997,-0.147141,0.135575,-0.494964,-0.343324,-0.821767,1.16874
26,60,-1.0472,-0.698132,-0.174533,0.174533,-1.04472,-0.691997,-0.147141,0.135575,-0.494964,-0.343325,-0.821767,1.16874
26,60,-1.0472,-0.698132,-0.174533,0.174533,-1.04472,-0.691997,-0.147141,0.135575,-0.494964,-0.343326,-0.821767,1.16874
26,60,-1.0472,-0.698132,-0.174533,0.174533,-1.04472,-0.691997,-0.147141,0.135575,-0.494964,-0.343327,-0.821767,1.16874
26,60,-1.0472,-0.698132,-0.174533,0.174533,-1.04472,-0.691997,-0.147141,0.135575,-0.494964,-0.343328,-0.821767,1.16874
26,60,-1.0472,-0.698132,-0.174533,0.174533,-1.04472,-0.691997,-0.147141,0.135575,-0.494964,-0.343329,-0.821767,1.16874
26,60,-1.0472,-0.698132,-0.174533,0.174533,-1.04472,-0.691997,-0.147141,0.135575,-0.494964,-0.34333,-0.821767,1.16874
26,60,-1.0472,-0.698132,-0.174533,0.174533,-1.04472,-0.691997,-0.147141,0.135575,-0.494964,-0.343331,-0.821767,1.16874
26,60,-1.0472,-0.698132,-0.174533,0.174533,-1.04472,-0.691997,-0.147141,0.135575,-0.494964,-0.343332,-0.821767,1.16874
26,60,-1.0472,-0.698132,-0.174533,0.174533,-1.04472,-0.691997,-0.147141,0.135575,-0.494964,-0.343333,-0.821767,1.16874
26,60,-1.0472,-0.698132,-0.174533,0.174533,-1.04472,-0.691997,-0.147141,0.135575,-0.494964,-0.343334,-0.821767,1.16874
26,60,-1.0472,-0.698132,-0.174533,0.174533,-1.04472,-0.691997,-0.147141,0.135575,-0.494964,-0.343335,-0.821767,1.16874
26,60,-1.0472,-0.698132,-0.174533,0.174533,-1.04472,-0.691997,-0.147141,0.135575,-0.494964,-0.343336,-0.821767,1.16874
26,60,-1.0472,-0.698132,-0.174533,0.174533,-1.04472,-0.691997,-0.147141,0.135575,-0.494964,-0.343337,-0.821767,1.16874
26,60,-1.0472,-0.698132,-0.174533,0.174533,-1.04472,-0.691997,-0.147141,0.135575,-0.494964,-0.343338,-0.821767,1.16874
26,60,-1.0472,-0.698132,-0.174533,0.174533,-1.04472,-0.691997,-0.147141,0.135575,-0.494964,-0.343339,-0.821767,1.16874
26,60,-1.0472,-0.698132,-0.174533,0.174533,-1.04472,-0.691997,-0.147141,0.135575,-0.494964,-0.34334,-0.821767,1.16874
26,60,-1.0472,-0.698132,-0.174533,0.174533,-1.04472,-0.691997,-0.147141,0.135575,-0.494964,-0.343341,-0.821767,1.16874
26,60,-1.0472,-0.698132,-0.174533,0.174533,-1.04472,-0.691997,-0.147141,0.135575,-0.494964,-0.343341,-0.821767,1.16874
26,60,-1.0472,-0.698132,-0.174533,0.174533,-1.04472,-0.691997,-0.147141,0.135575,-0.494964,-0.343342,-0.821767,1.16874
26,60,-1.0472,-0.698132,-0.174533,0.174533,-1.04472,-0.691997,-0.147141,0.135575,-0.494964,-0.343527,-0.821767,1.16874
26,60,-1.0472,-0.698132,-0.174533,0.174533,-1.04472,-0.691997,-0.147141,0.135575,-0.494964,-0.343527,-0.821767,1.16874
26,60,-1.0472,-0.698132,-0.174533,0.174533,-1.04472,-0.691997,-0.147141,0.135575,-0.494964,-0.343527,-0.821767,1.16874
26,60,-1.0472,-0.698132,-0.174533,0.174533,-1.04472,-0.691997,-0.147141,0.135575,-0.494964,-0.343527,-0.821767,1.16874
26,60,-1.0472,-0.698132,-0.174533,0.174533,-1.04472,-0.691997,-0.147141,0.135575,-0.494964,-0.343527,-0.821767,1.16874
26,60,-1.0472,-0.698132,-0.174533,0.174533,-1.04472,-0.691997,-0.147193,0.135601,-0.494964,-0.343527,-0.820198,1.16796
26,60,-1.0472,-0.698132,-0.174533,0.174533,-1.04472,-0.691997,-0.147193,0.135601,-0.494964,-0.343527,-0.820198,1.16796
26,60,-1.0472,-0.698132,-0.174533,0.174533,-1.04472,-0.691997,-0.147193,0.135601,-0.494964,-0.343527,-0.820198,1.16796
26,60,-1.0472,-0.698132,-0.174533,0.174533,-1.04472,-0.692048,-0.147193,0.135601,-0.494964,-0.340635,-0.820198,1.16796
26,60,-1.0472,-0.698132,-0.174533,0.174533,-1.04472,-0.692048,-0.147193,0.135601,-0.494964,-0.340635,-0.820198,1.16796
26,60,-1.0472,-0.698132,-0.174533,0.174533,-1.04472,-0.692048,-0.147193,0.135601,-0.494964,-0.340635,-0.820198,1.16796
26,60,-1.0472,-0.698132,-0.174533,0.174533,-1.04472,-0.692048,-0.147193,0.135601,-0.494964,-0.340635,-0.820198,1.16796
26,60,-1.0472,-0.698132,-0.174533,0.174533,-1.04472,-0.692048,-0.147193,0.135601,-0.494964,-0.340635,-0.820198,1.16795
26,60,-1.0472,-0.698132,-0.174533,0.174533,-1.04472,-0.692048,-0.147193,0.135601,-0.494964,-0.340635,-0.820198,1.16795
26,60,-1.0472,-0.698132,-0.174533,0.174533,-1.04472,-0.692048,-0.147193,0.135601,-0.494964,-0.340635,-0.820198,1.16795
26,60,-1.0472,-0.698132,-0.174533,0.174533,-1.04472,-0.692048,-0.147193,0.135601,-0.494964,-0.340635,-0.820198,1.16795
26,60,-1.0472,-0.698132,-0.174533,0.174533,-1.04472,-0.692048,-0.147193,0.135601,-0.494964,-0.340635,-0.820198,1.16795
26,60,-1.0472,-0.698132,-0.174533,0.174533,-1.04472,-0.692048,-0.147193,0.135601,-0.494964,-0.340635,-0.820198,1.16795
26,60,-1.0472,-0.698132,-0.174533,0.174533,-1.04472,-0.692048,-0.147193,0.135601,-0.494964,-0.340635,-0.820198,1.16795
26,60,-1.0472,-0.698132,-0.174533,0.174533,-1.04472,-0.692048,-0.147193,0.135601,-0.494964,-0.340635,-0.820198,1.16795
26,60,-1.0472,-0.698132,-0.174533,0.174533,-1.04472,-0.692048,-0.147193,0.135601,-0.494964,-0.340635,-0.820198,1.16795
26,60,-1.0472,-0.698132,-0.174533,0.174533,-1.04472,-0.692048,-0.147193,0.135601,-0.494964,-0.340635,-0.820198,1.16795
26,60,-1.0472,-0.698132,-0.174533,0.174533,-1.04472,-0.692048,-0.147193,0.135601,-0.494964,-0.340635,-0.820198,1.16795
26,60,-1.0472,-0.698132,-0.174533,0.174533,-1.04472,-0.692048,-0.147193,0.135601,-0.494964,-0.340635,-0.820198,1.16795
26,60,-1.0472,-0.698132,-0.174533,0.174533,-1.04472,-0.692048,-0.147193,0.135601,-0.494964,-0.340635,-0.820198,1.16795
26,60,-1.0472,-0.698132,-0.174533,0.174533,-1.04472,-0.692048,-0.147193,0.135601,-0.494964,-0.340635,-0.820198,1.16795
26,60,-1.0472,-0.698132,-0.174533,0.174533,-1.04472,-0.692048,-0.147193,0.135601,-0.494964,-0.340635,-0.820198,1.16795
26,60,-1.0472,-0.698132,-0.174533,0.174533,-1.04472,-0.692048,-0.147193,0.135601,-0.494964,-0.340635,-0.820198,1.16795
26,60,-1.0472,-0.698132,-0.174533,0.174533,-1.04472,-0.692048,-0.147193,0.135601,-0.494964,-0.340635,-0.820198,1.16795
26,60,-1.0472,-0.698132,-0.174533,0.174533,-1.04472,-0.692048,-0.147193,0.135601,-0.494964,-0.340635,-0.820198,1.16795
26,60,-1.0472,-0.698132,-0.174533,0.174533,-1.04472,-0.692048,-0.147193,0.135601,-0.494964,-0.340635,-0.820198,1.16795
26,60,-1.0472,-0.698132,-0.174533,0.174533,-1.04472,-0.692048,-0.147193,0.135601,-0.494964,-0.340635,-0.820198,1.16795
26,60,-1.0472,-0.698132,-0.174533,0.174533,-1.04472,-0.692048,-0.14719,0.135531,-0.494964,-0.340635,-0.820303,1.17005
26,60,-1.0472,-0.698132,-0.174533,0.174533,-1.04472,-0.692048,-0.14719,0.135531,-0.494964,-0.340635,-0.820303,1.17005
26,60,-1.0472,-0.698132,-0.174533,0.174533,-1.04472,-0.692048,-0.14719,0.135531,-0.494964,-0.340635,-0.820303,1.17005
26,60,-1.0472,-0.698132,-0.174533,0.174533,-1.04472,-0.692048,-0.14719,0.135531,-0.494964,-0.340635,-0.820303,1.17005
26,60,-1.0472,-0.698132,-0.174533,0.174533,-1.04472,-0.692048,-0.14719,0.135531,-0.494964,-0.340635,-0.820303,1.17005
26,60,-1.0472,-0.698132,-0.174533,0.174533,-1.04472,-0.692048,-0.14719,0.135531,-0.494964,-0.340635,-0.820303,1.17005
26,60,-1.0472,-0.698132,-0.174533,0.174533,-1.04472,-0.692048,-0.14719,0.135531,-0.494964,-0.340635,-0.820303,1.17005
26,60,-1.0472,-0.698132,-0.174533,0.174533,-1.04472,-0.692048,-0.14719,0.135531,-0.494964,-0.340635,-0.820303,1.17005
26,60,-1.0472,-0.698132,-0.174533,0.174533,-1.04472,-0.692048,-0.14714,0.135574,-0.494964,-0.340635,-0.82179,1.16878
26,60,-1.0472,-0.698132,-0.174533,0.174533,-1.04472,-0.692048,-0.14714,0.135574,-0.494964,-0.340635,-0.82179,1.16878
26,60,-1.0472,-0.698132,-0.174533,0.174533,-1.04472,-0.692048,-0.14714,0.135574,-0.494964,-0.340635,-0.82179,1.16878
26,60,-1.0472,-0.698132,-0.174533,0.174533,-1.04472,-0.692048,-0.14714,0.135574,-0.494964,-0.340635,-0.82179,1.16878
26,60,-1.0472,-0.698132,-0.174533,0.174533,-1.04472,-0.692048,-0.14714,0.135574,-0.494964,-0.340635,-0.82179,1.16878
26,60,-1.0472,-0.698132,-0.174533,0.174533,-1.04472,-0.692048,-0.14714,0.135574,-0.494964,-0.340635,-0.82179,1.16878
26,60,-1.0472,-0.698132,-0.174533,0.174533,-1.04472,-0.692048,-0.14714,0.135574,-0.494964,-0.340635,-0.82179,1.16878
26,60,-1.0472,-0.698132,-0.174533,0.174533,-1.04472,-0.692048,-0.14714,0.135574,-0.494964,-0.340635,-0.82179,1.16878
26,60,-1.0472,-0.698132,-0.174533,0.174533,-1.04472,-0.692048,-0.14714,0.135574,-0.494964,-0.340635,-0.82179,1.16878
26,60,-1.0472,-0.698132,-0.174533,0.174533,-1.04472,-0.692048,-0.14714,0.135574,-0.494964,-0.340635,-0.82179,1.16878
26,60,-1.0472,-0.698132,-0.174533,0.174533,-1.04472,-0.692048,-0.14714,0.135574,-0.494964,-0.340635,-0.82179,1.16878
26,60,-1.0472,-0.698132,-0.174533,0.174533,-1.04472,-0.692048,-0.14714,0.135574,-0.494964,-0.340635,-0.82179,1.16878
26,60,-1.0472,-0.698132,-0.174533,0.174533,-1.04472,-0.692048,-0.14714,0.135574,-0.494964,-0.340635,-0.82179,1.16878
26,60,-1.0472,-0.698132,-0.174533,0.174533,-1.04472,-0.692048,-0.14714,0.135574,-0.494964,-0.340635,-0.82179,1.16878
26,60,-1.0472,-0.698132,-0.174533,0.174533,-1.04472,-0.692048,-0.14714,0.135574,-0.494964,-0.340635,-0.82179,1.16878
26,60,-1.0472,-0.698132,-0.174533,0.174533,-1.04472,-0.692048,-0.14714,0.135574,-0.494964,-0.340635,-0.82179,1.16878
26,60,-1.0472,-0.698132,-0.174533,0.174533,-1.04472,-0.692048,-0.14714,0.135574,-0.494964,-0.340635,-0.82179,1.16878
26,60,-1.0472,-0.698132,-0.174533,0.174533,-1.04472,-0.692048,-0.14714,0.135574,-0.494964,-0.340635,-0.82179,1.16878
26,60,-1.0472,-0.698132,-0.174533,0.174533,-1.04472,-0.692048,-0.14714,0.135574,-0.494964,-0.340635,-0.82179,1.16878
26,60,-1.0472,-0.698132,-0.174533,0.174533,-1.04472,-0.692048,-0.14714,0.135574,-0.494964,-0.340635,-0.82179,1.16878
26,60,-1.0472,-0.698132,-0.174533,0.174533,-1.04472,-0.692048,-0.14714,0.135574,-0.494964,-0.340635,-0.82179,1.16878
26,60,-1.0472,-0.698132,-0.174533,0.174533,-1.04472,-0.692048,-0.14714,0.135574,-0.494964,-0.340635,-0.82179,1.16878
26,60,-1.0472,-0.698132,-0.174533,0.174533,-1.04472,-0.692048,-0.14714,0.135574,-0.494964,-0.340635,-0.82179,1.16878
26,60,-1.0472,-0.698132,-0.174533,0.174533,-1.04472,-0.692048,-0.14714,0.135574,-0.494964,-0.340635,-0.82179,1.16878
26,60,-1.0472,-0.698132,-0.174533,0.174533,-1.04472,-0.692048,-0.14714,0.135574,-0.494964,-0.340635,-0.82179,1.16878
26,60,-1.0472,-0.698132,-0.174533,0.174533,-1.04472,-0.692048,-0.14714,0.135574,-0.494964,-0.340635,-0.82179,1.16878
26,60,-1.0472,-0.698132,-0.174533,0.174533,-1.04472,-0.692048,-0.14714,0.135574,-0.494964,-0.340635,-0.82179,1.16878
26,60,-1.0472,-0.698132,-0.174533,0.174533,-1.04472,-0.692048,-0.14714,0.135574,-0.494964,-0.340635,-0.82179,1.16878
26,60,-1.0472,-0.698132,-0.174533,0.174533,-1.04472,-0.692048,-0.14714,0.135574,-0.494964,-0.340635,-0.82179,1.16878
26,60,-1.0472,-0.698132,-0.174533,0.174533,-1.04472,-0.692048,-0.147192,0.1356,-0.494964,-0.340635,-0.820219,1.168
26,60,-1.0472,-0.698132,-0.174533,0.174533,-1.04472,-0.692048,-0.147192,0.1356,-0.494964,-0.340635,-0.820219,1.168
26,60,-1.0472,-0.698132,-0.174533,0.174533,-1.04472,-0.692048,-0.147192,0.1356,-0.494964,-0.340635,-0.820219,1.168
26,60,-1.0472,-0.698132,-0.174533,0.174533,-1.04472,-0.692048,-0.147192,0.1356,-0.494964,-0.340635,-0.820219,1.168
26,60,-1.0472,-0.698132,-0.174533,0.174533,-1.04472,-0.692048,-0.147192,0.1356,-0.494964,-0.340635,-0.820219,1.168
26,60,-1.0472,-0.698132,-0.174533,0.174533,-1.04472,-0.692048,-0.147192,0.1356,-0.494964,-0.340635,-0.820219,1.168
26,60,-1.0472,-0.698132,-0.174533,0.174533,-1.04472,-0.692048,-0.147192,0.1356,-0.494964,-0.340635,-0.820219,1.168
26,60,-1.0472,-0.698132,-0.174533,0.174533,-1.04472,-0.692048,-0.147192,0.1356,-0.494964,-0.340635,-0.820219,1.168
26,60,-1.0472,-0.698132,-0.174533,0.174533,-1.04472,-0.692048,-0.147192,0.1356,-0.494964,-0.340635,-0.820219,1.168
26,60,-1.0472,-0.698132,-0.174533,0.174533,-1.04472,-0.692048,-0.147192,0.1356,-0.494964,-0.340635,-0.820219,1.168
26,60,-1.0472,-0.698132,-0.174533,0.174533,-1.04472,-0.692048,-0.147192,0.1356,-0.494964,-0.340635,-0.820219,1.168
26,60,-1.0472,-0.698132,-0.174533,0.174533,-1.04472,-0.692048,-0.147192,0.1356,-0.494964,-0.340635,-0.820219,1.168
26,60,-1.0472,-0.698132,-0.174533,0.174533,-1.04472,-0.692048,-0.147192,0.1356,-0.494964,-0.340635,-0.820219,1.168
26,60,-1.0472,-0.698132,-0.174533,0.174533,-1.04472,-0.692048,-0.147192,0.1356,-0.494964,-0.340635,-0.820219,1.168
26,60,-1.0472,-0.698132,-0.174533,0.174533,-1.04472,-0.692048,-0.147192,0.1356,-0.494964,-0.340635,-0.820219,1.168
26,60,-1.0472,-0.698132,-0.174533,0.174533,-1.04472,-0.692048,-0.147192,0.1356,-0.494964,-0.340635,-0.820219,1.168
26,60,-1.0472,-0.698132,-0.174533,0.174533,-1.04472,-0.692048,-0.147192,0.1356,-0.494964,-0.340635,-0.820219,1.168
26,60,-1.0472,-0.698132,-0.174533,0.174533,-1.04472,-0.692048,-0.147192,0.1356,-0.494964,-0.340635,-0.820219,1.168
26,60,-1.0472,-0.698132,-0.174533,0.174533,-1.04472,-0.692048,-0.147192,0.1356,-0.494964,-0.340635,-0.820219,1.168
26,60,-1.0472,-0.698132,-0.174533,0.174533,-1.04472,-0.692048,-0.147192,0.1356,-0.494964,-0.340635,-0.820219,1.168
26,60,-1.0472,-0.698132,-0.174533,0.174533,-1.04472,-0.692048,-0.147192,0.1356,-0.494964,-0.340635,-0.820219,1.168
26,60,-1.0472,-0.698132,-0.174533,0.174533,-1.04472,-0.692048,-0.147192,0.1356,-0.494964,-0.340635,-0.820219,1.168
26,60,-1.0472,-0.698132,-0.174533,0.174533,-1.04472,-0.692048,-0.147192,0.1356,-0.494964,-0.340635,-0.820219,1.168
26,60,-1.0472,-0.698132,-0.174533,0.174533,-1.04472,-0.692048,-0.147192,0.1356,-0.494964,-0.340635,-0.820219,1.168
26,60,-1.0472,-0.698132,-0.174533,0.174533,-1.04472,-0.692048,-0.147192,0.1356,-0.494964,-0.340635,-0.820219,1.168
26,60,-1.0472,-0.698132,-0.174533,0.174533,-1.04472,-0.692048,-0.147192,0.1356,-0.494964,-0.340635,-0.820219,1.168
26,60,-1.0472,-0.698132,-0.174533,0.174533,-1.04472,-0.692048,-0.147192,0.1356,-0.494964,-0.340635,-0.820219,1.168
26,60,-1.0472,-0.698132,-0.174533,0.174533,-1.04472,-0.692048,-0.147192,0.1356,-0.494964,-0.340635,-0.820219,1.168
26,60,-1.0472,-0.698132,-0.174533,0.174533,-1.04472,-0.692048,-0.147192,0.1356,-0.494964,-0.340635,-0.820219,1.168
26,60,-1.0472,-0.698132,-0.174533,0.174533,-1.04472,-0.692048,-0.147192,0.1356,-0.494964,-0.340635,-0.820219,1.168
26,60,-1.0472,-0.698132,-0.174533,0.174533,-1.04472,-0.692048,-0.147192,0.1356,-0.494964,-0.340635,-0.820219,1.168
26,60,-1.0472,-0.698132,-0.174533,0.174533,-1.04472,-0.692048,-0.147192,0.1356,-0.494964,-0.340635,-0.820219,1.168
26,60,-1.0472,-0.698132,-0.174533,0.174533,-1.04472,-0.692048,-0.147192,0.1356,-0.494964,-0.340635,-0.820219,1.168
26,60,-1.0472,-0.698132,-0.174533,0.174533,-1.04472,-0.692048,-0.147192,0.1356,-0.494964,-0.340635,-0.820219,1.168
26,60,-1.0472,-0.698132,-0.174533,0.174533,-1.04472,-0.692048,-0.147192,0.1356,-0.494964,-0.340635,-0.820219,1.168
26,60,-1.0472,-0.698132,-0.174533,0.174533,-1.04472,-0.692048,-0.147192,0.1356,-0.494964,-0.340635,-0.820219,1.168
26,60,-1.0472,-0.698132,-0.174533,0.174533,-1.04472,-0.692048,-0.147192,0.1356,-0.494964,-0.340635,-0.820219,1.168
26,60,-1.0472,-0.698132,-0.174533,0.174533,-1.04472,-0.692048,-0.147143,0.135642,-0.494964,-0.340635,-0.821705,1.16673
26,60,-1.0472,-0.698132,-0.174533,0.174533,-1.04472,-0.692048,-0.147143,0.135642,-0.494964,-0.340635,-0.821705,1.16673
26,60,-1.0472,-0.698132,-0.174533,0.174533,-1.04472,-0.692048,-0.147143,0.135642,-0.494964,-0.340635,-0.821705,1.16673
26,60,-1.0472,-0.698132,-0.174533,0.174533,-1.04472,-0.692048,-0.147143,0.135642,-0.494964,-0.340635,-0.821705,1.16673
26,60,-1.0472,-0.698132,-0.174533,0.174533,-1.04472,-0.692048,-0.147143,0.135642,-0.494964,-0.340635,-0.821705,1.16673
26,60,-1.0472,-0.698132,-0.174533,0.174533,-1.04472,-0.692048,-0.147143,0.135642,-0.494964,-0.340635,-0.821705,1.16673
26,60,-1.0472,-0.698132,-0.174533,0.174533,-1.04472,-0.692048,-0.147143,0.135642,-0.494964,-0.340635,-0.821705,1.16673
26,60,-1.0472,-0.698132,-0.174533,0.174533,-1.04472,-0.692048,-0.147143,0.135642,-0.494964,-0.340635,-0.821705,1.16673
26,60,-1.0472,-0.698132,-0.174533,0.174533,-1.04472,-0.692048,-0.147143,0.135642,-0.494964,-0.340635,-0.821705,1.16673
26,60,-1.0472,-0.698132,-0.174533,0.174533,-1.04472,-0.692048,-0.147143,0.135642,-0.494964,-0.340635,-0.821705,1.16673
26,60,-1.0472,-0.698132,-0.174533,0.174533,-1.04472,-0.692048,-0.147143,0.135642,-0.494964,-0.340635,-0.821705,1.16673
26,60,-1.0472,-0.698132,-0.174533,0.174533,-1.04472,-0.692048,-0.147143,0.135642,-0.494964,-0.340635,-0.821705,1.16673
26,60,-1.0472,-0.698132,-0.174533,0.174533,-1.04472,-0.692048,-0.147143,0.135642,-0.494964,-0.340635,-0.821705,1.16673
26,60,-1.0472,-0.698132,-0.174533,0.174533,-1.04472,-0.692048,-0.147143,0.135642,-0.494964,-0.340635,-0.821705,1.16673
26,60,-1.0472,-0.698132,-0.174533,0.174533,-1.04472,-0.692048,-0.147143,0.135642,-0.494964,-0.340635,-0.821705,1.16673
26,60,-1.0472,-0.698132,-0.174533,0.174533,-1.04472,-0.692048,-0.147143,0.135642,-0.494964,-0.340635,-0.821705,1.16673
26,60,-1.0472,-0.698132,-0.174533,0.174533,-1.04472,-0.692048,-0.147143,0.135642,-0.494964,-0.340635,-0.821705,1.16673
26,60,-1.0472,-0.698132,-0.174533,0.174533,-1.04472,-0.692048,-0.147143,0.135642,-0.494964,-0.340635,-0.821705,1.16673
26,60,-1.0472,-0.698132,-0.174533,0.174533,-1.04472,-0.692048,-0.147143,0.135642,-0.494964,-0.340635,-0.821705,1.16673
26,60,-1.0472,-0.698132,-0.174533,0.174533,-1.04472,-0.692048,-0.147143,0.135642,-0.494964,-0.340635,-0.821705,1.16673
26,60,-1.0472,-0.698132,-0.174533,0.174533,-1.04472,-0.692048,-0.147143,0.135642,-0.494964,-0.340635,-0.821705,1.16673
26,60,-1.0472,-0.698132,-0.174533,0.174533,-1.04472,-0.692048,-0.147143,0.135642,-0.494964,-0.340635,-0.821705,1.16673
26,60,-1.0472,-0.698132,-0.174533,0.174533,-1.04472,-0.692048,-0.147143,0.135642,-0.494964,-0.340635,-0.821705,1.16673
26,60,-1.0472,-0.698132,-0.174533,0.174533,-1.04472,-0.692048,-0.147143,0.135642,-0.494964,-0.340635,-0.821705,1.16673
26,60,-1.0472,-0.698132,-0.174533,0.174533,-1.04472,-0.692048,-0.147143,0.135642,-0.494964,-0.340635,-0.821705,1.16673
26,60,-1.0472,-0.698132,-0.174533,0.174533,-1.04472,-0.692048,-0.147143,0.135642,-0.494964,-0.340635,-0.821705,1.16673
26,60,-1.0472,-0.698132,-0.174533,0.174533,-1.04472,-0.692048,-0.147143,0.135642,-0.494964,-0.340635,-0.821705,1.16673
26,60,-1.0472,-0.698132,-0.174533,0.174533,-1.04472,-0.692099,-0.147143,0.135642,-0.494964,-0.337655,-0.821705,1.16673
26,60,-1.0472,-0.698132,-0.174533,0.174533,-1.04472,-0.692099,-0.147143,0.135642,-0.494964,-0.337655,-0.821705,1.16673
26,60,-1.0472,-0.698132,-0.174533,0.174533,-1.04472,-0.692099,-0.147143,0.135642,-0.494964,-0.337655,-0.821705,1.16673
26,60,-1.0472,-0.698132,-0.174533,0.174533,-1.04472,-0.692099,-0.147143,0.135642,-0.494964,-0.337655,-0.821705,1.16673
26,60,-1.0472,-0.698132,-0.174533,0.174533,-1.04472,-0.692099,-0.147143,0.135642,-0.494964,-0.337655,-0.821705,1.16673
26,60,-1.0472,-0.698132,-0.174533,0.174533,-1.04472,-0.692099,-0.147143,0.135642,-0.494964,-0.337655,-0.821705,1.16673
26,60,-1.0472,-0.698132,-0.174533,0.174533,-1.04472,-0.692099,-0.147143,0.135642,-0.494964,-0.337655,-0.821705,1.16673
26,60,-1.0472,-0.698132,-0.174533,0.174533,-1.04472,-0.692099,-0.147143,0.135642,-0.494964,-0.337655,-0.821705,1.16673
26,60,-1.0472,-0.698132,-0.174533,0.174533,-1.04472,-0.692099,-0.147143,0.135642,-0.494964,-0.337655,-0.821705,1.16673
26,60,-1.0472,-0.698132,-0.174533,0.174533,-1.04472,-0.692099,-0.147143,0.135642,-0.494964,-0.337655,-0.821705,1.16673
26,60,-1.0472,-0.698132,-0.174533,0.174533,-1.04472,-0.692099,-0.147143,0.135642,-0.494964,-0.337655,-0.821705,1.16673
26,60,-1.0472,-0.698132,-0.174533,0.174533,-1.04472,-0.692099,-0.147143,0.135642,-0.494964,-0.337655,-0.821705,1.16673
26,60,-1.0472,-0.698132,-0.174533,0.174533,-1.04472,-0.692099,-0.147143,0.135642,-0.494964,-0.337655,-0.821705,1.16673
26,60,-1.0472,-0.698132,-0.174533,0.174533,-1.04472,-0.692099,-0.147143,0.135642,-0.494964,-0.337655,-0.821705,1.16673
26,60,-1.0472,-0.698132,-0.174533,0.174533,-1.04472,-0.692099,-0.147143,0.135642,-0.494964,-0.337655,-0.821705,1.16673
26,60,-1.0472,-0.698132,-0.174533,0.174533,-1.04472,-0.692099,-0.147143,0.135642,-0.494964,-0.337655,-0.821705,1.16673
26,60,-1.0472,-0.698132,-0.174533,0.174533,-1.04472,-0.692099,-0.147143,0.135642,-0.494964,-0.337655,-0.821705,1.16673
26,60,-1.0472,-0.698132,-0.174533,0.174533,-1.04472,-0.692099,-0.147143,0.135642,-0.494964,-0.337655,-0.821705,1.16673
26,60,-1.0472,-0.698132,-0.174533,0.174533,-1.04472,-0.692099,-0.147143,0.135642,-0.494964,-0.337655,-0.821705,1.16673
26,60,-1.0472,-0.698132,-0.174533,0.174533,-1.04472,-0.692099,-0.147143,0.135642,-0.494964,-0.337655,-0.821705,1.16673
26,60,-1.0472,-0.698132,-0.174533,0.174533,-1.04472,-0.692099,-0.147143,0.135642,-0.494964,-0.337655,-0.821705,1.16673
26,60,-1.0472,-0.698132,-0.174533,0.174533,-1.04472,-0.692099,-0.147143,0.135642,-0.494964,-0.337655,-0.821705,1.16673
26,60,-1.0472,-0.698132,-0.174533,0.174533,-1.04472,-0.692099,-0.147143,0.135642,-0.494964,-0.337655,-0.821705,1.16673
26,60,-1.0472,-0.698132,-0.174533,0.174533,-1.04472,-0.692099,-0.147143,0.135642,-0.494964,-0.337655,-0.821705,1.16673
26,60,-1.0472,-0.698132,-0.174533,0.174533,-1.04472,-0.692099,-0.147143,0.135642,-0.494964,-0.337655,-0.821705,1.16673
26,60,-1.0472,-0.698132,-0.174533,0.174533,-1.04472,-0.692099,-0.147143,0.135642,-0.494964,-0.337655,-0.821705,1.16673
26,60,-1.0472,-0.698132,-0.174533,0.174533,-1.04472,-0.692099,-0.147143,0.135642,-0.494964,-0.337655,-0.821705,1.16673
26,60,-1.0472,-0.698132,-0.174533,0.174533,-1.04472,-0.692099,-0.147143,0.135642,-0.494964,-0.337655,-0.821705,1.16673
26,60,-1.0472,-0.698132,-0.174533,0.174533,-1.04472,-0.692099,-0.147143,0.135642,-0.494964,-0.337655,-0.821705,1.16673
26,60,-1.0472,-0.698132,-0.174533,0.174533,-1.04472,-0.692099,-0.147143,0.135642,-0.494964,-0.337655,-0.821705,1.16673
26,60,-1.0472,-0.698132,-0.174533,0.174533,-1.04472,-0.692099,-0.147143,0.135642,-0.494964,-0.337655,-0.821705,1.16673
26,60,-1.0472,-0.698132,-0.174533,0.174533,-1.04472,-0.692099,-0.147143,0.135642,-0.494964,-0.337655,-0.821705,1.16673
26,60,-1.0472,-0.698132,-0.174533,0.174533,-1.04472,-0.692099,-0.147143,0.135642,-0.494964,-0.337655,-0.821705,1.16673
26,60,-1.0472,-0.698132,-0.174533,0.174533,-1.04472,-0.692099,-0.147143,0.135642,-0.494964,-0.337655,-0.821705,1.16673
26,60,-1.0472,-0.698132,-0.174533,0.174533,-1.04472,-0.692099,-0.147143,0.135642,-0.494964,-0.337655,-0.821705,1.16673
26,60,-1.0472,-0.698132,-0.174533,0.174533,-1.04472,-0.692099,-0.147143,0.135642,-0.494964,-0.337655,-0.821705,1.16673
26,60,-1.0472,-0.698132,-0.174533,0.174533,-1.04472,-0.692099,-0.147143,0.135642,-0.494964,-0.337655,-0.821705,1.16673
26,60,-1.0472,-0.698132,-0.174533,0.174533,-1.04472,-0.692099,-0.147143,0.135642,-0.494964,-0.337655,-0.821705,1.16673
26,60,-1.0472,-0.698132,-0.174533,0.174533,-1.04472,-0.692099,-0.147143,0.135642,-0.494964,-0.337655,-0.821705,1.16673
26,60,-1.0472,-0.698132,-0.174533,0.174533,-1.04472,-0.692099,-0.147143,0.135642,-0.494964,-0.337655,-0.821705,1.16673
26,60,-1.0472,-0.698132,-0.174533,0.174533,-1.04472,-0.692099,-0.147143,0.135642,-0.494964,-0.337655,-0.821705,1.16673
26,60,-1.0472,-0.698132,-0.174533,0.174533,-1.04472,-0.692099,-0.147143,0.135642,-0.494964,-0.337655,-0.821705,1.16673
26,60,-1.0472,-0.698132,-0.174533,0.174533,-1.04472,-0.692099,-0.147143,0.135642,-0.494964,-0.337655,-0.821705,1.16673
26,60,-1.0472,-0.698132,-0.174533,0.174533,-1.04472,-0.692099,-0.147143,0.135642,-0.494964,-0.337655,-0.821705,1.16673
26,60,-1.0472,-0.698132,-0.174533,0.174533,-1.04472,-0.692099,-0.147143,0.135642,-0.494964,-0.337655,-0.821705,1.16673
26,60,-1.0472,-0.698132,-0.174533,0.174533,-1.04472,-0.692099,-0.147143,0.135642,-0.494964,-0.337655,-0.821705,1.16673
26,60,-1.0472,-0.698132,-0.174533,0.174533,-1.04472,-0.692099,-0.147143,0.135642,-0.494964,-0.337655,-0.821705,1.16673
26,60,-1.0472,-0.698132,-0.174533,0.174533,-1.04472,-0.692099,-0.147143,0.135642,-0.494964,-0.337655,-0.821705,1.16673
26,60,-1.0472,-0.698132,-0.174533,0.174533,-1.04472,-0.692099,-0.147143,0.135642,-0.494964,-0.337655,-0.821705,1.16673
26,60,-1.0472,-0.698132,-0.174533,0.174533,-1.04472,-0.692099,-0.147143,0.135642,-0.494964,-0.337655,-0.821705,1.16673
26,60,-1.0472,-0.698132,-0.174533,0.174533,-1.04472,-0.692099,-0.147143,0.135642,-0.494964,-0.337655,-0.821705,1.16673
26,60,-1.0472,-0.698132,-0.174533,0.174533,-1.04472,-0.692099,-0.147143,0.135642,-0.494964,-0.337655,-0.821705,1.16673
26,60,-1.0472,-0.698132,-0.174533,0.174533,-1.04472,-0.692099,-0.147143,0.135642,-0.494964,-0.337655,-0.821705,1.16673
26,60,-1.0472,-0.698132,-0.174533,0.174533,-1.04472,-0.692099,-0.147143,0.135642,-0.494964,-0.337655,-0.821705,1.16673
26,60,-1.0472,-0.698132,-0.174533,0.174533,-1.04472,-0.692099,-0.147143,0.135642,-0.494964,-0.337655,-0.821705,1.16673
26,60,-1.0472,-0.698132,-0.174533,0.174533,-1.04472,-0.692099,-0.147143,0.135642,-0.494964,-0.337655,-0.821705,1.16673
26,60,-1.0472,-0.698132,-0.174533,0.174533,-1.04472,-0.692099,-0.147143,0.135642,-0.494964,-0.337655,-0.821705,1.16673
26,60,-1.0472,-0.698132,-0.174533,0.174533,-1.04472,-0.692099,-0.147143,0.135642,-0.494964,-0.337655,-0.821705,1.16673
26,60,-1.0472,-0.698132,-0.174533,0.174533,-1.04472,-0.692099,-0.147143,0.135642,-0.494964,-0.337655,-0.821705,1.16673
26,60,-1.0472,-0.698132,-0.174533,0.174533,-1.04472,-0.692099,-0.147143,0.135642,-0.494964,-0.337655,-0.821705,1.16673
26,60,-1.0472,-0.698132,-0.174533,0.174533,-1.04472,-0.692099,-0.147143,0.135642,-0.494964,-0.337655,-0.821705,1.16673
26,60,-1.0472,-0.698132,-0.174533,0.174533,-1.04472,-0.692099,-0.147143,0.135642,-0.494964,-0.337655,-0.821705,1.16673
26,60,-1.0472,-0.698132,-0.174533,0.174533,-1.04472,-0.692099,-0.147143,0.135642,-0.494964,-0.337655,-0.821705,1.16673
26,60,-1.0472,-0.698132,-0.174533,0.174533,-1.04472,-0.692099,-0.147143,0.135642,-0.494964,-0.337655,-0.821705,1.16673
26,60,-1.0472,-0.698132,-0.174533,0.174533,-1.04472,-0.692099,-0.147143,0.135642,-0.494964,-0.337655,-0.821705,1.16673
26,60,-1.0472,-0.698132,-0.174533,0.174533,-1.04472,-0.692099,-0.147143,0.135642,-0.494964,-0.337655,-0.821705,1.16673
26,60,-1.0472,-0.698132,-0.174533,0.174533,-1.04472,-0.692099,-0.147143,0.135642,-0.494964,-0.337655,-0.821705,1.16673
26,60,-1.0472,-0.698132,-0.174533,0.174533,-1.04472,-0.692099,-0.147143,0.135642,-0.494964,-0.337655,-0.821705,1.16673
26,60,-1.0472,-0.698132,-0.174533,0.174533,-1.04472,-0.692099,-0.147143,0.135642,-0.494964,-0.337655,-0.821705,1.16673
26,60,-1.0472,-0.698132,-0.174533,0.174533,-1.04472,-0.692099,-0.147143,0.135642,-0.494964,-0.337655,-0.821705,1.16673
26,60,-1.0472,-0.698132,-0.174533,0.174533,-1.04472,-0.692099,-0.147143,0.135642,-0.494964,-0.337655,-0.821705,1.16673
26,60,-1.0472,-0.698132,-0.174533,0.174533,-1.04472,-0.692099,-0.147143,0.135642,-0.494964,-0.337655,-0.821705,1.16673
26,60,-1.0472,-0.698132,-0.174533,0.174533,-1.04472,-0.692099,-0.147143,0.135642,-0.494964,-0.337655,-0.821705,1.16673
26,60,-1.0472,-0.698132,-0.174533,0.174533,-1.04472,-0.692099,-0.147143,0.135642,-0.494964,-0.337655,-0.821705,1.16673
26,60,-1.0472,-0.698132,-0.174533,0.174533,-1.04472,-0.692099,-0.147143,0.135642,-0.494964,-0.337655,-0.821705,1.16673
26,60,-1.0472,-0.698132,-0.174533,0.174533,-1.04472,-0.692099,-0.147143,0.135642,-0.494964,-0.337655,-0.821705,1.16673
26,60,-1.0472,-0.698132,-0.174533,0.174533,-1.04472,-0.692099,-0.147143,0.135642,-0.494964,-0.337655,-0.821705,1.16673
26,60,-1.0472,-0.698132,-0.174533,0.174533,-1.04472,-0.692099,-0.147143,0.135642,-0.494964,-0.337655,-0.821705,1.16673
26,60,-1.0472,-0.698132,-0.174533,0.174533,-1.04472,-0.692099,-0.147143,0.135642,-0.494964,-0.337655,-0.821705,1.16673
26,60,-1.0472,-0.698132,-0.174533,0.174533,-1.04472,-0.692099,-0.147143,0.135642,-0.494964,-0.337655,-0.821705,1.16673
26,60,-1.0472,-0.698132,-0.174533,0.174533,-1.04472,-0.692099,-0.147143,0.135642,-0.494964,-0.337655,-0.821705,1.16673
26,60,-1.0472,-0.698132,-0.174533,0.174533,-1.04472,-0.692099,-0.147143,0.135642,-0.494964,-0.337655,-0.821705,1.16673
26,60,-1.0472,-0.698132,-0.174533,0.174533,-1.04472,-0.692099,-0.147143,0.135642,-0.494964,-0.337655,-0.821705,1.16673
26,60,-1.0472,-0.698132,-0.174533,0.174533,-1.04472,-0.692099,-0.147143,0.135642,-0.494964,-0.337655,-0.821705,1.16673
26,60,-1.0472,-0.698132,-0.174533,0.174533,-1.04472,-0.692099,-0.147143,0.135642,-0.494964,-0.337655,-0.821705,1.16673
26,60,-1.0472,-0.698132,-0.174533,0.174533,-1.04472,-0.692099,-0.147143,0.135642,-0.494964,-0.337655,-0.821705,1.16673
26,60,-1.0472,-0.698132,-0.174533,0.174533,-1.04472,-0.692099,-0.147143,0.135642,-0.494964,-0.337655,-0.821705,1.16673
26,60,-1.0472,-0.698132,-0.174533,0.174533,-1.04472,-0.692099,-0.147143,0.135642,-0.494964,-0.337655,-0.821705,1.16673
26,60,-1.0472,-0.698132,-0.174533,0.174533,-1.04472,-0.692099,-0.147143,0.135642,-0.494964,-0.337655,-0.821705,1.16673
26,60,-1.0472,-0.698132,-0.174533,0.174533,-1.04472,-0.692099,-0.147143,0.135642,-0.494964,-0.337655,-0.821705,1.16673
26,60,-1.0472,-0.698132,-0.174533,0.174533,-1.04472,-0.692099,-0.147143,0.135642,-0.494964,-0.337655,-0.821705,1.16673
26,60,-1.0472,-0.698132,-0.174533,0.174533,-1.04472,-0.692099,-0.147143,0.135642,-0.494964,-0.337655,-0.821705,1.16673
26,60,-1.0472,-0.698132,-0.174533,0.174533,-1.04472,-0.692099,-0.147143,0.135642,-0.494964,-0.337655,-0.821705,1.16673
26,60,-1.0472,-0.698132,-0.174533,0.174533,-1.04472,-0.692099,-0.147143,0.135642,-0.494964,-0.337655,-0.821705,1.16673
26,60,-1.0472,-0.698132,-0.174533,0.174533,-1.04472,-0.692099,-0.147143,0.135642,-0.494964,-0.337655,-0.821705,1.16673
26,60,-1.0472,-0.698132,-0.174533,0.174533,-1.04472,-0.692099,-0.147143,0.135642,-0.494964,-0.337655,-0.821705,1.16673
26,60,-1.0472,-0.698132,-0.174533,0.174533,-1.04472,-0.692099,-0.147143,0.135642,-0.494964,-0.337655,-0.821705,1.16673
26,60,-1.0472,-0.698132,-0.174533,0.174533,-1.04472,-0.692099,-0.147143,0.135642,-0.494964,-0.337655,-0.821705,1.16673
26,60,-1.0472,-0.698132,-0.174533,0.174533,-1.04472,-0.692099,-0.147143,0.135642,-0.494964,-0.337655,-0.821705,1.16673
26,60,-1.0472,-0.698132,-0.174533,0.174533,-1.04472,-0.692099,-0.147143,0.135642,-0.494964,-0.337655,-0.821705,1.16673
26,60,-1.0472,-0.698132,-0.174533,0.174533,-1.04472,-0.692099,-0.147143,0.135642,-0.494964,-0.337655,-0.821705,1.16673
26,60,-1.0472,-0.698132,-0.174533,0.174533,-1.04472,-0.692099,-0.147143,0.135642,-0.494964,-0.337655,-0.821705,1.16673
26,60,-1.0472,-0.698132,-0.174533,0.174533,-1.04472,-0.692099,-0.147143,0.135642,-0.494964,-0.337655,-0.821705,1.16673
26,60,-1.0472,-0.698132,-0.174533,0.174533,-1.04472,-0.692099,-0.147143,0.135642,-0.494964,-0.337655,-0.821705,1.16673
26,60,-1.0472,-0.698132,-0.174533,0.174533,-1.04472,-0.692099,-0.147143,0.135642,-0.494964,-0.337655,-0.821705,1.16673
26,60,-1.0472,-0.698132,-0.174533,0.174533,-1.04472,-0.692099,-0.147143,0.135642,-0.494964,-0.337655,-0.821705,1.16673
26,60,-1.0472,-0.698132,-0.174533,0.174533,-1.04472,-0.692099,-0.147143,0.135642,-0.494964,-0.337655,-0.821705,1.16673
26,60,-1.0472,-0.698132,-0.174533,0.174533,-1.04472,-0.692099,-0.147143,0.135642,-0.494964,-0.337655,-0.821705,1.16673
26,60,-1.0472,-0.698132,-0.174533,0.174533,-1.04472,-0.692099,-0.147143,0.135642,-0.494964,-0.337655,-0.821705,1.16673
26,60,-1.0472,-0.698132,-0.174533,0.174533,-1.04472,-0.692099,-0.147143,0.135642,-0.494964,-0.337655,-0.821704,1.16672
26,60,-1.0472,-0.698132,-0.174533,0.174533,-1.04472,-0.692099,-0.147143,0.135642,-0.494964,-0.337655,-0.821704,1.16672
26,60,-1.0472,-0.698132,-0.174533,0.174533,-1.04472,-0.692099,-0.147143,0.135642,-0.494964,-0.337655,-0.821704,1.16672
26,60,-1.0472,-0.698132,-0.174533,0.174533,-1.04472,-0.692099,-0.147143,0.135642,-0.494964,-0.337655,-0.821704,1.16672
26,60,-1.0472,-0.698132,-0.174533,0.174533,-1.04472,-0.692099,-0.147143,0.135642,-0.494964,-0.337655,-0.821704,1.16672
26,60,-1.0472,-0.698132,-0.174533,0.174533,-1.04472,-0.692099,-0.147143,0.135642,-0.494964,-0.337655,-0.821704,1.16672
26,60,-1.0472,-0.698132,-0.174533,0.174533,-1.04472,-0.692099,-0.147143,0.135642,-0.494964,-0.337655,-0.821704,1.16672
26,60,-1.0472,-0.698132,-0.174533,0.174533,-1.04472,-0.692099,-0.147143,0.135642,-0.494964,-0.337655,-0.821704,1.16672
26,60,-1.0472,-0.698132,-0.174533,0.174533,-1.04472,-0.692099,-0.147143,0.135642,-0.494964,-0.337655,-0.821704,1.16672
26,60,-1.0472,-0.698132,-0.174533,0.174533,-1.04472,-0.692099,-0.147143,0.135642,-0.494964,-0.337655,-0.821704,1.16672
26,60,-1.0472,-0.698132,-0.174533,0.174533,-1.04472,-0.692099,-0.147143,0.135642,-0.494964,-0.337655,-0.821704,1.16672
26,60,-1.0472,-0.698132,-0.174533,0.174533,-1.04472,-0.692099,-0.147143,0.135642,-0.494964,-0.337655,-0.821704,1.16672
26,60,-1.0472,-0.698132,-0.174533,0.174533,-1.04472,-0.692099,-0.147143,0.135642,-0.494964,-0.337655,-0.821704,1.16672
26,60,-1.0472,-0.698132,-0.174533,0.174533,-1.04472,-0.692099,-0.147143,0.135642,-0.494964,-0.337655,-0.821704,1.16672
26,60,-1.0472,-0.698132,-0.174533,0.174533,-1.04472,-0.692099,-0.147143,0.135642,-0.494964,-0.337655,-0.821704,1.16672
26,60,-1.0472,-0.698132,-0.174533,0.174533,-1.04472,-0.692099,-0.147143,0.135642,-0.494964,-0.337655,-0.821704,1.16672
26,60,-1.0472,-0.698132,-0.174533,0.174533,-1.04472,-0.692099,-0.147143,0.135642,-0.494964,-0.337655,-0.821704,1.16672
26,60,-1.0472,-0.698132,-0.174533,0.174533,-1.04472,-0.692099,-0.147143,0.135642,-0.494964,-0.337655,-0.821704,1.16672
26,60,-1.0472,-0.698132,-0.174533,0.174533,-1.04472,-0.692099,-0.147143,0.135642,-0.494964,-0.337655,-0.821704,1.16672
26,60,-1.0472,-0.698132,-0.174533,0.174533,-1.04472,-0.692099,-0.147143,0.135642,-0.494964,-0.337655,-0.821704,1.16672
26,60,-1.0472,-0.698132,-0.174533,0.174533,-1.04472,-0.692099,-0.147143,0.135642,-0.494964,-0.337655,-0.821704,1.16672
26,60,-1.0472,-0.698132,-0.174533,0.174533,-1.04472,-0.692099,-0.147143,0.135642,-0.494964,-0.337655,-0.821704,1.16672
26,60,-1.0472,-0.698132,-0.174533,0.174533,-1.04472,-0.692099,-0.147143,0.135642,-0.494964,-0.337655,-0.821704,1.16672
26,60,-1.0472,-0.698132,-0.174533,0.174533,-1.04472,-0.692099,-0.147143,0.135642,-0.494964,-0.337655,-0.821704,1.16672
26,60,-1.0472,-0.698132,-0.174533,0.174533,-1.04472,-0.692099,-0.147143,0.135642,-0.494964,-0.337655,-0.821704,1.16672
26,60,-1.0472,-0.698132,-0.174533,0.174533,-1.04472,-0.692099,-0.147143,0.135642,-0.494964,-0.337655,-0.821704,1.16672
26,60,-1.0472,-0.698132,-0.174533,0.174533,-1.04472,-0.692099,-0.147143,0.135642,-0.494964,-0.337655,-0.821704,1.16672
26,60,-1.0472,-0.698132,-0.174533,0.174533,-1.04472,-0.692099,-0.147143,0.135642,-0.494964,-0.337655,-0.821704,1.16672
26,60,-1.0472,-0.698132,-0.174533,0.174533,-1.04472,-0.692099,-0.147143,0.135642,-0.494964,-0.337655,-0.821704,1.16672
26,60,-1.0472,-0.698132,-0.174533,0.174533,-1.04472,-0.692099,-0.147143,0.135642,-0.494964,-0.337655,-0.821704,1.16672
26,60,-1.0472,-0.698132,-0.174533,0.174533,-1.04472,-0.692099,-0.147143,0.135642,-0.494964,-0.337655,-0.821704,1.16672
26,60,-1.0472,-0.698132,-0.174533,0.174533,-1.04472,-0.692099,-0.147143,0.135642,-0.494964,-0.337655,-0.821704,1.16672
26,60,-1.0472,-0.698132,-0.174533,0.174533,-1.04472,-0.692099,-0.147143,0.135642,-0.494964,-0.337655,-0.821704,1.16672
26,60,-1.0472,-0.698132,-0.174533,0.174533,-1.04472,-0.692099,-0.147143,0.135642,-0.494964,-0.337655,-0.821704,1.16672
26,60,-1.0472,-0.698132,-0.174533,0.174533,-1.04472,-0.692099,-0.147143,0.135642,-0.494964,-0.337655,-0.821704,1.16672
26,60,-1.0472,-0.698132,-0.174533,0.174533,-1.04472,-0.692099,-0.147143,0.135642,-0.494964,-0.337655,-0.821704,1.16672
26,60,-1.0472,-0.698132,-0.174533,0.174533,-1.04472,-0.692099,-0.147143,0.135642,-0.494964,-0.337655,-0.821704,1.16672
26,60,-1.0472,-0.698132,-0.174533,0.174533,-1.04472,-0.692099,-0.147143,0.135642,-0.494964,-0.337655,-0.821713,1.16672
26,60,-1.0472,-0.698132,-0.174533,0.174533,-1.04472,-0.692099,-0.147143,0.135642,-0.494964,-0.337655,-0.821713,1.16672
26,60,-1.0472,-0.698132,-0.174533,0.174533,-1.04472,-0.692099,-0.147143,0.135642,-0.494964,-0.337655,-0.821713,1.16672
26,60,-1.0472,-0.698132,-0.174533,0.174533,-1.04472,-0.692099,-0.147143,0.135642,-0.494964,-0.337655,-0.821713,1.16672
26,60,-1.0472,-0.698132,-0.174533,0.174533,-1.04472,-0.692099,-0.147143,0.135642,-0.494964,-0.337655,-0.821713,1.16672
26,60,-1.0472,-0.698132,-0.174533,0.174533,-1.04472,-0.692099,-0.147143,0.135642,-0.494964,-0.337655,-0.821713,1.16672
26,60,-1.0472,-0.698132,-0.174533,0.174533,-1.04472,-0.692099,-0.147143,0.135642,-0.494964,-0.337655,-0.821713,1.16672
26,60,-1.0472,-0.698132,-0.174533,0.174533,-1.04472,-0.692099,-0.147143,0.135642,-0.494964,-0.337655,-0.821713,1.16672
26,60,-1.0472,-0.698132,-0.174533,0.174533,-1.04472,-0.692099,-0.147143,0.135642,-0.494964,-0.337655,-0.821713,1.16672
26,60,-1.0472,-0.698132,-0.174533,0.174533,-1.04472,-0.692099,-0.147143,0.135642,-0.494964,-0.337655,-0.821713,1.16672
26,60,-1.0472,-0.698132,-0.174533,0.174533,-1.04472,-0.692099,-0.147143,0.135642,-0.494964,-0.337655,-0.821713,1.16672
26,60,-1.0472,-0.698132,-0.174533,0.174533,-1.04472,-0.692099,-0.147143,0.135642,-0.494964,-0.337655,-0.821713,1.16672
26,60,-1.0472,-0.698132,-0.174533,0.174533,-1.04472,-0.692099,-0.147143,0.135642,-0.494964,-0.337655,-0.821713,1.16672
26,60,-1.0472,-0.698132,-0.174533,0.174533,-1.04472,-0.692099,-0.147143,0.135642,-0.494964,-0.337655,-0.821713,1.16672
26,60,-1.0472,-0.698132,-0.174533,0.174533,-1.04472,-0.692099,-0.147143,0.135642,-0.494964,-0.337655,-0.821713,1.16672
26,60,-1.0472,-0.698132,-0.174533,0.174533,-1.04472,-0.692099,-0.147143,0.135642,-0.494964,-0.337655,-0.821713,1.16672
26,60,-1.0472,-0.698132,-0.174533,0.174533,-1.04472,-0.692099,-0.147143,0.135642,-0.494964,-0.337655,-0.821713,1.16672
26,60,-1.0472,-0.698132,-0.174533,0.174533,-1.04472,-0.692099,-0.147143,0.135642,-0.494964,-0.337655,-0.821713,1.16672
26,60,-1.0472,-0.698132,-0.174533,0.174533,-1.04472,-0.692099,-0.147143,0.135642,-0.494964,-0.337655,-0.821713,1.16672
26,60,-1.0472,-0.698132,-0.174533,0.174533,-1.04472,-0.692099,-0.147143,0.135642,-0.494964,-0.337655,-0.821713,1.16672
26,60,-1.0472,-0.698132,-0.174533,0.174533,-1.04472,-0.692099,-0.147143,0.135642,-0.494964,-0.337655,-0.821713,1.16672
26,60,-1.0472,-0.698132,-0.174533,0.174533,-1.04472,-0.692099,-0.147143,0.135642,-0.494964,-0.337655,-0.821713,1.16672
26,60,-1.0472,-0.698132,-0.174533,0.174533,-1.04472,-0.692099,-0.147143,0.135642,-0.494964,-0.337655,-0.821713,1.16672
26,60,-1.0472,-0.698132,-0.174533,0.174533,-1.04472,-0.692099,-0.147143,0.135642,-0.494964,-0.337655,-0.821713,1.16672
26,60,-1.0472,-0.698132,-0.174533,0.174533,-1.04472,-0.692099,-0.147143,0.135642,-0.494964,-0.337655,-0.821713,1.16672
26,60,-1.0472,-0.698132,-0.174533,0.174533,-1.04472,-0.692099,-0.147143,0.135642,-0.494964,-0.337655,-0.821713,1.16672
26,60,-1.0472,-0.698132,-0.174533,0.174533,-1.04472,-0.692099,-0.147143,0.135642,-0.494964,-0.337655,-0.821713,1.16672
26,60,-1.0472,-0.698132,-0.174533,0.174533,-1.04472,-0.692099,-0.147143,0.135642,-0.494964,-0.337655,-0.821713,1.16672
26,60,-1.0472,-0.698132,-0.174533,0.174533,-1.04472,-0.692099,-0.147143,0.135642,-0.494964,-0.337655,-0.821713,1.16672
26,60,-1.0472,-0.698132,-0.174533,0.174533,-1.04472,-0.692099,-0.147143,0.135642,-0.494964,-0.337655,-0.821713,1.16672
26,60,-1.0472,-0.698132,-0.174533,0.174533,-1.04472,-0.692099,-0.147143,0.135642,-0.494964,-0.337655,-0.821713,1.16672
26,60,-1.0472,-0.698132,-0.174533,0.174533,-1.04472,-0.692099,-0.147143,0.135642,-0.494964,-0.337655,-0.821713,1.16672
26,60,-1.0472,-0.698132,-0.174533,0.174533,-1.04472,-0.692099,-0.147143,0.135642,-0.494964,-0.337655,-0.821713,1.16672
26,60,-1.0472,-0.698132,-0.174533,0.174533,-1.04472,-0.692099,-0.147143,0.135642,-0.494964,-0.337655,-0.821713,1.16672
26,60,-1.0472,-0.698132,-0.174533,0.174533,-1.04472,-0.692099,-0.147143,0.135642,-0.494964,-0.337655,-0.821713,1.16672
26,60,-1.0472,-0.698132,-0.174533,0.174533,-1.04472,-0.692099,-0.147143,0.135642,-0.494964,-0.337655,-0.821713,1.16672
26,60,-1.0472,-0.698132,-0.174533,0.174533,-1.04472,-0.692099,-0.147143,0.135642,-0.494964,-0.337655,-0.821713,1.16672
26,60,-1.0472,-0.698132,-0.174533,0.174533,-1.04472,-0.692099,-0.147143,0.135642,-0.494964,-0.337655,-0.821702,1.16673
26,60,-1.0472,-0.698132,-0.174533,0.174533,-1.04472,-0.692099,-0.147143,0.135642,-0.494964,-0.337655,-0.821702,1.16673
26,60,-1.0472,-0.698132,-0.174533,0.174533,-1.04472,-0.692099,-0.147143,0.135642,-0.494964,-0.337655,-0.821702,1.16673
26,60,-1.0472,-0.698132,-0.174533,0.174533,-1.04472,-0.692099,-0.147143,0.135642,-0.494964,-0.337655,-0.821702,1.16673
26,60,-1.0472,-0.698132,-0.174533,0.174533,-1.04472,-0.692099,-0.147143,0.135642,-0.494964,-0.337655,-0.821702,1.16673
26,60,-1.0472,-0.698132,-0.174533,0.174533,-1.04472,-0.692099,-0.147143,0.135642,-0.494964,-0.337655,-0.821702,1.16673
26,60,-1.0472,-0.698132,-0.174533,0.174533,-1.04472,-0.692099,-0.147143,0.135642,-0.494964,-0.337655,-0.821702,1.16673
26,60,-1.0472,-0.698132,-0.174533,0.174533,-1.04472,-0.692099,-0.147143,0.135642,-0.494964,-0.337655,-0.821702,1.16673
26,60,-1.0472,-0.698132,-0.174533,0.174533,-1.04472,-0.692099,-0.147143,0.135642,-0.494964,-0.337655,-0.821702,1.16673
26,60,-1.0472,-0.698132,-0.174533,0.174533,-1.04472,-0.692099,-0.147143,0.135642,-0.494964,-0.337655,-0.821702,1.16673
26,60,-1.0472,-0.698132,-0.174533,0.174533,-1.04472,-0.692099,-0.147143,0.135642,-0.494964,-0.337655,-0.821702,1.16673
26,60,-1.0472,-0.698132,-0.174533,0.174533,-1.04472,-0.692099,-0.147143,0.135642,-0.494964,-0.337655,-0.821702,1.16673
26,60,-1.0472,-0.698132,-0.174533,0.174533,-1.04472,-0.692099,-0.147143,0.135642,-0.494964,-0.337655,-0.821702,1.16673
26,60,-1.0472,-0.698132,-0.174533,0.174533,-1.04472,-0.692099,-0.147143,0.135642,-0.494964,-0.337655,-0.821702,1.16673
26,60,-1.0472,-0.698132,-0.174533,0.174533,-1.04472,-0.692099,-0.147143,0.135642,-0.494964,-0.337655,-0.821702,1.16673
26,60,-1.0472,-0.698132,-0.174533,0.174533,-1.04472,-0.692099,-0.147143,0.135642,-0.494964,-0.337655,-0.821702,1.16673
26,60,-1.0472,-0.698132,-0.174533,0.174533,-1.04472,-0.692099,-0.147143,0.135642,-0.494964,-0.337655,-0.821702,1.16673
26,60,-1.0472,-0.698132,-0.174533,0.174533,-1.04472,-0.692099,-0.147143,0.135642,-0.494964,-0.337655,-0.821702,1.16673
26,60,-1.0472,-0.698132,-0.174533,0.174533,-1.04472,-0.692099,-0.147143,0.135642,-0.494964,-0.337655,-0.821702,1.16673
26,60,-1.0472,-0.698132,-0.174533,0.174533,-1.04472,-0.692099,-0.147143,0.135642,-0.494964,-0.337655,-0.821702,1.16673
26,60,-1.0472,-0.698132,-0.174533,0.174533,-1.04472,-0.692099,-0.147143,0.135642,-0.494964,-0.337655,-0.821702,1.16673
26,60,-1.0472,-0.698132,-0.174533,0.174533,-1.04472,-0.692099,-0.147143,0.135642,-0.494964,-0.337655,-0.821702,1.16673
26,60,-1.0472,-0.698132,-0.174533,0.174533,-1.04472,-0.692099,-0.147143,0.135642,-0.494964,-0.337655,-0.821702,1.16673
26,60,-1.0472,-0.698132,-0.174533,0.174533,-1.04472,-0.692099,-0.147143,0.135642,-0.494964,-0.337655,-0.821702,1.16673
26,60,-1.0472,-0.698132,-0.174533,0.174533,-1.04472,-0.692099,-0.147143,0.135642,-0.494964,-0.337655,-0.821702,1.16673
26,60,-1.0472,-0.698132,-0.174533,0.174533,-1.04472,-0.692099,-0.147143,0.135642,-0.494964,-0.337655,-0.821702,1.16673
26,60,-1.0472,-0.698132,-0.174533,0.174533,-1.04472,-0.692099,-0.147143,0.135642,-0.494964,-0.337833,-0.821702,1.16673
26,60,-1.0472,-0.698132,-0.174533,0.174533,-1.04472,-0.692099,-0.147143,0.135642,-0.494964,-0.337833,-0.821702,1.16673
26,60,-1.0472,-0.698132,-0.174533,0.174533,-1.04472,-0.692099,-0.147143,0.135642,-0.494964,-0.337833,-0.821702,1.16673
26,60,-1.0472,-0.698132,-0.174533,0.174533,-1.04472,-0.692099,-0.147143,0.135642,-0.494964,-0.337833,-0.821702,1.16673
26,60,-1.0472,-0.698132,-0.174533,0.174533,-1.04472,-0.692099,-0.147143,0.135642,-0.494964,-0.337833,-0.821702,1.16673
26,60,-1.0472,-0.698132,-0.174533,0.174533,-1.04472,-0.692099,-0.147143,0.135642,-0.494964,-0.337833,-0.821702,1.16673
26,60,-1.0472,-0.698132,-0.174533,0.174533,-1.04472,-0.692099,-0.147143,0.135642,-0.494964,-0.337833,-0.821702,1.16673
26,60,-1.0472,-0.698132,-0.174533,0.174533,-1.04472,-0.692099,-0.147143,0.135642,-0.494964,-0.337833,-0.821702,1.16673
26,60,-1.0472,-0.698132,-0.174533,0.174533,-1.04472,-0.692099,-0.147195,0.135668,-0.494964,-0.337833,-0.820128,1.16594
26,60,-1.0472,-0.698132,-0.174533,0.174533,-1.04472,-0.692099,-0.147195,0.135668,-0.494964,-0.337833,-0.820128,1.16594
26,60,-1.0472,-0.698132,-0.174533,0.174533,-1.04472,-0.692099,-0.147195,0.135668,-0.494964,-0.337833,-0.820128,1.16594
26,60,-1.0472,-0.698132,-0.174533,0.174533,-1.04472,-0.692099,-0.147195,0.135668,-0.494964,-0.337833,-0.820128,1.16594
26,60,-1.0472,-0.698132,-0.174533,0.174533,-1.04472,-0.692099,-0.147195,0.135668,-0.494964,-0.337833,-0.820128,1.16594
26,60,-1.0472,-0.698132,-0.174533,0.174533,-1.04472,-0.692099,-0.147195,0.135668,-0.494964,-0.337833,-0.820128,1.16594
26,60,-1.0472,-0.698132,-0.174533,0.174533,-1.04472,-0.692099,-0.147195,0.135668,-0.494964,-0.337833,-0.820128,1.16594
26,60,-1.0472,-0.698132,-0.174533,0.174533,-1.04472,-0.692099,-0.147195,0.135668,-0.494964,-0.337833,-0.820128,1.16594
26,60,-1.0472,-0.698132,-0.174533,0.174533,-1.04472,-0.692099,-0.147195,0.135668,-0.494964,-0.337833,-0.820128,1.16594
26,60,-1.0472,-0.698132,-0.174533,0.174533,-1.04472,-0.692099,-0.147195,0.135668,-0.494964,-0.337833,-0.820128,1.16594
26,60,-1.0472,-0.698132,-0.174533,0.174533,-1.04472,-0.692099,-0.147195,0.135668,-0.494964,-0.337833,-0.820128,1.16594
26,60,-1.0472,-0.698132,-0.174533,0.174533,-1.04472,-0.692099,-0.147195,0.135668,-0.494964,-0.337833,-0.820128,1.16594
26,60,-1.0472,-0.698132,-0.174533,0.174533,-1.04472,-0.692099,-0.147195,0.135668,-0.494964,-0.337833,-0.820128,1.16594
26,60,-1.0472,-0.698132,-0.174533,0.174533,-1.04472,-0.692099,-0.147195,0.135668,-0.494964,-0.337833,-0.820128,1.16594
26,60,-1.0472,-0.698132,-0.174533,0.174533,-1.04472,-0.692099,-0.147195,0.135668,-0.494964,-0.337833,-0.820128,1.16594
26,60,-1.0472,-0.698132,-0.174533,0.174533,-1.04472,-0.692099,-0.147195,0.135668,-0.494964,-0.337833,-0.820128,1.16594
26,60,-1.0472,-0.698132,-0.174533,0.174533,-1.04472,-0.692099,-0.147195,0.135668,-0.494964,-0.337833,-0.820128,1.16594
26,60,-1.0472,-0.698132,-0.174533,0.174533,-1.04472,-0.692099,-0.147195,0.135668,-0.494964,-0.337833,-0.820128,1.16594
26,60,-1.0472,-0.698132,-0.174533,0.174533,-1.04472,-0.692099,-0.147195,0.135668,-0.494964,-0.337833,-0.820128,1.16594
26,60,-1.0472,-0.698132,-0.174533,0.174533,-1.04472,-0.692099,-0.147195,0.135668,-0.494964,-0.337833,-0.820128,1.16594
26,60,-1.0472,-0.698132,-0.174533,0.174533,-1.04472,-0.692099,-0.147195,0.135668,-0.494964,-0.337833,-0.820128,1.16594
26,60,-1.0472,-0.698132,-0.174533,0.174533,-1.04472,-0.692099,-0.147195,0.135668,-0.494964,-0.337833,-0.820128,1.16594
26,60,-1.0472,-0.698132,-0.174533,0.174533,-1.04472,-0.692099,-0.147195,0.135668,-0.494964,-0.337833,-0.820128,1.16594
26,60,-1.0472,-0.698132,-0.174533,0.174533,-1.04472,-0.692099,-0.147195,0.135668,-0.494964,-0.337833,-0.820128,1.16594
26,60,-1.0472,-0.698132,-0.174533,0.174533,-1.04472,-0.692099,-0.147195,0.135668,-0.494964,-0.337833,-0.820128,1.16594
26,60,-1.0472,-0.698132,-0.174533,0.174533,-1.04472,-0.692099,-0.147195,0.135668,-0.494964,-0.337833,-0.820128,1.16594
26,60,-1.0472,-0.698132,-0.174533,0.174533,-1.04472,-0.692099,-0.147195,0.135668,-0.494964,-0.337833,-0.820128,1.16594
26,60,-1.0472,-0.698132,-0.174533,0.174533,-1.04472,-0.692099,-0.147195,0.135668,-0.494964,-0.337833,-0.820128,1.16594
26,60,-1.0472,-0.698132,-0.174533,0.174533,-1.04472,-0.692099,-0.147195,0.135668,-0.494964,-0.337833,-0.820128,1.16594
26,60,-1.0472,-0.698132,-0.174533,0.174533,-1.04472,-0.692099,-0.147195,0.135668,-0.494964,-0.337833,-0.820128,1.16594
26,60,-1.0472,-0.698132,-0.174533,0.174533,-1.04472,-0.692099,-0.147195,0.135668,-0.494964,-0.337833,-0.820128,1.16594
26,60,-1.0472,-0.698132,-0.174533,0.174533,-1.04472,-0.692099,-0.147195,0.135668,-0.494964,-0.337833,-0.820128,1.16594
26,60,-1.0472,-0.698132,-0.174533,0.174533,-1.04472,-0.692099,-0.147195,0.135668,-0.494964,-0.337833,-0.820128,1.16594
26,60,-1.0472,-0.698132,-0.174533,0.174533,-1.04472,-0.692099,-0.147195,0.135668,-0.494964,-0.337833,-0.820128,1.16594
26,60,-1.0472,-0.698132,-0.174533,0.174533,-1.04472,-0.692099,-0.147195,0.135668,-0.494964,-0.337833,-0.820128,1.16594
26,60,-1.0472,-0.698132,-0.174533,0.174533,-1.04472,-0.692099,-0.147195,0.135668,-0.494964,-0.337833,-0.820128,1.16594
26,60,-1.0472,-0.698132,-0.174533,0.174533,-1.04472,-0.692099,-0.147195,0.135668,-0.494964,-0.337833,-0.820128,1.16594
26,60,-1.0472,-0.698132,-0.174533,0.174533,-1.04472,-0.692099,-0.147195,0.135668,-0.494964,-0.337833,-0.820128,1.16594
26,60,-1.0472,-0.698132,-0.174533,0.174533,-1.04472,-0.692099,-0.147195,0.135668,-0.494964,-0.337833,-0.820128,1.16594
26,60,-1.0472,-0.698132,-0.174533,0.174533,-1.04472,-0.692099,-0.147195,0.135668,-0.494964,-0.337833,-0.820128,1.16594
26,60,-1.0472,-0.698132,-0.174533,0.174533,-1.04472,-0.692099,-0.147195,0.135668,-0.494964,-0.337833,-0.820128,1.16594
26,60,-1.0472,-0.698132,-0.174533,0.174533,-1.04472,-0.692099,-0.147195,0.135668,-0.494964,-0.337833,-0.820128,1.16594
26,60,-1.0472,-0.698132,-0.174533,0.174533,-1.04472,-0.692099,-0.147195,0.135668,-0.494964,-0.337833,-0.820128,1.16594
26,60,-1.0472,-0.698132,-0.174533,0.174533,-1.04472,-0.692099,-0.147195,0.135668,-0.494964,-0.337833,-0.820128,1.16594
26,60,-1.0472,-0.698132,-0.174533,0.174533,-1.04472,-0.692099,-0.147195,0.135668,-0.494964,-0.337833,-0.820128,1.16594
26,60,-1.0472,-0.698132,-0.174533,0.174533,-1.04472,-0.692099,-0.147195,0.135668,-0.494964,-0.337833,-0.820128,1.16594
26,60,-1.0472,-0.698132,-0.174533,0.174533,-1.04472,-0.692099,-0.147195,0.135668,-0.494964,-0.337833,-0.820128,1.16594
26,60,-1.0472,-0.698132,-0.174533,0.174533,-1.04472,-0.69215,-0.147195,0.135668,-0.494964,-0.334894,-0.820128,1.16594
26,60,-1.0472,-0.698132,-0.174533,0.174533,-1.04472,-0.69215,-0.147195,0.135668,-0.494964,-0.334894,-0.820128,1.16594
26,60,-1.0472,-0.698132,-0.174533,0.174533,-1.04472,-0.69215,-0.147195,0.135668,-0.494964,-0.334894,-0.820128,1.16594
26,60,-1.0472,-0.698132,-0.174533,0.174533,-1.04472,-0.69215,-0.147195,0.135668,-0.494964,-0.334894,-0.820128,1.16594
26,60,-1.0472,-0.698132,-0.174533,0.174533,-1.04472,-0.69215,-0.147195,0.135668,-0.494964,-0.334894,-0.820128,1.16594
26,60,-1.0472,-0.698132,-0.174533,0.174533,-1.04472,-0.69215,-0.147195,0.135668,-0.494964,-0.334894,-0.820128,1.16594
26,60,-1.0472,-0.698132,-0.174533,0.174533,-1.04472,-0.69215,-0.147195,0.135668,-0.494964,-0.334894,-0.820128,1.16594
26,60,-1.0472,-0.698132,-0.174533,0.174533,-1.04472,-0.69215,-0.147195,0.135668,-0.494964,-0.334894,-0.820128,1.16594
26,60,-1.0472,-0.698132,-0.174533,0.174533,-1.04472,-0.69215,-0.147195,0.135668,-0.494964,-0.334894,-0.820128,1.16594
26,60,-1.0472,-0.698132,-0.174533,0.174533,-1.04472,-0.69215,-0.147195,0.135668,-0.494964,-0.334894,-0.820128,1.16594
26,60,-1.0472,-0.698132,-0.174533,0.174533,-1.04472,-0.69215,-0.147195,0.135668,-0.494964,-0.334894,-0.820128,1.16594
26,60,-1.0472,-0.698132,-0.174533,0.174533,-1.04472,-0.69215,-0.147195,0.135668,-0.494964,-0.334894,-0.820128,1.16594
26,60,-1.0472,-0.698132,-0.174533,0.174533,-1.04472,-0.69215,-0.147195,0.135668,-0.494964,-0.334894,-0.820128,1.16594
26,60,-1.0472,-0.698132,-0.174533,0.174533,-1.04472,-0.69215,-0.147195,0.135668,-0.494964,-0.334894,-0.820128,1.16594
26,60,-1.0472,-0.698132,-0.174533,0.174533,-1.04472,-0.69215,-0.147195,0.135668,-0.494964,-0.334894,-0.820128,1.16594
26,60,-1.0472,-0.698132,-0.174533,0.174533,-1.04472,-0.69215,-0.147195,0.135668,-0.494964,-0.334894,-0.820128,1.16594
26,60,-1.0472,-0.698132,-0.174533,0.174533,-1.04472,-0.69215,-0.147195,0.135668,-0.494964,-0.334894,-0.820128,1.16594
26,60,-1.0472,-0.698132,-0.174533,0.174533,-1.04472,-0.69215,-0.147195,0.135668,-0.494964,-0.334894,-0.820128,1.16594
26,60,-1.0472,-0.698132,-0.174533,0.174533,-1.04472,-0.69215,-0.147195,0.135668,-0.494964,-0.334894,-0.820128,1.16594
26,60,-1.0472,-0.698132,-0.174533,0.174533,-1.04472,-0.69215,-0.147195,0.135668,-0.494964,-0.334894,-0.820128,1.16594
26,60,-1.0472,-0.698132,-0.174533,0.174533,-1.04472,-0.69215,-0.147195,0.135668,-0.494964,-0.334894,-0.820128,1.16594
26,60,-1.0472,-0.698132,-0.174533,0.174533,-1.04472,-0.69215,-0.147195,0.135668,-0.494964,-0.334894,-0.820128,1.16594
26,60,-1.0472,-0.698132,-0.174533,0.174533,-1.04472,-0.69215,-0.147195,0.135668,-0.494964,-0.334894,-0.820128,1.16594
26,60,-1.0472,-0.698132,-0.174533,0.174533,-1.04472,-0.69215,-0.147195,0.135668,-0.494964,-0.334894,-0.820128,1.16594
26,60,-1.0472,-0.698132,-0.174533,0.174533,-1.04472,-0.69215,-0.147195,0.135668,-0.494964,-0.334894,-0.820128,1.16594
26,60,-1.0472,-0.698132,-0.174533,0.174533,-1.04472,-0.69215,-0.147195,0.135668,-0.494964,-0.334894,-0.820128,1.16594
26,60,-1.0472,-0.698132,-0.174533,0.174533,-1.04472,-0.69215,-0.147195,0.135668,-0.494964,-0.334894,-0.820128,1.16594
26,60,-1.0472,-0.698132,-0.174533,0.174533,-1.04472,-0.69215,-0.147195,0.135668,-0.494964,-0.334894,-0.820128,1.16594
26,60,-1.0472,-0.698132,-0.174533,0.174533,-1.04472,-0.69215,-0.147195,0.135668,-0.494964,-0.334894,-0.820128,1.16594
26,60,-1.0472,-0.698132,-0.174533,0.174533,-1.04472,-0.69215,-0.147195,0.135668,-0.494964,-0.334894,-0.820128,1.16594
26,60,-1.0472,-0.698132,-0.174533,0.174533,-1.04472,-0.69215,-0.147195,0.135668,-0.494964,-0.334894,-0.820128,1.16594
26,60,-1.0472,-0.698132,-0.174533,0.174533,-1.04472,-0.69215,-0.147195,0.135668,-0.494964,-0.334894,-0.820128,1.16594
26,60,-1.0472,-0.698132,-0.174533,0.174533,-1.04472,-0.69215,-0.147195,0.135668,-0.494964,-0.334894,-0.820128,1.16594
26,60,-1.0472,-0.698132,-0.174533,0.174533,-1.04472,-0.69215,-0.147195,0.135668,-0.494964,-0.334894,-0.820128,1.16594
26,60,-1.0472,-0.698132,-0.174533,0.174533,-1.04472,-0.69215,-0.147195,0.135668,-0.494964,-0.334894,-0.820128,1.16594
26,60,-1.0472,-0.698132,-0.174533,0.174533,-1.04472,-0.69215,-0.147195,0.135668,-0.494964,-0.334894,-0.820128,1.16594
26,60,-1.0472,-0.698132,-0.174533,0.174533,-1.04472,-0.69215,-0.147195,0.135668,-0.494964,-0.334894,-0.820128,1.16594
26,60,-1.0472,-0.698132,-0.174533,0.174533,-1.04472,-0.69215,-0.147195,0.135668,-0.494964,-0.334894,-0.820128,1.16594
26,60,-1.0472,-0.698132,-0.174533,0.174533,-1.04472,-0.69215,-0.147195,0.135668,-0.494964,-0.334894,-0.820128,1.16594
26,60,-1.0472,-0.698132,-0.174533,0.174533,-1.04472,-0.69215,-0.147195,0.135668,-0.494964,-0.334894,-0.820128,1.16594
26,60,-1.0472,-0.698132,-0.174533,0.174533,-1.04472,-0.69215,-0.147195,0.135668,-0.494964,-0.334894,-0.820128,1.16594
26,60,-1.0472,-0.698132,-0.174533,0.174533,-1.04472,-0.69215,-0.147195,0.135668,-0.494964,-0.334894,-0.820128,1.16594
26,60,-1.0472,-0.698132,-0.174533,0.174533,-1.04472,-0.69215,-0.147195,0.135668,-0.494964,-0.334894,-0.820128,1.16594
26,60,-1.0472,-0.698132,-0.174533,0.174533,-1.04472,-0.69215,-0.147195,0.135668,-0.494964,-0.334894,-0.820128,1.16594
26,60,-1.0472,-0.698132,-0.174533,0.174533,-1.04472,-0.69215,-0.147195,0.135668,-0.494964,-0.334894,-0.820128,1.16594
26,60,-1.0472,-0.698132,-0.174533,0.174533,-1.04472,-0.69215,-0.147195,0.135668,-0.494964,-0.334894,-0.820128,1.16594
26,60,-1.0472,-0.698132,-0.174533,0.174533,-1.04472,-0.69215,-0.147195,0.135668,-0.494964,-0.334894,-0.820128,1.16594
26,60,-1.0472,-0.698132,-0.174533,0.174533,-1.04472,-0.69215,-0.147195,0.135668,-0.494964,-0.334894,-0.820128,1.16594
26,60,-1.0472,-0.698132,-0.174533,0.174533,-1.04472,-0.69215,-0.147195,0.135668,-0.494964,-0.334894,-0.820128,1.16594
26,60,-1.0472,-0.698132,-0.174533,0.174533,-1.04472,-0.69215,-0.147195,0.135668,-0.494964,-0.334894,-0.820128,1.16594
26,60,-1.0472,-0.698132,-0.174533,0.174533,-1.04472,-0.69215,-0.147195,0.135668,-0.494964,-0.334894,-0.820128,1.16594
26,60,-1.0472,-0.698132,-0.174533,0.174533,-1.04472,-0.69215,-0.147195,0.135668,-0.494964,-0.334894,-0.820128,1.16594
26,60,-1.0472,-0.698132,-0.174533,0.174533,-1.04472,-0.69215,-0.147195,0.135668,-0.494964,-0.334894,-0.820128,1.16594
26,60,-1.0472,-0.698132,-0.174533,0.174533,-1.04472,-0.69215,-0.147195,0.135668,-0.494964,-0.334894,-0.820128,1.16594
26,60,-1.0472,-0.698132,-0.174533,0.174533,-1.04472,-0.69215,-0.147195,0.135668,-0.494964,-0.334894,-0.820128,1.16594
26,60,-1.0472,-0.698132,-0.174533,0.174533,-1.04472,-0.69215,-0.147195,0.135668,-0.494964,-0.334894,-0.820128,1.16594
26,60,-1.0472,-0.698132,-0.174533,0.174533,-1.04472,-0.69215,-0.147195,0.135668,-0.494964,-0.334894,-0.820128,1.16594
26,60,-1.0472,-0.698132,-0.174533,0.174533,-1.04472,-0.69215,-0.147195,0.135668,-0.494964,-0.334894,-0.820128,1.16594
26,60,-1.0472,-0.698132,-0.174533,0.174533,-1.04472,-0.69215,-0.147195,0.135668,-0.494964,-0.334894,-0.820128,1.16594
26,60,-1.0472,-0.698132,-0.174533,0.174533,-1.04472,-0.69215,-0.147195,0.135668,-0.494964,-0.334894,-0.820128,1.16594
26,60,-1.0472,-0.698132,-0.174533,0.174533,-1.04472,-0.69215,-0.147195,0.135668,-0.494964,-0.334894,-0.820128,1.16594
26,60,-1.0472,-0.698132,-0.174533,0.174533,-1.04472,-0.69215,-0.147195,0.135668,-0.494964,-0.334894,-0.820128,1.16594
26,60,-1.0472,-0.698132,-0.174533,0.174533,-1.04472,-0.69215,-0.147195,0.135668,-0.494964,-0.334894,-0.820128,1.16594
26,60,-1.0472,-0.698132,-0.174533,0.174533,-1.04472,-0.69215,-0.147195,0.135668,-0.494964,-0.334894,-0.820128,1.16594
26,60,-1.0472,-0.698132,-0.174533,0.174533,-1.04472,-0.69215,-0.147195,0.135668,-0.494964,-0.334894,-0.820128,1.16594
26,60,-1.0472,-0.698132,-0.174533,0.174533,-1.04472,-0.69215,-0.147195,0.135668,-0.494964,-0.334894,-0.820128,1.16594
26,60,-1.0472,-0.698132,-0.174533,0.174533,-1.04472,-0.69215,-0.147195,0.135668,-0.494964,-0.334894,-0.820128,1.16594
26,60,-1.0472,-0.698132,-0.174533,0.174533,-1.04472,-0.69215,-0.147195,0.135668,-0.494964,-0.334894,-0.820128,1.16594
26,60,-1.0472,-0.698132,-0.174533,0.174533,-1.04472,-0.69215,-0.147195,0.135668,-0.494964,-0.334894,-0.820128,1.16594
26,60,-1.0472,-0.698132,-0.174533,0.174533,-1.04472,-0.69215,-0.147195,0.135668,-0.494964,-0.334894,-0.820128,1.16594
26,60,-1.0472,-0.698132,-0.174533,0.174533,-1.04472,-0.69215,-0.147195,0.135668,-0.494964,-0.334894,-0.820128,1.16594
26,60,-1.0472,-0.698132,-0.174533,0.174533,-1.04472,-0.69215,-0.147195,0.135668,-0.494964,-0.334894,-0.820128,1.16594
26,60,-1.0472,-0.698132,-0.174533,0.174533,-1.04472,-0.69215,-0.147195,0.135668,-0.494964,-0.334894,-0.820128,1.16594
26,60,-1.0472,-0.698132,-0.174533,0.174533,-1.04472,-0.69215,-0.147195,0.135668,-0.494964,-0.334894,-0.820128,1.16594
26,60,-1.0472,-0.698132,-0.174533,0.174533,-1.04472,-0.69215,-0.147195,0.135668,-0.494964,-0.334894,-0.820128,1.16594
26,60,-1.0472,-0.698132,-0.174533,0.174533,-1.04472,-0.69215,-0.147195,0.135668,-0.494964,-0.334894,-0.820128,1.16594
26,60,-1.0472,-0.698132,-0.174533,0.174533,-1.04472,-0.69215,-0.147195,0.135668,-0.494964,-0.334894,-0.820128,1.16594
26,60,-1.0472,-0.698132,-0.174533,0.174533,-1.04472,-0.69215,-0.147195,0.135668,-0.494964,-0.334894,-0.820128,1.16594
26,60,-1.0472,-0.698132,-0.174533,0.174533,-1.04472,-0.69215,-0.147195,0.135668,-0.494964,-0.334894,-0.820128,1.16594
26,60,-1.0472,-0.698132,-0.174533,0.174533,-1.04472,-0.69215,-0.147195,0.135668,-0.494964,-0.334894,-0.820128,1.16594
26,60,-1.0472,-0.698132,-0.174533,0.174533,-1.04472,-0.69215,-0.147195,0.135668,-0.494964,-0.334894,-0.820128,1.16594
26,60,-1.0472,-0.698132,-0.174533,0.174533,-1.04472,-0.69215,-0.147195,0.135668,-0.494964,-0.334894,-0.820128,1.16594
26,60,-1.0472,-0.698132,-0.174533,0.174533,-1.04472,-0.69215,-0.147195,0.135668,-0.494964,-0.334894,-0.820128,1.16594
26,60,-1.0472,-0.698132,-0.174533,0.174533,-1.04472,-0.69215,-0.147195,0.135668,-0.494964,-0.334894,-0.820128,1.16594
26,60,-1.0472,-0.698132,-0.174533,0.174533,-1.04472,-0.69215,-0.147195,0.135668,-0.494964,-0.334894,-0.820128,1.16594
26,60,-1.0472,-0.698132,-0.174533,0.174533,-1.04472,-0.69215,-0.147195,0.135668,-0.494964,-0.334894,-0.820128,1.16594
26,60,-1.0472,-0.698132,-0.174533,0.174533,-1.04472,-0.69215,-0.147195,0.135668,-0.494964,-0.334894,-0.820128,1.16594
26,60,-1.0472,-0.698132,-0.174533,0.174533,-1.04472,-0.69215,-0.147195,0.135668,-0.494964,-0.334894,-0.820128,1.16594
26,60,-1.0472,-0.698132,-0.174533,0.174533,-1.04472,-0.69215,-0.147195,0.135668,-0.494964,-0.334894,-0.820128,1.16594
26,60,-1.0472,-0.698132,-0.174533,0.174533,-1.04472,-0.69215,-0.147195,0.135668,-0.494964,-0.334894,-0.820128,1.16594
26,60,-1.0472,-0.698132,-0.174533,0.174533,-1.04472,-0.69215,-0.147195,0.135668,-0.494964,-0.334894,-0.820128,1.16594
26,60,-1.0472,-0.698132,-0.174533,0.174533,-1.04472,-0.69215,-0.147195,0.135668,-0.494964,-0.334894,-0.820128,1.16594
26,60,-1.0472,-0.698132,-0.174533,0.174533,-1.04472,-0.69215,-0.147195,0.135668,-0.494964,-0.334894,-0.820128,1.16594
26,60,-1.0472,-0.698132,-0.174533,0.174533,-1.04472,-0.69215,-0.147195,0.135668,-0.494964,-0.334894,-0.820128,1.16594
26,60,-1.0472,-0.698132,-0.174533,0.174533,-1.04472,-0.69215,-0.147195,0.135668,-0.494964,-0.334894,-0.820128,1.16594
26,60,-1.0472,-0.698132,-0.174533,0.174533,-1.04472,-0.69215,-0.147195,0.135668,-0.494964,-0.334894,-0.820128,1.16594
26,60,-1.0472,-0.698132,-0.174533,0.174533,-1.04472,-0.69215,-0.147195,0.135668,-0.494964,-0.334894,-0.820128,1.16594
26,60,-1.0472,-0.698132,-0.174533,0.174533,-1.04472,-0.69215,-0.147195,0.135668,-0.494964,-0.334894,-0.820128,1.16594
26,60,-1.0472,-0.698132,-0.174533,0.174533,-1.04472,-0.69215,-0.147195,0.135668,-0.494964,-0.334894,-0.820128,1.16594
26,60,-1.0472,-0.698132,-0.174533,0.174533,-1.04472,-0.69215,-0.147195,0.135668,-0.494964,-0.334894,-0.820128,1.16594
26,60,-1.0472,-0.698132,-0.174533,0.174533,-1.04472,-0.69215,-0.147195,0.135668,-0.494964,-0.334894,-0.820128,1.16594
26,60,-1.0472,-0.698132,-0.174533,0.174533,-1.04472,-0.69215,-0.147195,0.135668,-0.494964,-0.334894,-0.820128,1.16594
26,60,-1.0472,-0.698132,-0.174533,0.174533,-1.04472,-0.69215,-0.147195,0.135668,-0.494964,-0.334894,-0.820128,1.16594
26,60,-1.0472,-0.698132,-0.174533,0.174533,-1.04472,-0.69215,-0.147195,0.135668,-0.494964,-0.334894,-0.820128,1.16594
26,60,-1.0472,-0.698132,-0.174533,0.174533,-1.04472,-0.69215,-0.147195,0.135668,-0.494964,-0.334894,-0.820128,1.16594
26,60,-1.0472,-0.698132,-0.174533,0.174533,-1.04472,-0.69215,-0.147195,0.135668,-0.494964,-0.334894,-0.820128,1.16594
26,60,-1.0472,-0.698132,-0.174533,0.174533,-1.04472,-0.69215,-0.147195,0.135668,-0.494964,-0.334894,-0.820128,1.16594
26,60,-1.0472,-0.698132,-0.174533,0.174533,-1.04472,-0.69215,-0.147195,0.135668,-0.494964,-0.334894,-0.820128,1.16594
26,60,-1.0472,-0.698132,-0.174533,0.174533,-1.04472,-0.69215,-0.147195,0.135668,-0.494964,-0.334894,-0.820128,1.16594
26,60,-1.0472,-0.698132,-0.174533,0.174533,-1.04472,-0.69215,-0.147195,0.135668,-0.494964,-0.334894,-0.820128,1.16594
26,60,-1.0472,-0.698132,-0.174533,0.174533,-1.04472,-0.69215,-0.147195,0.135668,-0.494964,-0.334894,-0.820128,1.16594
26,60,-1.0472,-0.698132,-0.174533,0.174533,-1.04472,-0.69215,-0.147195,0.135668,-0.494964,-0.334894,-0.820128,1.16594
26,60,-1.0472,-0.698132,-0.174533,0.174533,-1.04472,-0.69215,-0.147195,0.135668,-0.494964,-0.334894,-0.820128,1.16594
26,60,-1.0472,-0.698132,-0.174533,0.174533,-1.04472,-0.69215,-0.147195,0.135668,-0.494964,-0.334894,-0.820128,1.16594
26,60,-1.0472,-0.698132,-0.174533,0.174533,-1.04472,-0.69215,-0.147195,0.135668,-0.494964,-0.334894,-0.820128,1.16594
26,60,-1.0472,-0.698132,-0.174533,0.174533,-1.04472,-0.69215,-0.147195,0.135668,-0.494964,-0.334894,-0.820128,1.16594
26,60,-1.0472,-0.698132,-0.174533,0.174533,-1.04472,-0.69215,-0.147195,0.135668,-0.494964,-0.334894,-0.820128,1.16594
26,60,-1.0472,-0.698132,-0.174533,0.174533,-1.04472,-0.69215,-0.147195,0.135668,-0.494964,-0.334894,-0.820128,1.16594
26,60,-1.0472,-0.698132,-0.174533,0.174533,-1.04472,-0.69215,-0.147195,0.135668,-0.494964,-0.334894,-0.820128,1.16594
26,60,-1.0472,-0.698132,-0.174533,0.174533,-1.04472,-0.69215,-0.147195,0.135668,-0.494964,-0.334894,-0.820128,1.16594
26,60,-1.0472,-0.698132,-0.174533,0.174533,-1.04472,-0.69215,-0.147195,0.135668,-0.494964,-0.334894,-0.820128,1.16594
26,60,-1.0472,-0.698132,-0.174533,0.174533,-1.04472,-0.69215,-0.147195,0.135668,-0.494964,-0.334894,-0.820128,1.16594
26,60,-1.0472,-0.698132,-0.174533,0.174533,-1.04472,-0.69215,-0.147195,0.135668,-0.494964,-0.334894,-0.820128,1.16594
26,60,-1.0472,-0.698132,-0.174533,0.174533,-1.04472,-0.69215,-0.147195,0.135668,-0.494964,-0.334894,-0.820128,1.16594
26,60,-1.0472,-0.698132,-0.174533,0.174533,-1.04472,-0.69215,-0.147195,0.135668,-0.494964,-0.334894,-0.820128,1.16594
26,60,-1.0472,-0.698132,-0.174533,0.174533,-1.04472,-0.69215,-0.147195,0.135668,-0.494964,-0.334894,-0.820128,1.16594
26,60,-1.0472,-0.698132,-0.174533,0.174533,-1.04472,-0.69215,-0.147195,0.135668,-0.494964,-0.334894,-0.820128,1.16594
26,60,-1.0472,-0.698132,-0.174533,0.174533,-1.04472,-0.69215,-0.147195,0.135668,-0.494964,-0.334894,-0.820128,1.16594
26,60,-1.0472,-0.698132,-0.174533,0.174533,-1.04472,-0.69215,-0.147195,0.135668,-0.494964,-0.334894,-0.820128,1.16594
26,60,-1.0472,-0.698132,-0.174533,0.174533,-1.04472,-0.69215,-0.147195,0.135668,-0.494964,-0.334894,-0.820128,1.16594
26,60,-1.0472,-0.698132,-0.174533,0.174533,-1.04472,-0.69215,-0.147195,0.135668,-0.494964,-0.334894,-0.820128,1.16594
26,60,-1.0472,-0.698132,-0.174533,0.174533,-1.04472,-0.69215,-0.147195,0.135668,-0.494964,-0.334894,-0.820128,1.16594
26,60,-1.0472,-0.698132,-0.174533,0.174533,-1.04472,-0.69215,-0.147195,0.135668,-0.494964,-0.334894,-0.820128,1.16594
26,60,-1.0472,-0.698132,-0.174533,0.174533,-1.04472,-0.69215,-0.147195,0.135668,-0.494964,-0.334894,-0.820128,1.16594
26,60,-1.0472,-0.698132,-0.174533,0.174533,-1.04472,-0.69215,-0.147195,0.135668,-0.494964,-0.334894,-0.820128,1.16594
26,60,-1.0472,-0.698132,-0.174533,0.174533,-1.04472,-0.69215,-0.147195,0.135668,-0.494964,-0.334894,-0.820128,1.16594
26,60,-1.0472,-0.698132,-0.174533,0.174533,-1.04472,-0.69215,-0.147195,0.135668,-0.494964,-0.334894,-0.820128,1.16594
26,60,-1.0472,-0.698132,-0.174533,0.174533,-1.04472,-0.69215,-0.147195,0.135668,-0.494964,-0.334894,-0.820128,1.16594
26,60,-1.0472,-0.698132,-0.174533,0.174533,-1.04472,-0.69215,-0.147195,0.135668,-0.494964,-0.334894,-0.820128,1.16594
26,60,-1.0472,-0.698132,-0.174533,0.174533,-1.04472,-0.69215,-0.147195,0.135668,-0.494964,-0.334894,-0.820128,1.16594
26,60,-1.0472,-0.698132,-0.174533,0.174533,-1.04472,-0.69215,-0.147195,0.135668,-0.494964,-0.334894,-0.820128,1.16594
26,60,-1.0472,-0.698132,-0.174533,0.174533,-1.04472,-0.69215,-0.147195,0.135668,-0.494964,-0.334894,-0.820128,1.16594
26,60,-1.0472,-0.698132,-0.174533,0.174533,-1.04472,-0.69215,-0.147195,0.135668,-0.494964,-0.334894,-0.820128,1.16594
26,60,-1.0472,-0.698132,-0.174533,0.174533,-1.04472,-0.69215,-0.147195,0.135668,-0.494964,-0.334894,-0.820128,1.16594
26,60,-1.0472,-0.698132,-0.174533,0.174533,-1.04472,-0.69215,-0.147195,0.135668,-0.494964,-0.334894,-0.820128,1.16594
26,60,-1.0472,-0.698132,-0.174533,0.174533,-1.04472,-0.69215,-0.147195,0.135668,-0.494964,-0.334894,-0.820128,1.16594
26,60,-1.0472,-0.698132,-0.174533,0.174533,-1.04472,-0.69215,-0.147195,0.135668,-0.494964,-0.334894,-0.820128,1.16594
26,60,-1.0472,-0.698132,-0.174533,0.174533,-1.04472,-0.69215,-0.147195,0.135668,-0.494964,-0.334894,-0.820128,1.16594
26,60,-1.0472,-0.698132,-0.174533,0.174533,-1.04472,-0.69215,-0.147195,0.135668,-0.494964,-0.334894,-0.820128,1.16594
26,60,-1.0472,-0.698132,-0.174533,0.174533,-1.04472,-0.69215,-0.147195,0.135668,-0.494964,-0.334894,-0.820128,1.16594
26,60,-1.0472,-0.698132,-0.174533,0.174533,-1.04472,-0.69215,-0.147195,0.135668,-0.494964,-0.334894,-0.820128,1.16594
26,60,-1.0472,-0.698132,-0.174533,0.174533,-1.04472,-0.69215,-0.147195,0.135668,-0.494964,-0.334894,-0.820128,1.16594
26,60,-1.0472,-0.698132,-0.174533,0.174533,-1.04472,-0.69215,-0.147195,0.135668,-0.494964,-0.334894,-0.820128,1.16594
26,60,-1.0472,-0.698132,-0.174533,0.174533,-1.04472,-0.69215,-0.147195,0.135668,-0.494964,-0.334894,-0.820128,1.16594
26,60,-1.0472,-0.698132,-0.174533,0.174533,-1.04472,-0.69215,-0.147195,0.135668,-0.494964,-0.334894,-0.820128,1.16594
26,60,-1.0472,-0.698132,-0.174533,0.174533,-1.04472,-0.69215,-0.147195,0.135668,-0.494964,-0.334894,-0.820128,1.16594
26,60,-1.0472,-0.698132,-0.174533,0.174533,-1.04472,-0.69215,-0.147195,0.135668,-0.494964,-0.334894,-0.820128,1.16594
26,60,-1.0472,-0.698132,-0.174533,0.174533,-1.04472,-0.69215,-0.147195,0.135668,-0.494964,-0.334894,-0.820128,1.16594
26,60,-1.0472,-0.698132,-0.174533,0.174533,-1.04472,-0.69215,-0.147195,0.135668,-0.494964,-0.334894,-0.820128,1.16594
26,60,-1.0472,-0.698132,-0.174533,0.174533,-1.04472,-0.69215,-0.147195,0.135668,-0.494964,-0.334894,-0.820128,1.16594
26,60,-1.0472,-0.698132,-0.174533,0.174533,-1.04472,-0.69215,-0.147195,0.135668,-0.494964,-0.334894,-0.820128,1.16594
26,60,-1.0472,-0.698132,-0.174533,0.174533,-1.04472,-0.69215,-0.147195,0.135668,-0.494964,-0.334894,-0.820128,1.16594
26,60,-1.0472,-0.698132,-0.174533,0.174533,-1.04472,-0.69215,-0.147195,0.135668,-0.494964,-0.334894,-0.820131,1.16595
26,60,-1.0472,-0.698132,-0.174533,0.174533,-1.04472,-0.69215,-0.147195,0.135668,-0.494964,-0.334894,-0.820131,1.16595
26,60,-1.0472,-0.698132,-0.174533,0.174533,-1.04472,-0.69215,-0.147195,0.135668,-0.494964,-0.334894,-0.820131,1.16595
26,60,-1.0472,-0.698132,-0.174533,0.174533,-1.04472,-0.69215,-0.147195,0.135668,-0.494964,-0.334894,-0.820131,1.16595
26,60,-1.0472,-0.698132,-0.174533,0.174533,-1.04472,-0.69215,-0.147195,0.135668,-0.494964,-0.334894,-0.820131,1.16595
26,60,-1.0472,-0.698132,-0.174533,0.174533,-1.04472,-0.69215,-0.147195,0.135668,-0.494964,-0.334894,-0.820131,1.16595
26,60,-1.0472,-0.698132,-0.174533,0.174533,-1.04472,-0.69215,-0.147195,0.135668,-0.494964,-0.334894,-0.820131,1.16595
26,60,-1.0472,-0.698132,-0.174533,0.174533,-1.04472,-0.69215,-0.147195,0.135668,-0.494964,-0.334894,-0.820131,1.16595
26,60,-1.0472,-0.698132,-0.174533,0.174533,-1.04472,-0.69215,-0.147195,0.135668,-0.494964,-0.334894,-0.820131,1.16595
26,60,-1.0472,-0.698132,-0.174533,0.174533,-1.04472,-0.69215,-0.147195,0.135668,-0.494964,-0.334894,-0.820131,1.16595
26,60,-1.0472,-0.698132,-0.174533,0.174533,-1.04472,-0.69215,-0.147195,0.135668,-0.494964,-0.334894,-0.820131,1.16595
26,60,-1.0472,-0.698132,-0.174533,0.174533,-1.04472,-0.69215,-0.147195,0.135668,-0.494964,-0.334894,-0.820131,1.16595
26,60,-1.0472,-0.698132,-0.174533,0.174533,-1.04472,-0.69215,-0.147195,0.135668,-0.494964,-0.334894,-0.820131,1.16595
26,60,-1.0472,-0.698132,-0.174533,0.174533,-1.04472,-0.69215,-0.147195,0.135668,-0.494964,-0.334894,-0.820131,1.16595
26,60,-1.0472,-0.698132,-0.174533,0.174533,-1.04472,-0.69215,-0.147195,0.135668,-0.494964,-0.334894,-0.820131,1.16595
26,60,-1.0472,-0.698132,-0.174533,0.174533,-1.04472,-0.69215,-0.147195,0.135668,-0.494964,-0.334894,-0.820131,1.16595
26,60,-1.0472,-0.698132,-0.174533,0.174533,-1.04472,-0.69215,-0.147195,0.135668,-0.494964,-0.334894,-0.820131,1.16595
26,60,-1.0472,-0.698132,-0.174533,0.174533,-1.04472,-0.69215,-0.147195,0.135668,-0.494964,-0.334894,-0.820131,1.16595
26,60,-1.0472,-0.698132,-0.174533,0.174533,-1.04472,-0.69215,-0.147195,0.135668,-0.494964,-0.334894,-0.820131,1.16595
26,60,-1.0472,-0.698132,-0.174533,0.174533,-1.04472,-0.69215,-0.147195,0.135668,-0.494964,-0.334894,-0.820131,1.16595
26,60,-1.0472,-0.698132,-0.174533,0.174533,-1.04472,-0.69215,-0.147195,0.135668,-0.494964,-0.334894,-0.820131,1.16595
26,60,-1.0472,-0.698132,-0.174533,0.174533,-1.04472,-0.69215,-0.147195,0.135668,-0.494964,-0.334894,-0.820131,1.16595
26,60,-1.0472,-0.698132,-0.174533,0.174533,-1.04472,-0.69215,-0.147195,0.135668,-0.494964,-0.334894,-0.820131,1.16595
26,60,-1.0472,-0.698132,-0.174533,0.174533,-1.04472,-0.69215,-0.147195,0.135668,-0.494964,-0.334894,-0.820131,1.16595
26,60,-1.0472,-0.698132,-0.174533,0.174533,-1.04472,-0.69215,-0.147195,0.135668,-0.494964,-0.334894,-0.820131,1.16595
26,60,-1.0472,-0.698132,-0.174533,0.174533,-1.04472,-0.69215,-0.147195,0.135668,-0.494964,-0.334894,-0.820131,1.16595
26,60,-1.0472,-0.698132,-0.174533,0.174533,-1.04472,-0.69215,-0.147195,0.135668,-0.494964,-0.334894,-0.820131,1.16595
26,60,-1.0472,-0.698132,-0.174533,0.174533,-1.04472,-0.69215,-0.147195,0.135668,-0.494964,-0.334894,-0.820131,1.16595
26,60,-1.0472,-0.698132,-0.174533,0.174533,-1.04472,-0.69215,-0.147195,0.135668,-0.494964,-0.334894,-0.820131,1.16595
26,60,-1.0472,-0.698132,-0.174533,0.174533,-1.04472,-0.69215,-0.147195,0.135668,-0.494964,-0.334894,-0.820131,1.16595
26,60,-1.0472,-0.698132,-0.174533,0.174533,-1.04472,-0.69215,-0.147195,0.135668,-0.494964,-0.334894,-0.820131,1.16595
26,60,-1.0472,-0.698132,-0.174533,0.174533,-1.04472,-0.69215,-0.147195,0.135668,-0.494964,-0.334894,-0.820131,1.16595
26,60,-1.0472,-0.698132,-0.174533,0.174533,-1.04472,-0.69215,-0.147195,0.135668,-0.494964,-0.334894,-0.820131,1.16595
26,60,-1.0472,-0.698132,-0.174533,0.174533,-1.04472,-0.69215,-0.147195,0.135668,-0.494964,-0.334894,-0.820131,1.16595
26,60,-1.0472,-0.698132,-0.174533,0.174533,-1.04472,-0.69215,-0.147195,0.135668,-0.494964,-0.334894,-0.820131,1.16595
26,60,-1.0472,-0.698132,-0.174533,0.174533,-1.04472,-0.69215,-0.147195,0.135668,-0.494964,-0.334894,-0.820131,1.16595
26,60,-1.0472,-0.698132,-0.174533,0.174533,-1.04472,-0.69215,-0.147195,0.135668,-0.494964,-0.334894,-0.820131,1.16595
26,60,-1.0472,-0.698132,-0.174533,0.174533,-1.04472,-0.69215,-0.147195,0.135668,-0.494964,-0.334894,-0.820131,1.16595
26,60,-1.0472,-0.698132,-0.174533,0.174533,-1.04472,-0.69215,-0.147195,0.135668,-0.494964,-0.334894,-0.820131,1.16595
26,60,-1.0472,-0.698132,-0.174533,0.174533,-1.04472,-0.69215,-0.147195,0.135668,-0.494964,-0.334894,-0.820131,1.16595
26,60,-1.0472,-0.698132,-0.174533,0.174533,-1.04472,-0.69215,-0.147195,0.135668,-0.494964,-0.334894,-0.820131,1.16595
26,60,-1.0472,-0.698132,-0.174533,0.174533,-1.04472,-0.69215,-0.147195,0.135668,-0.494964,-0.334894,-0.820131,1.16595
26,60,-1.0472,-0.698132,-0.174533,0.174533,-1.04472,-0.69215,-0.147195,0.135668,-0.494964,-0.334894,-0.820131,1.16595
26,60,-1.0472,-0.698132,-0.174533,0.174533,-1.04472,-0.69215,-0.147195,0.135668,-0.494964,-0.334894,-0.820131,1.16595
26,60,-1.0472,-0.698132,-0.174533,0.174533,-1.04472,-0.69215,-0.147195,0.135668,-0.494964,-0.334894,-0.820131,1.16595
26,60,-1.0472,-0.698132,-0.174533,0.174533,-1.04472,-0.69215,-0.147195,0.135668,-0.494964,-0.334894,-0.820131,1.16595
26,60,-1.0472,-0.698132,-0.174533,0.174533,-1.04472,-0.69215,-0.147195,0.135668,-0.494964,-0.334894,-0.820131,1.16595
26,60,-1.0472,-0.698132,-0.174533,0.174533,-1.04472,-0.69215,-0.147195,0.135668,-0.494964,-0.334986,-0.820131,1.16595
26,60,-1.0472,-0.698132,-0.174533,0.174533,-1.04472,-0.69215,-0.147195,0.135668,-0.494964,-0.334986,-0.820131,1.16595
26,60,-1.0472,-0.698132,-0.174533,0.174533,-1.04472,-0.69215,-0.147195,0.135668,-0.494964,-0.334986,-0.820131,1.16595
26,60,-1.0472,-0.698132,-0.174533,0.174533,-1.04472,-0.69215,-0.147195,0.135668,-0.494964,-0.334986,-0.820131,1.16595
26,60,-1.0472,-0.698132,-0.174533,0.174533,-1.04472,-0.69215,-0.147195,0.135668,-0.494964,-0.334986,-0.820131,1.16595
26,60,-1.0472,-0.698132,-0.174533,0.174533,-1.04472,-0.69215,-0.147195,0.135668,-0.494964,-0.334986,-0.820131,1.16595
26,60,-1.0472,-0.698132,-0.174533,0.174533,-1.04472,-0.69215,-0.147195,0.135668,-0.494964,-0.334986,-0.820131,1.16595
26,60,-1.0472,-0.698132,-0.174533,0.174533,-1.04472,-0.69215,-0.147195,0.135668,-0.494964,-0.334986,-0.820131,1.16595
26,60,-1.0472,-0.698132,-0.174533,0.174533,-1.04472,-0.69215,-0.147195,0.135668,-0.494964,-0.334986,-0.820131,1.16595
26,60,-1.0472,-0.698132,-0.174533,0.174533,-1.04472,-0.69215,-0.147195,0.135668,-0.494964,-0.334986,-0.820131,1.16595
26,60,-1.0472,-0.698132,-0.174533,0.174533,-1.04472,-0.69215,-0.147195,0.135668,-0.494964,-0.334986,-0.820131,1.16595
26,60,-1.0472,-0.698132,-0.174533,0.174533,-1.04472,-0.69215,-0.147195,0.135668,-0.494964,-0.334986,-0.820131,1.16595
26,60,-1.0472,-0.698132,-0.174533,0.174533,-1.04472,-0.69215,-0.147195,0.135668,-0.494964,-0.334986,-0.820131,1.16595
26,60,-1.0472,-0.698132,-0.174533,0.174533,-1.04472,-0.69215,-0.147195,0.135668,-0.494964,-0.334986,-0.820131,1.16595
26,60,-1.0472,-0.698132,-0.174533,0.174533,-1.04472,-0.69215,-0.147195,0.135668,-0.494964,-0.334986,-0.820131,1.16595
26,60,-1.0472,-0.698132,-0.174533,0.174533,-1.04472,-0.69215,-0.147195,0.135668,-0.494964,-0.334986,-0.820131,1.16595
26,60,-1.0472,-0.698132,-0.174533,0.174533,-1.04472,-0.69215,-0.147195,0.135668,-0.494964,-0.334986,-0.820131,1.16595
26,60,-1.0472,-0.698132,-0.174533,0.174533,-1.04472,-0.69215,-0.147195,0.135668,-0.494964,-0.334986,-0.820131,1.16595
26,60,-1.0472,-0.698132,-0.174533,0.174533,-1.04472,-0.69215,-0.147195,0.135668,-0.494964,-0.334986,-0.820131,1.16595
26,60,-1.0472,-0.698132,-0.174533,0.174533,-1.04472,-0.69215,-0.147195,0.135668,-0.494964,-0.334986,-0.820131,1.16595
26,60,-1.0472,-0.698132,-0.174533,0.174533,-1.04472,-0.69215,-0.147195,0.135668,-0.494964,-0.334986,-0.820131,1.16595
26,60,-1.0472,-0.698132,-0.174533,0.174533,-1.04472,-0.69215,-0.147195,0.135668,-0.494964,-0.334986,-0.820131,1.16595
26,60,-1.0472,-0.698132,-0.174533,0.174533,-1.04472,-0.69215,-0.147195,0.135668,-0.494964,-0.334986,-0.820131,1.16595
26,60,-1.0472,-0.698132,-0.174533,0.174533,-1.04472,-0.69215,-0.147195,0.135668,-0.494964,-0.334986,-0.820131,1.16595
26,60,-1.0472,-0.698132,-0.174533,0.174533,-1.04472,-0.69215,-0.147195,0.135668,-0.494964,-0.334986,-0.820131,1.16595
26,60,-1.0472,-0.698132,-0.174533,0.174533,-1.04472,-0.69215,-0.147195,0.135668,-0.494964,-0.334986,-0.820131,1.16595
26,60,-1.0472,-0.698132,-0.174533,0.174533,-1.04472,-0.69215,-0.147195,0.135668,-0.494964,-0.334986,-0.820131,1.16595
26,60,-1.0472,-0.698132,-0.174533,0.174533,-1.04472,-0.69215,-0.147195,0.135668,-0.494964,-0.334986,-0.820131,1.16595
26,60,-1.0472,-0.698132,-0.174533,0.174533,-1.04472,-0.69215,-0.147195,0.135668,-0.494964,-0.334986,-0.820131,1.16595
26,60,-1.0472,-0.698132,-0.174533,0.174533,-1.04472,-0.69215,-0.147195,0.135668,-0.494964,-0.334986,-0.820131,1.16595
26,60,-1.0472,-0.698132,-0.174533,0.174533,-1.04472,-0.69215,-0.147195,0.135668,-0.494964,-0.334986,-0.820131,1.16595
26,60,-1.0472,-0.698132,-0.174533,0.174533,-1.04472,-0.69215,-0.147195,0.135668,-0.494964,-0.334986,-0.820131,1.16595
26,60,-1.0472,-0.698132,-0.174533,0.174533,-1.04472,-0.69215,-0.147195,0.135668,-0.494964,-0.334986,-0.820131,1.16595
26,60,-1.0472,-0.698132,-0.174533,0.174533,-1.04472,-0.69215,-0.147195,0.135668,-0.494964,-0.334986,-0.820131,1.16595
26,60,-1.0472,-0.698132,-0.174533,0.174533,-1.04472,-0.69215,-0.147195,0.135668,-0.494964,-0.334986,-0.820131,1.16595
26,60,-1.0472,-0.698132,-0.174533,0.174533,-1.04472,-0.69215,-0.147195,0.135668,-0.494964,-0.334986,-0.820131,1.16595
26,60,-1.0472,-0.698132,-0.174533,0.174533,-1.04472,-0.69215,-0.147195,0.135668,-0.494964,-0.334986,-0.820131,1.16595
26,60,-1.0472,-0.698132,-0.174533,0.174533,-1.04472,-0.69215,-0.147195,0.135668,-0.494964,-0.334986,-0.820131,1.16595
26,60,-1.0472,-0.698132,-0.174533,0.174533,-1.04472,-0.69215,-0.147195,0.135668,-0.494964,-0.334986,-0.820131,1.16595
26,60,-1.0472,-0.698132,-0.174533,0.174533,-1.04472,-0.69215,-0.147195,0.135668,-0.494964,-0.334986,-0.820131,1.16595
26,60,-1.0472,-0.698132,-0.174533,0.174533,-1.04472,-0.69215,-0.147195,0.135668,-0.494964,-0.334986,-0.820131,1.16595
26,60,-1.0472,-0.698132,-0.174533,0.174533,-1.04472,-0.69215,-0.147195,0.135668,-0.494964,-0.334986,-0.820131,1.16595
26,60,-1.0472,-0.698132,-0.174533,0.174533,-1.04472,-0.69215,-0.147195,0.135668,-0.494964,-0.334986,-0.820131,1.16595
26,60,-1.0472,-0.698132,-0.174533,0.174533,-1.04472,-0.69215,-0.147195,0.135668,-0.494964,-0.334986,-0.820131,1.16595
26,60,-1.0472,-0.698132,-0.174533,0.174533,-1.04472,-0.69215,-0.147195,0.135668,-0.494964,-0.334986,-0.820131,1.16595
26,60,-1.0472,-0.698132,-0.174533,0.174533,-1.04472,-0.69215,-0.147195,0.135668,-0.494964,-0.334986,-0.820131,1.16595
26,60,-1.0472,-0.698132,-0.174533,0.174533,-1.04472,-0.69215,-0.147195,0.135668,-0.494964,-0.334986,-0.820131,1.16595
26,60,-1.0472,-0.698132,-0.174533,0.174533,-1.04472,-0.69215,-0.147195,0.135668,-0.494964,-0.334986,-0.820131,1.16595
26,60,-1.0472,-0.698132,-0.174533,0.174533,-1.04472,-0.69215,-0.147195,0.135668,-0.494964,-0.334986,-0.820131,1.16595
26,60,-1.0472,-0.698132,-0.174533,0.174533,-1.04472,-0.69215,-0.147195,0.135668,-0.494964,-0.334986,-0.820131,1.16595
26,60,-1.0472,-0.698132,-0.174533,0.174533,-1.04472,-0.69215,-0.147195,0.135668,-0.494964,-0.334986,-0.820131,1.16595
26,60,-1.0472,-0.698132,-0.174533,0.174533,-1.04472,-0.69215,-0.147195,0.135668,-0.494964,-0.334986,-0.820131,1.16595
26,60,-1.0472,-0.698132,-0.174533,0.174533,-1.04472,-0.69215,-0.147195,0.135668,-0.494964,-0.334986,-0.820131,1.16595
26,60,-1.0472,-0.698132,-0.174533,0.174533,-1.04472,-0.69215,-0.147195,0.135668,-0.494964,-0.334986,-0.820131,1.16595
26,60,-1.0472,-0.698132,-0.174533,0.174533,-1.04472,-0.69215,-0.147195,0.135668,-0.494964,-0.334986,-0.820131,1.16595
26,60,-1.0472,-0.698132,-0.174533,0.174533,-1.04472,-0.69215,-0.147195,0.135668,-0.494964,-0.334986,-0.820131,1.16595
26,60,-1.0472,-0.698132,-0.174533,0.174533,-1.04472,-0.69215,-0.147195,0.135668,-0.494964,-0.334986,-0.820131,1.16595
26,60,-1.0472,-0.698132,-0.174533,0.174533,-1.04472,-0.69215,-0.147195,0.135668,-0.494964,-0.334986,-0.820131,1.16595
26,60,-1.0472,-0.698132,-0.174533,0.174533,-1.04472,-0.69215,-0.147195,0.135668,-0.494964,-0.334986,-0.820131,1.16595
26,60,-1.0472,-0.698132,-0.174533,0.174533,-1.04472,-0.69215,-0.147195,0.135668,-0.494964,-0.334986,-0.820131,1.16595
26,60,-1.0472,-0.698132,-0.174533,0.174533,-1.04472,-0.69215,-0.147195,0.135668,-0.494964,-0.334986,-0.820131,1.16595
26,60,-1.0472,-0.698132,-0.174533,0.174533,-1.04472,-0.69215,-0.147195,0.135668,-0.494964,-0.334986,-0.820131,1.16595
26,60,-1.0472,-0.698132,-0.174533,0.174533,-1.04472,-0.69215,-0.147195,0.135668,-0.494964,-0.334986,-0.820131,1.16595
26,60,-1.0472,-0.698132,-0.174533,0.174533,-1.04472,-0.69215,-0.147195,0.135668,-0.494964,-0.334986,-0.820131,1.16595
26,60,-1.0472,-0.698132,-0.174533,0.174533,-1.04472,-0.69215,-0.147195,0.135668,-0.494964,-0.334986,-0.820131,1.16595
26,60,-1.0472,-0.698132,-0.174533,0.174533,-1.04472,-0.69215,-0.147195,0.135668,-0.494964,-0.334986,-0.820131,1.16595
26,60,-1.0472,-0.698132,-0.174533,0.174533,-1.04472,-0.69215,-0.147195,0.135668,-0.494964,-0.334986,-0.820131,1.16595
26,60,-1.0472,-0.698132,-0.174533,0.174533,-1.04472,-0.69215,-0.147195,0.135668,-0.494964,-0.334986,-0.820131,1.16595
26,60,-1.0472,-0.698132,-0.174533,0.174533,-1.04472,-0.69215,-0.147195,0.135668,-0.494964,-0.334986,-0.820131,1.16595
26,60,-1.0472,-0.698132,-0.174533,0.174533,-1.04472,-0.69215,-0.147195,0.135668,-0.494964,-0.334986,-0.820131,1.16595
26,60,-1.0472,-0.698132,-0.174533,0.174533,-1.04472,-0.69215,-0.147195,0.135668,-0.494964,-0.334986,-0.820131,1.16595
26,60,-1.0472,-0.698132,-0.174533,0.174533,-1.04472,-0.69215,-0.147195,0.135668,-0.494964,-0.334986,-0.820131,1.16595
26,60,-1.0472,-0.698132,-0.174533,0.174533,-1.04472,-0.69215,-0.147195,0.135668,-0.494964,-0.334986,-0.820131,1.16595
26,60,-1.0472,-0.698132,-0.174533,0.174533,-1.04472,-0.69215,-0.147195,0.135668,-0.494964,-0.334986,-0.820131,1.16595
26,60,-1.0472,-0.698132,-0.174533,0.174533,-1.04472,-0.69215,-0.147195,0.135668,-0.494964,-0.334986,-0.820131,1.16595
26,60,-1.0472,-0.698132,-0.174533,0.174533,-1.04472,-0.69215,-0.147195,0.135668,-0.494964,-0.334986,-0.820131,1.16595
26,60,-1.0472,-0.698132,-0.174533,0.174533,-1.04472,-0.69215,-0.147195,0.135668,-0.494964,-0.334986,-0.820131,1.16595
26,60,-1.0472,-0.698132,-0.174533,0.174533,-1.04472,-0.69215,-0.147195,0.135668,-0.494964,-0.334986,-0.820131,1.16595
26,60,-1.0472,-0.698132,-0.174533,0.174533,-1.04472,-0.69215,-0.147195,0.135668,-0.494964,-0.334986,-0.820131,1.16595
26,60,-1.0472,-0.698132,-0.174533,0.174533,-1.04472,-0.69215,-0.147195,0.135668,-0.494964,-0.334986,-0.820131,1.16595
26,60,-1.0472,-0.698132,-0.174533,0.174533,-1.04472,-0.69215,-0.147195,0.135668,-0.494964,-0.334986,-0.820131,1.16595
26,60,-1.0472,-0.698132,-0.174533,0.174533,-1.04472,-0.69215,-0.147195,0.135668,-0.494964,-0.334986,-0.820131,1.16595
26,60,-1.0472,-0.698132,-0.174533,0.174533,-1.04472,-0.69215,-0.147195,0.135668,-0.494964,-0.334986,-0.820131,1.16595
26,60,-1.0472,-0.698132,-0.174533,0.174533,-1.04472,-0.69215,-0.147195,0.135668,-0.494964,-0.334986,-0.820131,1.16595
26,60,-1.0472,-0.698132,-0.174533,0.174533,-1.04472,-0.69215,-0.147195,0.135668,-0.494964,-0.334986,-0.820131,1.16595
26,60,-1.0472,-0.698132,-0.174533,0.174533,-1.04472,-0.69215,-0.147195,0.135668,-0.494964,-0.334986,-0.820131,1.16595
26,60,-1.0472,-0.698132,-0.174533,0.174533,-1.04472,-0.69215,-0.147195,0.135668,-0.494964,-0.334986,-0.820131,1.16595
26,60,-1.0472,-0.698132,-0.174533,0.174533,-1.04472,-0.69215,-0.147195,0.135668,-0.494964,-0.334986,-0.820131,1.16595
26,60,-1.0472,-0.698132,-0.174533,0.174533,-1.04472,-0.69215,-0.147195,0.135668,-0.494964,-0.334986,-0.820131,1.16595
26,60,-1.0472,-0.698132,-0.174533,0.174533,-1.04472,-0.69215,-0.147195,0.135668,-0.494964,-0.334986,-0.820131,1.16595
26,60,-1.0472,-0.698132,-0.174533,0.174533,-1.04472,-0.69215,-0.147195,0.135668,-0.494964,-0.334986,-0.820131,1.16595
26,60,-1.0472,-0.698132,-0.174533,0.174533,-1.04472,-0.69215,-0.147195,0.135668,-0.494964,-0.334986,-0.820131,1.16595
26,60,-1.0472,-0.698132,-0.174533,0.174533,-1.04472,-0.69215,-0.147195,0.135668,-0.494964,-0.334986,-0.820131,1.16595
26,60,-1.0472,-0.698132,-0.174533,0.174533,-1.04472,-0.69215,-0.147195,0.135668,-0.494964,-0.334986,-0.820131,1.16595
26,60,-1.0472,-0.698132,-0.174533,0.174533,-1.04472,-0.69215,-0.147195,0.135668,-0.494964,-0.334986,-0.820131,1.16595
26,60,-1.0472,-0.698132,-0.174533,0.174533,-1.04472,-0.69215,-0.147195,0.135668,-0.494964,-0.334986,-0.820131,1.16595
26,60,-1.0472,-0.698132,-0.174533,0.174533,-1.04472,-0.69215,-0.147195,0.135668,-0.494964,-0.334986,-0.820131,1.16595
26,60,-1.0472,-0.698132,-0.174533,0.174533,-1.04472,-0.69215,-0.147195,0.135668,-0.494964,-0.334986,-0.820131,1.16595
26,60,-1.0472,-0.698132,-0.174533,0.174533,-1.04472,-0.69215,-0.147195,0.135668,-0.494964,-0.334986,-0.820131,1.16595
26,60,-1.0472,-0.698132,-0.174533,0.174533,-1.04472,-0.69215,-0.147195,0.135668,-0.494964,-0.334986,-0.820131,1.16595
26,60,-1.0472,-0.698132,-0.174533,0.174533,-1.04472,-0.69215,-0.147195,0.135668,-0.494964,-0.334986,-0.820131,1.16595
26,60,-1.0472,-0.698132,-0.174533,0.174533,-1.04472,-0.69215,-0.147195,0.135668,-0.494964,-0.334986,-0.820131,1.16595
26,60,-1.0472,-0.698132,-0.174533,0.174533,-1.04472,-0.69215,-0.147195,0.135668,-0.494964,-0.334986,-0.820131,1.16595
26,60,-1.0472,-0.698132,-0.174533,0.174533,-1.04472,-0.69215,-0.147195,0.135668,-0.494964,-0.334986,-0.820131,1.16595
26,60,-1.0472,-0.698132,-0.174533,0.174533,-1.04472,-0.69215,-0.147195,0.135668,-0.494964,-0.334986,-0.820131,1.16595
26,60,-1.0472,-0.698132,-0.174533,0.174533,-1.04472,-0.69215,-0.147195,0.135668,-0.494964,-0.334986,-0.820131,1.16595
26,60,-1.0472,-0.698132,-0.174533,0.174533,-1.04472,-0.69215,-0.147195,0.135668,-0.494964,-0.334986,-0.820131,1.16595
26,60,-1.0472,-0.698132,-0.174533,0.174533,-1.04472,-0.69215,-0.147195,0.135668,-0.494964,-0.334986,-0.820131,1.16595
26,60,-1.0472,-0.698132,-0.174533,0.174533,-1.04472,-0.69215,-0.147195,0.135668,-0.494964,-0.334986,-0.820131,1.16595
26,60,-1.0472,-0.698132,-0.174533,0.174533,-1.04472,-0.69215,-0.147195,0.135668,-0.494964,-0.334986,-0.820131,1.16595
26,60,-1.0472,-0.698132,-0.174533,0.174533,-1.04472,-0.69215,-0.147195,0.135668,-0.494964,-0.334986,-0.820131,1.16595
26,60,-1.0472,-0.698132,-0.174533,0.174533,-1.04472,-0.69215,-0.147195,0.135668,-0.494964,-0.334986,-0.820131,1.16595
26,60,-1.0472,-0.698132,-0.174533,0.174533,-1.04472,-0.69215,-0.147195,0.135668,-0.494964,-0.334986,-0.820131,1.16595
26,60,-1.0472,-0.698132,-0.174533,0.174533,-1.04472,-0.69215,-0.147195,0.135668,-0.494964,-0.334986,-0.820131,1.16595
26,60,-1.0472,-0.698132,-0.174533,0.174533,-1.04472,-0.69215,-0.147195,0.135668,-0.494964,-0.334986,-0.820131,1.16595
26,60,-1.0472,-0.698132,-0.174533,0.174533,-1.04472,-0.69215,-0.147195,0.135668,-0.494964,-0.334986,-0.820131,1.16595
26,60,-1.0472,-0.698132,-0.174533,0.174533,-1.04472,-0.69215,-0.147195,0.135668,-0.494964,-0.334986,-0.820131,1.16595
