stim_pw [us],stim_amp [mA],com_elbow_fe [rad],com_forearm_ps [rad],com_wrist_fe [rad],com_wrist_ru [rad],act_elbow_fe [rad],act_forearm_ps [rad],act_wrist_fe [rad],act_wrist_ru [rad],elbow_fe_trq [Nm],forearm_ps_trq [Nm],wrist_fe_trq [Nm],wrist_ru_trq [Nm]
22,30,-1.0472,-0.698132,-0.174533,0.174533,-1.04222,-0.69215,-0.151303,0.142177,-0.996065,-0.334986,-0.696921,0.970668
22,30,-1.0472,-0.698132,-0.174533,0.174533,-1.04222,-0.69215,-0.151303,0.142177,-0.996065,-0.334986,-0.696921,0.970668
22,30,-1.0472,-0.698132,-0.174533,0.174533,-1.04222,-0.69215,-0.151303,0.142177,-0.996065,-0.334986,-0.696921,0.970668
22,30,-1.0472,-0.698132,-0.174533,0.174533,-1.04222,-0.69215,-0.151303,0.142177,-0.996065,-0.334986,-0.696921,0.970668
22,30,-1.0472,-0.698132,-0.174533,0.174533,-1.04222,-0.69215,-0.151303,0.142177,-0.996065,-0.334986,-0.696921,0.970668
22,30,-1.0472,-0.698132,-0.174533,0.174533,-1.04222,-0.69215,-0.151303,0.142177,-0.996065,-0.334986,-0.696921,0.970668
22,30,-1.0472,-0.698132,-0.174533,0.174533,-1.04222,-0.69215,-0.151303,0.142177,-0.996065,-0.334986,-0.696921,0.970668
22,30,-1.0472,-0.698132,-0.174533,0.174533,-1.04222,-0.69215,-0.151303,0.142177,-0.996065,-0.334986,-0.696921,0.970668
22,30,-1.0472,-0.698132,-0.174533,0.174533,-1.04222,-0.69215,-0.151303,0.142177,-0.996065,-0.334986,-0.696921,0.970668
22,30,-1.0472,-0.698132,-0.174533,0.174533,-1.04222,-0.69215,-0.151303,0.142177,-0.996065,-0.334986,-0.696921,0.970668
22,30,-1.0472,-0.698132,-0.174533,0.174533,-1.04222,-0.69215,-0.151303,0.142177,-0.996065,-0.334986,-0.696921,0.970668
22,30,-1.0472,-0.698132,-0.174533,0.174533,-1.04222,-0.69215,-0.151303,0.142177,-0.996065,-0.334986,-0.696921,0.970668
22,30,-1.0472,-0.698132,-0.174533,0.174533,-1.04222,-0.69215,-0.151303,0.142177,-0.996065,-0.334986,-0.696921,0.970668
22,30,-1.0472,-0.698132,-0.174533,0.174533,-1.04222,-0.69215,-0.151303,0.142177,-0.996065,-0.334986,-0.696921,0.970668
22,30,-1.0472,-0.698132,-0.174533,0.174533,-1.04222,-0.69215,-0.151303,0.142177,-0.996065,-0.334986,-0.696921,0.970668
22,30,-1.0472,-0.698132,-0.174533,0.174533,-1.04222,-0.69215,-0.151303,0.142177,-0.996065,-0.334986,-0.696921,0.970668
22,30,-1.0472,-0.698132,-0.174533,0.174533,-1.04222,-0.69215,-0.151303,0.142177,-0.996065,-0.334986,-0.696921,0.970668
22,30,-1.0472,-0.698132,-0.174533,0.174533,-1.04222,-0.69215,-0.151303,0.142177,-0.996065,-0.334986,-0.696921,0.970668
22,30,-1.0472,-0.698132,-0.174533,0.174533,-1.04222,-0.69215,-0.151303,0.142177,-0.996065,-0.334986,-0.696921,0.970668
22,30,-1.0472,-0.698132,-0.174533,0.174533,-1.04222,-0.69215,-0.151303,0.142177,-0.996065,-0.334986,-0.696921,0.970668
22,30,-1.0472,-0.698132,-0.174533,0.174533,-1.04222,-0.69215,-0.151303,0.142177,-0.996065,-0.334986,-0.696921,0.970668
22,30,-1.0472,-0.698132,-0.174533,0.174533,-1.04222,-0.69215,-0.151303,0.142177,-0.996065,-0.334986,-0.696921,0.970668
22,30,-1.0472,-0.698132,-0.174533,0.174533,-1.04222,-0.69215,-0.151303,0.142177,-0.996065,-0.334986,-0.696921,0.970668
22,30,-1.0472,-0.698132,-0.174533,0.174533,-1.04222,-0.69215,-0.151303,0.142177,-0.996065,-0.334986,-0.696921,0.970668
22,30,-1.0472,-0.698132,-0.174533,0.174533,-1.04222,-0.69215,-0.151303,0.142177,-0.996065,-0.334986,-0.696921,0.970668
22,30,-1.0472,-0.698132,-0.174533,0.174533,-1.04222,-0.69215,-0.151303,0.142177,-0.996065,-0.334986,-0.696921,0.970668
22,30,-1.0472,-0.698132,-0.174533,0.174533,-1.04222,-0.69215,-0.151303,0.142177,-0.996065,-0.334986,-0.696921,0.970668
22,30,-1.0472,-0.698132,-0.174533,0.174533,-1.04222,-0.69215,-0.151303,0.142177,-0.996065,-0.334986,-0.696921,0.970668
22,30,-1.0472,-0.698132,-0.174533,0.174533,-1.04222,-0.69215,-0.151303,0.142177,-0.996065,-0.334986,-0.696921,0.970668
22,30,-1.0472,-0.698132,-0.174533,0.174533,-1.04222,-0.69215,-0.151303,0.142177,-0.996065,-0.334986,-0.696921,0.970668
22,30,-1.0472,-0.698132,-0.174533,0.174533,-1.04222,-0.69215,-0.151303,0.142177,-0.996065,-0.334986,-0.696921,0.970668
22,30,-1.0472,-0.698132,-0.174533,0.174533,-1.04222,-0.69215,-0.151303,0.142177,-0.996065,-0.334986,-0.696921,0.970668
22,30,-1.0472,-0.698132,-0.174533,0.174533,-1.04222,-0.69215,-0.151303,0.142177,-0.996065,-0.334986,-0.696921,0.970668
22,30,-1.0472,-0.698132,-0.174533,0.174533,-1.04222,-0.69215,-0.151303,0.142177,-0.996065,-0.334986,-0.696921,0.970668
22,30,-1.0472,-0.698132,-0.174533,0.174533,-1.04222,-0.69215,-0.151303,0.142177,-0.996065,-0.334986,-0.696921,0.970668
22,30,-1.0472,-0.698132,-0.174533,0.174533,-1.04222,-0.69215,-0.151303,0.142177,-0.996065,-0.334986,-0.696921,0.970668
22,30,-1.0472,-0.698132,-0.174533,0.174533,-1.04222,-0.69215,-0.151303,0.142177,-0.996065,-0.334986,-0.696921,0.970668
22,30,-1.0472,-0.698132,-0.174533,0.174533,-1.04222,-0.69215,-0.151303,0.142177,-0.996065,-0.334986,-0.696921,0.970668
22,30,-1.0472,-0.698132,-0.174533,0.174533,-1.04222,-0.69215,-0.151303,0.142177,-0.996065,-0.334986,-0.696921,0.970668
22,30,-1.0472,-0.698132,-0.174533,0.174533,-1.04222,-0.69215,-0.151303,0.142177,-0.996065,-0.334986,-0.696921,0.970668
22,30,-1.0472,-0.698132,-0.174533,0.174533,-1.04222,-0.69215,-0.151303,0.142177,-0.996065,-0.334986,-0.696921,0.970668
22,30,-1.0472,-0.698132,-0.174533,0.174533,-1.04222,-0.69215,-0.151303,0.142177,-0.996065,-0.334986,-0.696921,0.970668
22,30,-1.0472,-0.698132,-0.174533,0.174533,-1.04222,-0.69215,-0.151303,0.142177,-0.996065,-0.334986,-0.696921,0.970668
22,30,-1.0472,-0.698132,-0.174533,0.174533,-1.04222,-0.69215,-0.151303,0.142177,-0.996065,-0.334986,-0.696921,0.970668
22,30,-1.0472,-0.698132,-0.174533,0.174533,-1.04222,-0.69215,-0.151303,0.142177,-0.996065,-0.334986,-0.696921,0.970668
22,30,-1.0472,-0.698132,-0.174533,0.174533,-1.04222,-0.69215,-0.151303,0.142177,-0.996065,-0.334986,-0.696921,0.970668
22,30,-1.0472,-0.698132,-0.174533,0.174533,-1.04222,-0.69215,-0.151303,0.142177,-0.996065,-0.334986,-0.696921,0.970668
22,30,-1.0472,-0.698132,-0.174533,0.174533,-1.04222,-0.69215,-0.151303,0.142177,-0.996065,-0.334986,-0.696921,0.970668
22,30,-1.0472,-0.698132,-0.174533,0.174533,-1.04222,-0.69215,-0.151303,0.142177,-0.996065,-0.334986,-0.696921,0.970668
22,30,-1.0472,-0.698132,-0.174533,0.174533,-1.04222,-0.69215,-0.151303,0.142177,-0.996065,-0.334986,-0.696921,0.970668
22,30,-1.0472,-0.698132,-0.174533,0.174533,-1.04222,-0.69215,-0.151303,0.142177,-0.996065,-0.334986,-0.696921,0.970668
22,30,-1.0472,-0.698132,-0.174533,0.174533,-1.04222,-0.69215,-0.151303,0.142177,-0.996065,-0.334986,-0.696921,0.970668
22,30,-1.0472,-0.698132,-0.174533,0.174533,-1.04222,-0.69215,-0.151303,0.142177,-0.996065,-0.334986,-0.696921,0.970668
22,30,-1.0472,-0.698132,-0.174533,0.174533,-1.04222,-0.69215,-0.151303,0.142177,-0.996065,-0.334986,-0.696921,0.970668
22,30,-1.0472,-0.698132,-0.174533,0.174533,-1.04222,-0.69215,-0.151303,0.142177,-0.996065,-0.334986,-0.696921,0.970668
22,30,-1.0472,-0.698132,-0.174533,0.174533,-1.04222,-0.69215,-0.151303,0.142177,-0.996065,-0.334986,-0.696921,0.970668
22,30,-1.0472,-0.698132,-0.174533,0.174533,-1.04222,-0.69215,-0.151303,0.142177,-0.996065,-0.334986,-0.696921,0.970668
22,30,-1.0472,-0.698132,-0.174533,0.174533,-1.04222,-0.69215,-0.151303,0.142177,-0.996065,-0.334986,-0.696921,0.970668
22,30,-1.0472,-0.698132,-0.174533,0.174533,-1.04222,-0.69215,-0.151303,0.142177,-0.996065,-0.334986,-0.696921,0.970668
22,30,-1.0472,-0.698132,-0.174533,0.174533,-1.04222,-0.69215,-0.151303,0.142177,-0.996065,-0.334986,-0.696921,0.970668
22,30,-1.0472,-0.698132,-0.174533,0.174533,-1.04222,-0.69215,-0.151303,0.142177,-0.996065,-0.334986,-0.696921,0.970668
22,30,-1.0472,-0.698132,-0.174533,0.174533,-1.04222,-0.69215,-0.151303,0.142177,-0.996065,-0.334986,-0.696921,0.970668
22,30,-1.0472,-0.698132,-0.174533,0.174533,-1.04222,-0.69215,-0.151303,0.142177,-0.996065,-0.334986,-0.696921,0.970668
22,30,-1.0472,-0.698132,-0.174533,0.174533,-1.04222,-0.69215,-0.151303,0.142177,-0.996065,-0.334986,-0.696921,0.970668
22,30,-1.0472,-0.698132,-0.174533,0.174533,-1.04222,-0.69215,-0.151303,0.142177,-0.996065,-0.334986,-0.696921,0.970668
22,30,-1.0472,-0.698132,-0.174533,0.174533,-1.04222,-0.69215,-0.151303,0.142177,-0.996065,-0.334986,-0.696921,0.970668
22,30,-1.0472,-0.698132,-0.174533,0.174533,-1.04222,-0.69215,-0.151303,0.142177,-0.996065,-0.334986,-0.696921,0.970668
22,30,-1.0472,-0.698132,-0.174533,0.174533,-1.04222,-0.69215,-0.151303,0.142177,-0.996065,-0.334986,-0.696921,0.970668
22,30,-1.0472,-0.698132,-0.174533,0.174533,-1.04222,-0.69215,-0.151303,0.142177,-0.996065,-0.334986,-0.696921,0.970668
22,30,-1.0472,-0.698132,-0.174533,0.174533,-1.04222,-0.69215,-0.151303,0.142177,-0.996065,-0.334986,-0.696921,0.970668
22,30,-1.0472,-0.698132,-0.174533,0.174533,-1.04222,-0.69215,-0.151303,0.142177,-0.996065,-0.334986,-0.696921,0.970668
22,30,-1.0472,-0.698132,-0.174533,0.174533,-1.04222,-0.69215,-0.151303,0.142177,-0.996065,-0.334986,-0.696921,0.970668
22,30,-1.0472,-0.698132,-0.174533,0.174533,-1.04222,-0.69215,-0.151303,0.142177,-0.996065,-0.334986,-0.696921,0.970668
22,30,-1.0472,-0.698132,-0.174533,0.174533,-1.04222,-0.69215,-0.151303,0.142177,-0.996065,-0.334986,-0.696921,0.970668
22,30,-1.0472,-0.698132,-0.174533,0.174533,-1.04222,-0.69215,-0.151303,0.142177,-0.996065,-0.334986,-0.696921,0.970668
22,30,-1.0472,-0.698132,-0.174533,0.174533,-1.04222,-0.69215,-0.151303,0.142177,-0.996065,-0.334986,-0.696921,0.970668
22,30,-1.0472,-0.698132,-0.174533,0.174533,-1.04222,-0.69215,-0.151303,0.142177,-0.996065,-0.334986,-0.696921,0.970668
22,30,-1.0472,-0.698132,-0.174533,0.174533,-1.04222,-0.69215,-0.151303,0.142177,-0.996065,-0.334986,-0.696921,0.970668
22,30,-1.0472,-0.698132,-0.174533,0.174533,-1.04222,-0.69215,-0.151303,0.142177,-0.996065,-0.334986,-0.696921,0.970668
22,30,-1.0472,-0.698132,-0.174533,0.174533,-1.04222,-0.69215,-0.151303,0.142177,-0.996065,-0.334986,-0.696921,0.970668
22,30,-1.0472,-0.698132,-0.174533,0.174533,-1.04222,-0.69215,-0.151303,0.142177,-0.996065,-0.334986,-0.696921,0.970668
22,30,-1.0472,-0.698132,-0.174533,0.174533,-1.04222,-0.69215,-0.151303,0.142177,-0.996065,-0.334986,-0.696921,0.970668
22,30,-1.0472,-0.698132,-0.174533,0.174533,-1.04222,-0.69215,-0.151303,0.142177,-0.996065,-0.334986,-0.696921,0.970668
22,30,-1.0472,-0.698132,-0.174533,0.174533,-1.04222,-0.69215,-0.151303,0.142177,-0.996065,-0.334986,-0.696921,0.970668
22,30,-1.0472,-0.698132,-0.174533,0.174533,-1.04222,-0.69215,-0.151303,0.142177,-0.996065,-0.334986,-0.696921,0.970668
22,30,-1.0472,-0.698132,-0.174533,0.174533,-1.04222,-0.69215,-0.151303,0.142177,-0.996065,-0.334986,-0.696921,0.970668
22,30,-1.0472,-0.698132,-0.174533,0.174533,-1.04222,-0.69215,-0.151303,0.142177,-0.996065,-0.334986,-0.696921,0.970668
22,30,-1.0472,-0.698132,-0.174533,0.174533,-1.04222,-0.69215,-0.151303,0.142177,-0.996065,-0.334986,-0.696921,0.970668
22,30,-1.0472,-0.698132,-0.174533,0.174533,-1.04222,-0.69215,-0.151303,0.142177,-0.996065,-0.334986,-0.696921,0.970668
22,30,-1.0472,-0.698132,-0.174533,0.174533,-1.04222,-0.69215,-0.151303,0.142177,-0.996065,-0.334986,-0.696921,0.970668
22,30,-1.0472,-0.698132,-0.174533,0.174533,-1.04222,-0.69215,-0.151303,0.142177,-0.996065,-0.334986,-0.696921,0.970668
22,30,-1.0472,-0.698132,-0.174533,0.174533,-1.04222,-0.69215,-0.151303,0.142177,-0.996065,-0.334986,-0.696921,0.970668
22,30,-1.0472,-0.698132,-0.174533,0.174533,-1.04222,-0.69215,-0.151303,0.142177,-0.996065,-0.334986,-0.696921,0.970668
22,30,-1.0472,-0.698132,-0.174533,0.174533,-1.04222,-0.69215,-0.151303,0.142177,-0.996065,-0.334986,-0.696921,0.970668
22,30,-1.0472,-0.698132,-0.174533,0.174533,-1.04222,-0.69215,-0.151303,0.142177,-0.996065,-0.334986,-0.696921,0.970668
22,30,-1.0472,-0.698132,-0.174533,0.174533,-1.04222,-0.69215,-0.151303,0.142177,-0.996065,-0.334986,-0.696921,0.970668
22,30,-1.0472,-0.698132,-0.174533,0.174533,-1.04222,-0.69215,-0.151303,0.142177,-0.996065,-0.334986,-0.696921,0.970668
22,30,-1.0472,-0.698132,-0.174533,0.174533,-1.04222,-0.69215,-0.151303,0.142177,-0.996065,-0.334986,-0.696921,0.970668
22,30,-1.0472,-0.698132,-0.174533,0.174533,-1.04222,-0.69215,-0.151303,0.142177,-0.996065,-0.334986,-0.696921,0.970668
22,30,-1.0472,-0.698132,-0.174533,0.174533,-1.04222,-0.69215,-0.151303,0.142177,-0.996065,-0.334986,-0.696921,0.970668
22,30,-1.0472,-0.698132,-0.174533,0.174533,-1.04222,-0.69215,-0.151303,0.142177,-0.996065,-0.334986,-0.696921,0.970668
22,30,-1.0472,-0.698132,-0.174533,0.174533,-1.04222,-0.69215,-0.151303,0.142177,-0.996065,-0.334986,-0.696921,0.970668
22,30,-1.0472,-0.698132,-0.174533,0.174533,-1.04222,-0.69215,-0.151303,0.142177,-0.996065,-0.334986,-0.696921,0.970668
22,30,-1.0472,-0.698132,-0.174533,0.174533,-1.04222,-0.69215,-0.151303,0.142177,-0.996065,-0.334986,-0.696921,0.970668
22,30,-1.0472,-0.698132,-0.174533,0.174533,-1.04222,-0.69215,-0.151303,0.142177,-0.996065,-0.334986,-0.696921,0.970668
22,30,-1.0472,-0.698132,-0.174533,0.174533,-1.04222,-0.69215,-0.151303,0.142177,-0.996065,-0.334986,-0.696921,0.970668
22,30,-1.0472,-0.698132,-0.174533,0.174533,-1.04222,-0.69215,-0.151303,0.142177,-0.996065,-0.334986,-0.696921,0.970668
22,30,-1.0472,-0.698132,-0.174533,0.174533,-1.04222,-0.69215,-0.151303,0.142177,-0.996065,-0.334986,-0.696921,0.970668
22,30,-1.0472,-0.698132,-0.174533,0.174533,-1.04222,-0.69215,-0.151303,0.142177,-0.996065,-0.334986,-0.696921,0.970668
22,30,-1.0472,-0.698132,-0.174533,0.174533,-1.04222,-0.69215,-0.151303,0.142177,-0.996065,-0.334986,-0.696921,0.970668
22,30,-1.0472,-0.698132,-0.174533,0.174533,-1.04222,-0.69215,-0.151303,0.142177,-0.996065,-0.334986,-0.696921,0.970668
22,30,-1.0472,-0.698132,-0.174533,0.174533,-1.04222,-0.69215,-0.151303,0.142177,-0.996065,-0.334986,-0.696921,0.970668
22,30,-1.0472,-0.698132,-0.174533,0.174533,-1.04222,-0.69215,-0.151303,0.142177,-0.996065,-0.334986,-0.696921,0.970668
22,30,-1.0472,-0.698132,-0.174533,0.174533,-1.04222,-0.69215,-0.151303,0.142177,-0.996065,-0.334986,-0.696921,0.970668
22,30,-1.0472,-0.698132,-0.174533,0.174533,-1.04222,-0.69215,-0.151303,0.142177,-0.996065,-0.334986,-0.696921,0.970668
22,30,-1.0472,-0.698132,-0.174533,0.174533,-1.04222,-0.69215,-0.151303,0.142177,-0.996065,-0.334986,-0.696921,0.970668
22,30,-1.0472,-0.698132,-0.174533,0.174533,-1.04222,-0.69215,-0.151303,0.142177,-0.996065,-0.334986,-0.696921,0.970668
22,30,-1.0472,-0.698132,-0.174533,0.174533,-1.04222,-0.69215,-0.151303,0.142177,-0.996065,-0.334986,-0.696921,0.970668
22,30,-1.0472,-0.698132,-0.174533,0.174533,-1.04222,-0.69215,-0.151303,0.142177,-0.996065,-0.334986,-0.696921,0.970668
22,30,-1.0472,-0.698132,-0.174533,0.174533,-1.04222,-0.69215,-0.151303,0.142177,-0.996065,-0.334986,-0.696921,0.970668
22,30,-1.0472,-0.698132,-0.174533,0.174533,-1.04222,-0.69215,-0.151303,0.142177,-0.996065,-0.334986,-0.696921,0.970668
22,30,-1.0472,-0.698132,-0.174533,0.174533,-1.04222,-0.69215,-0.151303,0.142177,-0.996065,-0.334986,-0.696921,0.970668
22,30,-1.0472,-0.698132,-0.174533,0.174533,-1.04222,-0.69215,-0.151303,0.142177,-0.996065,-0.334986,-0.696921,0.970668
22,30,-1.0472,-0.698132,-0.174533,0.174533,-1.04222,-0.69215,-0.151303,0.142177,-0.996065,-0.334986,-0.696921,0.970668
22,30,-1.0472,-0.698132,-0.174533,0.174533,-1.04222,-0.69215,-0.151303,0.142177,-0.996065,-0.334986,-0.696921,0.970668
22,30,-1.0472,-0.698132,-0.174533,0.174533,-1.04222,-0.69215,-0.151303,0.142177,-0.996065,-0.334986,-0.696921,0.970668
22,30,-1.0472,-0.698132,-0.174533,0.174533,-1.04222,-0.69215,-0.151303,0.142177,-0.996065,-0.334986,-0.696921,0.970668
22,30,-1.0472,-0.698132,-0.174533,0.174533,-1.04222,-0.69215,-0.151303,0.142177,-0.996065,-0.334986,-0.696921,0.970668
22,30,-1.0472,-0.698132,-0.174533,0.174533,-1.04222,-0.69215,-0.151303,0.142177,-0.996065,-0.334986,-0.696921,0.970668
22,30,-1.0472,-0.698132,-0.174533,0.174533,-1.04222,-0.69215,-0.151303,0.142177,-0.996065,-0.334986,-0.696921,0.970668
22,30,-1.0472,-0.698132,-0.174533,0.174533,-1.04222,-0.69215,-0.151303,0.142177,-0.996065,-0.334986,-0.696921,0.970668
22,30,-1.0472,-0.698132,-0.174533,0.174533,-1.04222,-0.69215,-0.151303,0.142177,-0.996065,-0.334986,-0.696921,0.970668
22,30,-1.0472,-0.698132,-0.174533,0.174533,-1.04222,-0.69215,-0.151303,0.142177,-0.996065,-0.334986,-0.696921,0.970668
22,30,-1.0472,-0.698132,-0.174533,0.174533,-1.04222,-0.69215,-0.151303,0.142177,-0.996065,-0.334986,-0.696921,0.970668
22,30,-1.0472,-0.698132,-0.174533,0.174533,-1.04222,-0.69215,-0.151303,0.142177,-0.996065,-0.334986,-0.696921,0.970668
22,30,-1.0472,-0.698132,-0.174533,0.174533,-1.04222,-0.69215,-0.151303,0.142177,-0.996065,-0.334986,-0.696921,0.970668
22,30,-1.0472,-0.698132,-0.174533,0.174533,-1.04222,-0.69215,-0.151303,0.142177,-0.996065,-0.334986,-0.696921,0.970668
22,30,-1.0472,-0.698132,-0.174533,0.174533,-1.04222,-0.69215,-0.151303,0.142177,-0.996065,-0.334986,-0.696921,0.970668
22,30,-1.0472,-0.698132,-0.174533,0.174533,-1.04222,-0.69215,-0.151303,0.142177,-0.996065,-0.334986,-0.696921,0.970668
22,30,-1.0472,-0.698132,-0.174533,0.174533,-1.04222,-0.69215,-0.151303,0.142177,-0.996065,-0.334986,-0.696921,0.970668
22,30,-1.0472,-0.698132,-0.174533,0.174533,-1.04222,-0.69215,-0.151303,0.142177,-0.996065,-0.334986,-0.696921,0.970668
22,30,-1.0472,-0.698132,-0.174533,0.174533,-1.04222,-0.69215,-0.151303,0.142177,-0.996065,-0.334986,-0.696921,0.970668
22,30,-1.0472,-0.698132,-0.174533,0.174533,-1.04222,-0.69215,-0.151303,0.142177,-0.996065,-0.334986,-0.696921,0.970668
22,30,-1.0472,-0.698132,-0.174533,0.174533,-1.04222,-0.69215,-0.151303,0.142177,-0.996065,-0.334986,-0.696921,0.970668
22,30,-1.0472,-0.698132,-0.174533,0.174533,-1.04222,-0.69215,-0.151303,0.142177,-0.996065,-0.334986,-0.696921,0.970668
22,30,-1.0472,-0.698132,-0.174533,0.174533,-1.04222,-0.69215,-0.151303,0.142177,-0.996065,-0.334986,-0.696921,0.970668
22,30,-1.0472,-0.698132,-0.174533,0.174533,-1.04222,-0.69215,-0.151303,0.142177,-0.996065,-0.334986,-0.696921,0.970668
22,30,-1.0472,-0.698132,-0.174533,0.174533,-1.04222,-0.69215,-0.151303,0.142177,-0.996065,-0.334986,-0.696921,0.970668
22,30,-1.0472,-0.698132,-0.174533,0.174533,-1.04222,-0.69215,-0.151303,0.142177,-0.996065,-0.334986,-0.696921,0.970668
22,30,-1.0472,-0.698132,-0.174533,0.174533,-1.04222,-0.69215,-0.151303,0.142177,-0.996065,-0.334986,-0.696921,0.970668
22,30,-1.0472,-0.698132,-0.174533,0.174533,-1.04222,-0.69215,-0.151303,0.142177,-0.996065,-0.334986,-0.696921,0.970668
22,30,-1.0472,-0.698132,-0.174533,0.174533,-1.04222,-0.69215,-0.151303,0.142177,-0.996065,-0.334986,-0.696921,0.970668
22,30,-1.0472,-0.698132,-0.174533,0.174533,-1.04222,-0.69215,-0.151303,0.142177,-0.996065,-0.334986,-0.696921,0.970668
22,30,-1.0472,-0.698132,-0.174533,0.174533,-1.04222,-0.69215,-0.151303,0.142177,-0.996065,-0.334986,-0.696921,0.970668
22,30,-1.0472,-0.698132,-0.174533,0.174533,-1.04222,-0.69215,-0.151303,0.142177,-0.996065,-0.334986,-0.696921,0.970668
22,30,-1.0472,-0.698132,-0.174533,0.174533,-1.04222,-0.69215,-0.151303,0.142177,-0.996065,-0.334986,-0.696921,0.970668
22,30,-1.0472,-0.698132,-0.174533,0.174533,-1.04222,-0.69215,-0.151303,0.142177,-0.996065,-0.334986,-0.696921,0.970668
22,30,-1.0472,-0.698132,-0.174533,0.174533,-1.04222,-0.69215,-0.151303,0.142177,-0.996065,-0.334986,-0.696921,0.970668
22,30,-1.0472,-0.698132,-0.174533,0.174533,-1.04222,-0.69215,-0.151303,0.142177,-0.996065,-0.334986,-0.696921,0.970668
22,30,-1.0472,-0.698132,-0.174533,0.174533,-1.04222,-0.69215,-0.151303,0.142177,-0.996065,-0.334986,-0.696921,0.970668
22,30,-1.0472,-0.698132,-0.174533,0.174533,-1.04222,-0.69215,-0.151303,0.142177,-0.996065,-0.334986,-0.696921,0.970668
22,30,-1.0472,-0.698132,-0.174533,0.174533,-1.04222,-0.69215,-0.151303,0.142177,-0.996065,-0.334986,-0.696921,0.970668
22,30,-1.0472,-0.698132,-0.174533,0.174533,-1.04222,-0.69215,-0.151303,0.142177,-0.996065,-0.334986,-0.696921,0.970668
22,30,-1.0472,-0.698132,-0.174533,0.174533,-1.04222,-0.69215,-0.151303,0.142177,-0.996065,-0.334986,-0.69692,0.970649
22,30,-1.0472,-0.698132,-0.174533,0.174533,-1.04222,-0.69215,-0.151303,0.142177,-0.996065,-0.334986,-0.69692,0.970649
22,30,-1.0472,-0.698132,-0.174533,0.174533,-1.04222,-0.69215,-0.151303,0.142177,-0.996065,-0.334986,-0.69692,0.970649
22,30,-1.0472,-0.698132,-0.174533,0.174533,-1.04222,-0.69215,-0.151303,0.142177,-0.996065,-0.334986,-0.69692,0.970649
22,30,-1.0472,-0.698132,-0.174533,0.174533,-1.04222,-0.69215,-0.151303,0.142177,-0.996065,-0.334986,-0.69692,0.970649
22,30,-1.0472,-0.698132,-0.174533,0.174533,-1.04222,-0.69215,-0.151303,0.142177,-0.996065,-0.334986,-0.69692,0.970649
22,30,-1.0472,-0.698132,-0.174533,0.174533,-1.04222,-0.69215,-0.151303,0.142177,-0.996065,-0.334986,-0.69692,0.970649
22,30,-1.0472,-0.698132,-0.174533,0.174533,-1.04222,-0.69215,-0.151303,0.142177,-0.996065,-0.334986,-0.69692,0.970649
22,30,-1.0472,-0.698132,-0.174533,0.174533,-1.04222,-0.69215,-0.151303,0.142177,-0.996065,-0.334986,-0.69692,0.970649
22,30,-1.0472,-0.698132,-0.174533,0.174533,-1.04222,-0.69215,-0.151303,0.142177,-0.996065,-0.334986,-0.69692,0.970649
22,30,-1.0472,-0.698132,-0.174533,0.174533,-1.04222,-0.69215,-0.151303,0.142177,-0.996065,-0.334986,-0.69692,0.970649
22,30,-1.0472,-0.698132,-0.174533,0.174533,-1.04222,-0.69215,-0.151303,0.142177,-0.996065,-0.334986,-0.69692,0.970649
22,30,-1.0472,-0.698132,-0.174533,0.174533,-1.04222,-0.69215,-0.151303,0.142177,-0.996065,-0.334986,-0.69692,0.970649
22,30,-1.0472,-0.698132,-0.174533,0.174533,-1.04222,-0.69215,-0.151303,0.142177,-0.996065,-0.334986,-0.69692,0.970649
22,30,-1.0472,-0.698132,-0.174533,0.174533,-1.04222,-0.69215,-0.151303,0.142177,-0.996065,-0.334986,-0.69692,0.970649
22,30,-1.0472,-0.698132,-0.174533,0.174533,-1.04222,-0.69215,-0.151303,0.142177,-0.996065,-0.334986,-0.69692,0.970649
22,30,-1.0472,-0.698132,-0.174533,0.174533,-1.04222,-0.69215,-0.151303,0.142177,-0.996065,-0.334986,-0.69692,0.970649
22,30,-1.0472,-0.698132,-0.174533,0.174533,-1.04222,-0.69215,-0.151303,0.142177,-0.996065,-0.334986,-0.69692,0.970649
22,30,-1.0472,-0.698132,-0.174533,0.174533,-1.04222,-0.69215,-0.151303,0.142177,-0.996065,-0.334986,-0.69692,0.970649
22,30,-1.0472,-0.698132,-0.174533,0.174533,-1.04222,-0.69215,-0.151303,0.142177,-0.996065,-0.334986,-0.69692,0.970649
22,30,-1.0472,-0.698132,-0.174533,0.174533,-1.04222,-0.69215,-0.151303,0.142177,-0.996065,-0.334986,-0.69692,0.970649
22,30,-1.0472,-0.698132,-0.174533,0.174533,-1.04222,-0.69215,-0.151303,0.142177,-0.996065,-0.334986,-0.69692,0.970649
22,30,-1.0472,-0.698132,-0.174533,0.174533,-1.04222,-0.69215,-0.151303,0.142177,-0.996065,-0.334986,-0.69692,0.970649
22,30,-1.0472,-0.698132,-0.174533,0.174533,-1.04222,-0.69215,-0.151303,0.142177,-0.996065,-0.334986,-0.69692,0.970649
22,30,-1.0472,-0.698132,-0.174533,0.174533,-1.04222,-0.69215,-0.151303,0.142177,-0.996065,-0.334986,-0.69692,0.970649
22,30,-1.0472,-0.698132,-0.174533,0.174533,-1.04222,-0.69215,-0.151303,0.142177,-0.996065,-0.334986,-0.69692,0.970649
22,30,-1.0472,-0.698132,-0.174533,0.174533,-1.04222,-0.69215,-0.151303,0.142177,-0.996065,-0.334986,-0.69692,0.970649
22,30,-1.0472,-0.698132,-0.174533,0.174533,-1.04222,-0.69215,-0.151303,0.142177,-0.996065,-0.334986,-0.69692,0.970649
22,30,-1.0472,-0.698132,-0.174533,0.174533,-1.04222,-0.69215,-0.151303,0.142177,-0.996065,-0.334986,-0.69692,0.970649
22,30,-1.0472,-0.698132,-0.174533,0.174533,-1.04222,-0.69215,-0.151303,0.142177,-0.996065,-0.334986,-0.69692,0.970649
22,30,-1.0472,-0.698132,-0.174533,0.174533,-1.04222,-0.69215,-0.151303,0.142177,-0.996065,-0.334986,-0.69692,0.970649
22,30,-1.0472,-0.698132,-0.174533,0.174533,-1.04222,-0.69215,-0.151303,0.142177,-0.996065,-0.334986,-0.69692,0.970649
22,30,-1.0472,-0.698132,-0.174533,0.174533,-1.04222,-0.69215,-0.151303,0.142177,-0.996065,-0.334986,-0.69692,0.970649
22,30,-1.0472,-0.698132,-0.174533,0.174533,-1.04222,-0.69215,-0.151303,0.142177,-0.996065,-0.334986,-0.69692,0.970649
22,30,-1.0472,-0.698132,-0.174533,0.174533,-1.04222,-0.69215,-0.151303,0.142177,-0.996065,-0.334986,-0.69692,0.970649
22,30,-1.0472,-0.698132,-0.174533,0.174533,-1.04222,-0.69215,-0.151303,0.142177,-0.996065,-0.334986,-0.69692,0.970649
22,30,-1.0472,-0.698132,-0.174533,0.174533,-1.04222,-0.69215,-0.151303,0.142177,-0.996065,-0.334986,-0.69692,0.970649
22,30,-1.0472,-0.698132,-0.174533,0.174533,-1.04222,-0.69215,-0.151303,0.142177,-0.996065,-0.334986,-0.69692,0.970649
22,30,-1.0472,-0.698132,-0.174533,0.174533,-1.04222,-0.69215,-0.151303,0.142177,-0.996065,-0.334986,-0.69692,0.970649
22,30,-1.0472,-0.698132,-0.174533,0.174533,-1.04222,-0.69215,-0.151303,0.142177,-0.996065,-0.334986,-0.69692,0.970649
22,30,-1.0472,-0.698132,-0.174533,0.174533,-1.04222,-0.69215,-0.151303,0.142177,-0.996065,-0.334986,-0.69692,0.970649
22,30,-1.0472,-0.698132,-0.174533,0.174533,-1.04222,-0.69215,-0.151303,0.142177,-0.996065,-0.334986,-0.696888,0.970677
22,30,-1.0472,-0.698132,-0.174533,0.174533,-1.04222,-0.69215,-0.151303,0.142177,-0.996065,-0.334986,-0.696888,0.970677
22,30,-1.0472,-0.698132,-0.174533,0.174533,-1.04222,-0.69215,-0.151303,0.142177,-0.996065,-0.334986,-0.696888,0.970677
22,30,-1.0472,-0.698132,-0.174533,0.174533,-1.04222,-0.69215,-0.151303,0.142177,-0.996065,-0.334986,-0.696888,0.970677
22,30,-1.0472,-0.698132,-0.174533,0.174533,-1.04222,-0.69215,-0.151303,0.142177,-0.996065,-0.334986,-0.696888,0.970677
22,30,-1.0472,-0.698132,-0.174533,0.174533,-1.04222,-0.69215,-0.151303,0.142177,-0.996065,-0.334986,-0.696888,0.970677
22,30,-1.0472,-0.698132,-0.174533,0.174533,-1.04222,-0.69215,-0.151303,0.142177,-0.996065,-0.334986,-0.696888,0.970677
22,30,-1.0472,-0.698132,-0.174533,0.174533,-1.04222,-0.69215,-0.151303,0.142177,-0.996065,-0.334986,-0.696888,0.970677
22,30,-1.0472,-0.698132,-0.174533,0.174533,-1.04222,-0.69215,-0.151303,0.142177,-0.996065,-0.334986,-0.696888,0.970677
22,30,-1.0472,-0.698132,-0.174533,0.174533,-1.04222,-0.69215,-0.151303,0.142177,-0.996065,-0.334986,-0.696888,0.970677
22,30,-1.0472,-0.698132,-0.174533,0.174533,-1.04222,-0.69215,-0.151303,0.142177,-0.996065,-0.334986,-0.696888,0.970677
22,30,-1.0472,-0.698132,-0.174533,0.174533,-1.04222,-0.69215,-0.151303,0.142177,-0.996065,-0.334986,-0.696888,0.970677
22,30,-1.0472,-0.698132,-0.174533,0.174533,-1.04222,-0.69215,-0.151303,0.142177,-0.996065,-0.334986,-0.696888,0.970677
22,30,-1.0472,-0.698132,-0.174533,0.174533,-1.04222,-0.69215,-0.151303,0.142177,-0.996065,-0.334986,-0.696888,0.970677
22,30,-1.0472,-0.698132,-0.174533,0.174533,-1.04222,-0.69215,-0.151303,0.142177,-0.996065,-0.334986,-0.696888,0.970677
22,30,-1.0472,-0.698132,-0.174533,0.174533,-1.04222,-0.69215,-0.151303,0.142177,-0.996065,-0.334986,-0.696888,0.970677
22,30,-1.0472,-0.698132,-0.174533,0.174533,-1.04222,-0.69215,-0.151303,0.142177,-0.996065,-0.334986,-0.696888,0.970677
22,30,-1.0472,-0.698132,-0.174533,0.174533,-1.04222,-0.69215,-0.151303,0.142177,-0.996065,-0.334986,-0.696888,0.970677
22,30,-1.0472,-0.698132,-0.174533,0.174533,-1.04222,-0.69215,-0.151303,0.142177,-0.996065,-0.334986,-0.696888,0.970677
22,30,-1.0472,-0.698132,-0.174533,0.174533,-1.04222,-0.69215,-0.151303,0.142177,-0.996065,-0.334986,-0.696888,0.970677
22,30,-1.0472,-0.698132,-0.174533,0.174533,-1.04222,-0.69215,-0.151303,0.142177,-0.996065,-0.334986,-0.696888,0.970677
22,30,-1.0472,-0.698132,-0.174533,0.174533,-1.04222,-0.69215,-0.151303,0.142177,-0.996065,-0.334986,-0.696888,0.970677
22,30,-1.0472,-0.698132,-0.174533,0.174533,-1.04222,-0.69215,-0.151303,0.142177,-0.996065,-0.334986,-0.696888,0.970677
22,30,-1.0472,-0.698132,-0.174533,0.174533,-1.04222,-0.69215,-0.151303,0.142177,-0.996065,-0.334986,-0.696888,0.970677
22,30,-1.0472,-0.698132,-0.174533,0.174533,-1.04222,-0.69215,-0.151303,0.142177,-0.996065,-0.334986,-0.696888,0.970677
22,30,-1.0472,-0.698132,-0.174533,0.174533,-1.04222,-0.69215,-0.151303,0.142177,-0.996065,-0.334986,-0.696888,0.970677
22,30,-1.0472,-0.698132,-0.174533,0.174533,-1.04222,-0.69215,-0.151303,0.142177,-0.996065,-0.334986,-0.696888,0.970677
22,30,-1.0472,-0.698132,-0.174533,0.174533,-1.04222,-0.69215,-0.151303,0.142177,-0.996065,-0.334986,-0.696888,0.970677
22,30,-1.0472,-0.698132,-0.174533,0.174533,-1.04222,-0.69215,-0.151303,0.142177,-0.996065,-0.334986,-0.696888,0.970677
22,30,-1.0472,-0.698132,-0.174533,0.174533,-1.04222,-0.69215,-0.151303,0.142177,-0.996065,-0.334986,-0.696888,0.970677
22,30,-1.0472,-0.698132,-0.174533,0.174533,-1.04222,-0.69215,-0.151303,0.142177,-0.996065,-0.334986,-0.696888,0.970677
22,30,-1.0472,-0.698132,-0.174533,0.174533,-1.04222,-0.69215,-0.151303,0.142177,-0.996065,-0.334986,-0.696888,0.970677
22,30,-1.0472,-0.698132,-0.174533,0.174533,-1.04222,-0.69215,-0.151303,0.142177,-0.996065,-0.334986,-0.696888,0.970677
22,30,-1.0472,-0.698132,-0.174533,0.174533,-1.04222,-0.69215,-0.151303,0.142177,-0.996065,-0.334986,-0.696888,0.970677
22,30,-1.0472,-0.698132,-0.174533,0.174533,-1.04222,-0.69215,-0.151303,0.142177,-0.996065,-0.334986,-0.696888,0.970677
22,30,-1.0472,-0.698132,-0.174533,0.174533,-1.04222,-0.69215,-0.151303,0.142177,-0.996065,-0.334986,-0.696888,0.970677
22,30,-1.0472,-0.698132,-0.174533,0.174533,-1.04222,-0.69215,-0.151303,0.142177,-0.996065,-0.334986,-0.696888,0.970677
22,30,-1.0472,-0.698132,-0.174533,0.174533,-1.04222,-0.69215,-0.151303,0.142177,-0.996065,-0.334986,-0.696888,0.970677
22,30,-1.0472,-0.698132,-0.174533,0.174533,-1.04222,-0.69215,-0.151303,0.142177,-0.996065,-0.334986,-0.696888,0.970677
22,30,-1.0472,-0.698132,-0.174533,0.174533,-1.04222,-0.69215,-0.151303,0.142177,-0.996065,-0.334986,-0.696888,0.970677
22,30,-1.0472,-0.698132,-0.174533,0.174533,-1.04222,-0.69215,-0.151303,0.142177,-0.996065,-0.334986,-0.696888,0.970677
22,30,-1.0472,-0.698132,-0.174533,0.174533,-1.04222,-0.69215,-0.151303,0.142177,-0.996065,-0.334986,-0.696888,0.970677
22,30,-1.0472,-0.698132,-0.174533,0.174533,-1.04222,-0.69215,-0.151303,0.142177,-0.996065,-0.334986,-0.696888,0.970677
22,30,-1.0472,-0.698132,-0.174533,0.174533,-1.04222,-0.69215,-0.151303,0.142177,-0.996065,-0.334986,-0.696888,0.970677
22,30,-1.0472,-0.698132,-0.174533,0.174533,-1.04222,-0.69215,-0.151303,0.142177,-0.996065,-0.334986,-0.696888,0.970677
22,30,-1.0472,-0.698132,-0.174533,0.174533,-1.04222,-0.69215,-0.151303,0.142177,-0.996065,-0.334986,-0.696888,0.970677
22,30,-1.0472,-0.698132,-0.174533,0.174533,-1.04222,-0.69215,-0.151303,0.142177,-0.996065,-0.334986,-0.696888,0.970677
22,30,-1.0472,-0.698132,-0.174533,0.174533,-1.04222,-0.69215,-0.151303,0.142177,-0.996065,-0.334986,-0.696888,0.970677
22,30,-1.0472,-0.698132,-0.174533,0.174533,-1.04222,-0.69215,-0.151303,0.142177,-0.996065,-0.334986,-0.696888,0.970677
22,30,-1.0472,-0.698132,-0.174533,0.174533,-1.04222,-0.69215,-0.151303,0.142177,-0.996065,-0.334986,-0.696888,0.970677
22,30,-1.0472,-0.698132,-0.174533,0.174533,-1.04222,-0.69215,-0.151303,0.142177,-0.996065,-0.334986,-0.696888,0.970677
22,30,-1.0472,-0.698132,-0.174533,0.174533,-1.04222,-0.69215,-0.151303,0.142177,-0.996065,-0.334986,-0.696888,0.970677
22,30,-1.0472,-0.698132,-0.174533,0.174533,-1.04222,-0.69215,-0.151303,0.142177,-0.996065,-0.334986,-0.696888,0.970677
22,30,-1.0472,-0.698132,-0.174533,0.174533,-1.04222,-0.69215,-0.151303,0.142177,-0.996065,-0.334986,-0.696888,0.970677
22,30,-1.0472,-0.698132,-0.174533,0.174533,-1.04222,-0.69215,-0.151303,0.142177,-0.996065,-0.334986,-0.696888,0.970677
22,30,-1.0472,-0.698132,-0.174533,0.174533,-1.04222,-0.69215,-0.151303,0.142177,-0.996065,-0.334986,-0.696888,0.970677
22,30,-1.0472,-0.698132,-0.174533,0.174533,-1.04222,-0.69215,-0.151303,0.142177,-0.996065,-0.334986,-0.696888,0.970677
22,30,-1.0472,-0.698132,-0.174533,0.174533,-1.04222,-0.69215,-0.151303,0.142177,-0.996065,-0.334986,-0.696888,0.970677
22,30,-1.0472,-0.698132,-0.174533,0.174533,-1.04222,-0.69215,-0.151303,0.142177,-0.996065,-0.334986,-0.696888,0.970677
22,30,-1.0472,-0.698132,-0.174533,0.174533,-1.04222,-0.69215,-0.151303,0.142177,-0.996065,-0.334986,-0.696888,0.970677
22,30,-1.0472,-0.698132,-0.174533,0.174533,-1.04222,-0.69215,-0.151303,0.142177,-0.996065,-0.334986,-0.696888,0.970677
22,30,-1.0472,-0.698132,-0.174533,0.174533,-1.04222,-0.69215,-0.151303,0.142177,-0.996065,-0.334986,-0.696888,0.970677
22,30,-1.0472,-0.698132,-0.174533,0.174533,-1.04222,-0.69215,-0.151303,0.142177,-0.996065,-0.334986,-0.696888,0.970677
22,30,-1.0472,-0.698132,-0.174533,0.174533,-1.04222,-0.69215,-0.151303,0.142177,-0.996065,-0.334986,-0.696888,0.970677
22,30,-1.0472,-0.698132,-0.174533,0.174533,-1.04222,-0.69215,-0.151303,0.142177,-0.996065,-0.334986,-0.696888,0.970677
22,30,-1.0472,-0.698132,-0.174533,0.174533,-1.04222,-0.69215,-0.151303,0.142177,-0.996065,-0.334986,-0.696888,0.970677
22,30,-1.0472,-0.698132,-0.174533,0.174533,-1.04222,-0.69215,-0.151303,0.142177,-0.996065,-0.334986,-0.696888,0.970677
22,30,-1.0472,-0.698132,-0.174533,0.174533,-1.04222,-0.69215,-0.151303,0.142177,-0.996065,-0.334986,-0.696888,0.970677
22,30,-1.0472,-0.698132,-0.174533,0.174533,-1.04222,-0.69215,-0.151303,0.142177,-0.996065,-0.334986,-0.696888,0.970677
22,30,-1.0472,-0.698132,-0.174533,0.174533,-1.04222,-0.69215,-0.151303,0.142177,-0.996065,-0.334986,-0.696888,0.970677
22,30,-1.0472,-0.698132,-0.174533,0.174533,-1.04222,-0.69215,-0.151303,0.142177,-0.996065,-0.334986,-0.696888,0.970677
22,30,-1.0472,-0.698132,-0.174533,0.174533,-1.04222,-0.69215,-0.151303,0.142177,-0.996065,-0.334986,-0.696888,0.970677
22,30,-1.0472,-0.698132,-0.174533,0.174533,-1.04222,-0.69215,-0.151303,0.142177,-0.996065,-0.334986,-0.696888,0.970677
22,30,-1.0472,-0.698132,-0.174533,0.174533,-1.04222,-0.69215,-0.151303,0.142177,-0.996065,-0.334986,-0.696888,0.970677
22,30,-1.0472,-0.698132,-0.174533,0.174533,-1.04222,-0.69215,-0.151303,0.142177,-0.996065,-0.334986,-0.696888,0.970677
22,30,-1.0472,-0.698132,-0.174533,0.174533,-1.04222,-0.69215,-0.151303,0.142177,-0.996065,-0.334986,-0.696888,0.970677
22,30,-1.0472,-0.698132,-0.174533,0.174533,-1.04222,-0.69215,-0.151303,0.142177,-0.996065,-0.334986,-0.696888,0.970677
22,30,-1.0472,-0.698132,-0.174533,0.174533,-1.04222,-0.69215,-0.151303,0.142177,-0.996065,-0.334986,-0.696888,0.970677
22,30,-1.0472,-0.698132,-0.174533,0.174533,-1.04222,-0.69215,-0.151303,0.142177,-0.996065,-0.334986,-0.696888,0.970677
22,30,-1.0472,-0.698132,-0.174533,0.174533,-1.04222,-0.69215,-0.151303,0.142177,-0.996065,-0.334986,-0.696888,0.970677
22,30,-1.0472,-0.698132,-0.174533,0.174533,-1.04222,-0.69215,-0.151303,0.142177,-0.996065,-0.334986,-0.696888,0.970677
22,30,-1.0472,-0.698132,-0.174533,0.174533,-1.04222,-0.69215,-0.151303,0.142177,-0.996065,-0.334986,-0.696888,0.970677
22,30,-1.0472,-0.698132,-0.174533,0.174533,-1.04222,-0.69215,-0.151303,0.142177,-0.996065,-0.334986,-0.696888,0.970677
22,30,-1.0472,-0.698132,-0.174533,0.174533,-1.04222,-0.69215,-0.151303,0.142177,-0.996065,-0.334986,-0.696888,0.970677
22,30,-1.0472,-0.698132,-0.174533,0.174533,-1.04222,-0.69215,-0.151303,0.142177,-0.996065,-0.334986,-0.696888,0.970677
22,30,-1.0472,-0.698132,-0.174533,0.174533,-1.04222,-0.69215,-0.151303,0.142177,-0.996065,-0.334986,-0.696888,0.970677
22,30,-1.0472,-0.698132,-0.174533,0.174533,-1.04222,-0.69215,-0.151303,0.142177,-0.996065,-0.334986,-0.696888,0.970677
22,30,-1.0472,-0.698132,-0.174533,0.174533,-1.04222,-0.69215,-0.151303,0.142177,-0.996065,-0.334986,-0.696888,0.970677
22,30,-1.0472,-0.698132,-0.174533,0.174533,-1.04222,-0.69215,-0.151303,0.142177,-0.996065,-0.334986,-0.696888,0.970677
22,30,-1.0472,-0.698132,-0.174533,0.174533,-1.04222,-0.69215,-0.151303,0.142177,-0.996065,-0.334986,-0.696888,0.970677
22,30,-1.0472,-0.698132,-0.174533,0.174533,-1.04222,-0.69215,-0.151303,0.142177,-0.996065,-0.334986,-0.696888,0.970677
22,30,-1.0472,-0.698132,-0.174533,0.174533,-1.04222,-0.69215,-0.151303,0.142177,-0.996065,-0.334986,-0.696888,0.970677
22,30,-1.0472,-0.698132,-0.174533,0.174533,-1.04222,-0.69215,-0.151303,0.142177,-0.996065,-0.334986,-0.696888,0.970677
22,30,-1.0472,-0.698132,-0.174533,0.174533,-1.04222,-0.69215,-0.151303,0.142177,-0.996065,-0.334986,-0.696888,0.970677
22,30,-1.0472,-0.698132,-0.174533,0.174533,-1.04222,-0.69215,-0.151303,0.142177,-0.996065,-0.334986,-0.696888,0.970677
22,30,-1.0472,-0.698132,-0.174533,0.174533,-1.04222,-0.69215,-0.151303,0.142177,-0.996065,-0.334986,-0.696888,0.970677
22,30,-1.0472,-0.698132,-0.174533,0.174533,-1.04222,-0.69215,-0.151303,0.142177,-0.996065,-0.334986,-0.696888,0.970677
22,30,-1.0472,-0.698132,-0.174533,0.174533,-1.04222,-0.69215,-0.151303,0.142177,-0.996065,-0.334986,-0.696888,0.970677
22,30,-1.0472,-0.698132,-0.174533,0.174533,-1.04222,-0.69215,-0.151303,0.142177,-0.996065,-0.334986,-0.696888,0.970677
22,30,-1.0472,-0.698132,-0.174533,0.174533,-1.04222,-0.69215,-0.151303,0.142177,-0.996065,-0.334986,-0.696888,0.970677
22,30,-1.0472,-0.698132,-0.174533,0.174533,-1.04222,-0.69215,-0.151303,0.142177,-0.996065,-0.334986,-0.696888,0.970677
22,30,-1.0472,-0.698132,-0.174533,0.174533,-1.04222,-0.69215,-0.151303,0.142177,-0.996065,-0.334986,-0.696888,0.970677
22,30,-1.0472,-0.698132,-0.174533,0.174533,-1.04222,-0.69215,-0.151303,0.142177,-0.996065,-0.334986,-0.696888,0.970677
22,30,-1.0472,-0.698132,-0.174533,0.174533,-1.04222,-0.69215,-0.151303,0.142177,-0.996065,-0.334986,-0.696888,0.970677
22,30,-1.0472,-0.698132,-0.174533,0.174533,-1.04222,-0.69215,-0.151303,0.142177,-0.996065,-0.334986,-0.696888,0.970677
22,30,-1.0472,-0.698132,-0.174533,0.174533,-1.04222,-0.69215,-0.151303,0.142177,-0.996065,-0.334986,-0.696888,0.970677
22,30,-1.0472,-0.698132,-0.174533,0.174533,-1.04222,-0.69215,-0.151303,0.142177,-0.996065,-0.334986,-0.696888,0.970677
22,30,-1.0472,-0.698132,-0.174533,0.174533,-1.04222,-0.69215,-0.151303,0.142177,-0.996065,-0.334986,-0.696888,0.970677
22,30,-1.0472,-0.698132,-0.174533,0.174533,-1.04222,-0.69215,-0.151303,0.142177,-0.996065,-0.334986,-0.696888,0.970677
22,30,-1.0472,-0.698132,-0.174533,0.174533,-1.04222,-0.69215,-0.151303,0.142177,-0.996065,-0.334986,-0.696888,0.970677
22,30,-1.0472,-0.698132,-0.174533,0.174533,-1.04222,-0.69215,-0.151303,0.142177,-0.996065,-0.334986,-0.696888,0.970677
22,30,-1.0472,-0.698132,-0.174533,0.174533,-1.04222,-0.69215,-0.151303,0.142177,-0.996065,-0.334986,-0.696888,0.970677
22,30,-1.0472,-0.698132,-0.174533,0.174533,-1.04222,-0.69215,-0.151303,0.142177,-0.996065,-0.334986,-0.696888,0.970677
22,30,-1.0472,-0.698132,-0.174533,0.174533,-1.04222,-0.69215,-0.151303,0.142177,-0.996065,-0.334986,-0.696888,0.970677
22,30,-1.0472,-0.698132,-0.174533,0.174533,-1.04222,-0.69215,-0.151303,0.142177,-0.996065,-0.334986,-0.696888,0.970677
22,30,-1.0472,-0.698132,-0.174533,0.174533,-1.04222,-0.69215,-0.151303,0.142177,-0.996065,-0.334986,-0.696888,0.970677
22,30,-1.0472,-0.698132,-0.174533,0.174533,-1.04222,-0.69215,-0.151303,0.142177,-0.996065,-0.334986,-0.696888,0.970677
22,30,-1.0472,-0.698132,-0.174533,0.174533,-1.04222,-0.69215,-0.151303,0.142177,-0.996065,-0.334986,-0.696888,0.970677
22,30,-1.0472,-0.698132,-0.174533,0.174533,-1.04222,-0.69215,-0.151303,0.142177,-0.996065,-0.334986,-0.696888,0.970677
22,30,-1.0472,-0.698132,-0.174533,0.174533,-1.04222,-0.69215,-0.151303,0.142177,-0.996065,-0.334986,-0.696888,0.970677
22,30,-1.0472,-0.698132,-0.174533,0.174533,-1.04222,-0.69215,-0.151303,0.142177,-0.996065,-0.334986,-0.696888,0.970677
22,30,-1.0472,-0.698132,-0.174533,0.174533,-1.04222,-0.69215,-0.151303,0.142177,-0.996065,-0.334986,-0.696888,0.970677
22,30,-1.0472,-0.698132,-0.174533,0.174533,-1.04222,-0.69215,-0.151303,0.142177,-0.996065,-0.334986,-0.696888,0.970677
22,30,-1.0472,-0.698132,-0.174533,0.174533,-1.04222,-0.69215,-0.151303,0.142177,-0.996065,-0.334986,-0.696888,0.970677
22,30,-1.0472,-0.698132,-0.174533,0.174533,-1.04222,-0.69215,-0.151303,0.142177,-0.996065,-0.334986,-0.696888,0.970677
22,30,-1.0472,-0.698132,-0.174533,0.174533,-1.04222,-0.69215,-0.151303,0.142177,-0.996065,-0.334986,-0.696888,0.970677
22,30,-1.0472,-0.698132,-0.174533,0.174533,-1.04222,-0.69215,-0.151303,0.142177,-0.996065,-0.334986,-0.696888,0.970677
22,30,-1.0472,-0.698132,-0.174533,0.174533,-1.04222,-0.69215,-0.151303,0.142177,-0.996065,-0.334986,-0.696888,0.970677
22,30,-1.0472,-0.698132,-0.174533,0.174533,-1.04222,-0.69215,-0.151303,0.142177,-0.996065,-0.334986,-0.696888,0.970677
22,30,-1.0472,-0.698132,-0.174533,0.174533,-1.04222,-0.69215,-0.151303,0.142177,-0.996065,-0.334986,-0.696888,0.970677
22,30,-1.0472,-0.698132,-0.174533,0.174533,-1.04222,-0.69215,-0.151303,0.142177,-0.996065,-0.334986,-0.696888,0.970677
22,30,-1.0472,-0.698132,-0.174533,0.174533,-1.04222,-0.69215,-0.151303,0.142177,-0.996065,-0.334986,-0.696888,0.970677
22,30,-1.0472,-0.698132,-0.174533,0.174533,-1.04222,-0.69215,-0.151303,0.142177,-0.996065,-0.334986,-0.696888,0.970677
22,30,-1.0472,-0.698132,-0.174533,0.174533,-1.04222,-0.69215,-0.151303,0.142177,-0.996065,-0.334986,-0.696888,0.970677
22,30,-1.0472,-0.698132,-0.174533,0.174533,-1.04222,-0.69215,-0.151303,0.142177,-0.996065,-0.334986,-0.696888,0.970677
22,30,-1.0472,-0.698132,-0.174533,0.174533,-1.04222,-0.69215,-0.151303,0.142177,-0.996065,-0.334986,-0.696888,0.970677
22,30,-1.0472,-0.698132,-0.174533,0.174533,-1.04222,-0.69215,-0.151303,0.142177,-0.996065,-0.334986,-0.696888,0.970677
22,30,-1.0472,-0.698132,-0.174533,0.174533,-1.04222,-0.69215,-0.151303,0.142177,-0.996065,-0.334986,-0.696888,0.970677
22,30,-1.0472,-0.698132,-0.174533,0.174533,-1.04222,-0.69215,-0.151303,0.142177,-0.996065,-0.334986,-0.696888,0.970677
22,30,-1.0472,-0.698132,-0.174533,0.174533,-1.04222,-0.69215,-0.151303,0.142177,-0.996065,-0.334986,-0.696888,0.970677
22,30,-1.0472,-0.698132,-0.174533,0.174533,-1.04222,-0.69215,-0.151303,0.142177,-0.996065,-0.334986,-0.696888,0.970677
22,30,-1.0472,-0.698132,-0.174533,0.174533,-1.04222,-0.69215,-0.151303,0.142177,-0.996065,-0.334986,-0.696888,0.970677
22,30,-1.0472,-0.698132,-0.174533,0.174533,-1.04222,-0.69215,-0.151303,0.142177,-0.996065,-0.334986,-0.696888,0.970677
22,30,-1.0472,-0.698132,-0.174533,0.174533,-1.04222,-0.69215,-0.151303,0.142177,-0.996065,-0.334986,-0.696888,0.970677
22,30,-1.0472,-0.698132,-0.174533,0.174533,-1.04222,-0.69215,-0.151303,0.142177,-0.996065,-0.334986,-0.696888,0.970677
22,30,-1.0472,-0.698132,-0.174533,0.174533,-1.04222,-0.69215,-0.151303,0.142177,-0.996065,-0.334986,-0.696888,0.970677
22,30,-1.0472,-0.698132,-0.174533,0.174533,-1.04222,-0.69215,-0.151303,0.142177,-0.996065,-0.334986,-0.696888,0.970677
22,30,-1.0472,-0.698132,-0.174533,0.174533,-1.04222,-0.69215,-0.151303,0.142177,-0.996065,-0.334986,-0.696888,0.970677
22,30,-1.0472,-0.698132,-0.174533,0.174533,-1.04222,-0.69215,-0.151303,0.142177,-0.996065,-0.334986,-0.696888,0.970677
22,30,-1.0472,-0.698132,-0.174533,0.174533,-1.04222,-0.69215,-0.151303,0.142177,-0.996065,-0.334986,-0.696888,0.970677
22,30,-1.0472,-0.698132,-0.174533,0.174533,-1.04222,-0.69215,-0.151303,0.142177,-0.996065,-0.334986,-0.696888,0.970677
22,30,-1.0472,-0.698132,-0.174533,0.174533,-1.04222,-0.69215,-0.151303,0.142177,-0.996065,-0.334986,-0.696888,0.970677
22,30,-1.0472,-0.698132,-0.174533,0.174533,-1.04222,-0.69215,-0.151303,0.142177,-0.996065,-0.334986,-0.696888,0.970677
22,30,-1.0472,-0.698132,-0.174533,0.174533,-1.04222,-0.69215,-0.151303,0.142177,-0.996065,-0.334986,-0.696888,0.970677
22,30,-1.0472,-0.698132,-0.174533,0.174533,-1.04222,-0.69215,-0.151303,0.142177,-0.996065,-0.334986,-0.696888,0.970677
22,30,-1.0472,-0.698132,-0.174533,0.174533,-1.04222,-0.69215,-0.151303,0.142177,-0.996065,-0.334986,-0.696888,0.970677
22,30,-1.0472,-0.698132,-0.174533,0.174533,-1.04222,-0.69215,-0.151303,0.142177,-0.996065,-0.334986,-0.696888,0.970677
22,30,-1.0472,-0.698132,-0.174533,0.174533,-1.04222,-0.69215,-0.151303,0.142177,-0.996065,-0.334986,-0.696888,0.970677
22,30,-1.0472,-0.698132,-0.174533,0.174533,-1.04222,-0.69215,-0.151303,0.142177,-0.996065,-0.334986,-0.696888,0.970677
22,30,-1.0472,-0.698132,-0.174533,0.174533,-1.04222,-0.69215,-0.151303,0.142177,-0.996065,-0.334986,-0.696888,0.970677
22,30,-1.0472,-0.698132,-0.174533,0.174533,-1.04222,-0.69215,-0.151303,0.142177,-0.996065,-0.334986,-0.696888,0.970677
22,30,-1.0472,-0.698132,-0.174533,0.174533,-1.04222,-0.69215,-0.151303,0.142177,-0.996065,-0.334986,-0.696888,0.970677
22,30,-1.0472,-0.698132,-0.174533,0.174533,-1.04222,-0.69215,-0.151303,0.142177,-0.996065,-0.334986,-0.696888,0.970677
22,30,-1.0472,-0.698132,-0.174533,0.174533,-1.04222,-0.69215,-0.151303,0.142177,-0.996065,-0.334986,-0.696888,0.970677
22,30,-1.0472,-0.698132,-0.174533,0.174533,-1.04222,-0.69215,-0.151303,0.142177,-0.996065,-0.334986,-0.696888,0.970677
22,30,-1.0472,-0.698132,-0.174533,0.174533,-1.04222,-0.69215,-0.151303,0.142177,-0.996065,-0.334986,-0.696888,0.970677
22,30,-1.0472,-0.698132,-0.174533,0.174533,-1.04222,-0.69215,-0.151303,0.142177,-0.996065,-0.334986,-0.696888,0.970677
22,30,-1.0472,-0.698132,-0.174533,0.174533,-1.04222,-0.69215,-0.151303,0.142177,-0.996065,-0.334986,-0.696888,0.970677
22,30,-1.0472,-0.698132,-0.174533,0.174533,-1.04222,-0.69215,-0.151303,0.142177,-0.996065,-0.334986,-0.696888,0.970677
22,30,-1.0472,-0.698132,-0.174533,0.174533,-1.04222,-0.69215,-0.151303,0.142177,-0.996065,-0.334986,-0.696888,0.970677
22,30,-1.0472,-0.698132,-0.174533,0.174533,-1.04222,-0.69215,-0.151303,0.142177,-0.996065,-0.334986,-0.696888,0.970677
22,30,-1.0472,-0.698132,-0.174533,0.174533,-1.04222,-0.69215,-0.151303,0.142177,-0.996065,-0.334986,-0.696888,0.970677
22,30,-1.0472,-0.698132,-0.174533,0.174533,-1.04222,-0.69215,-0.151303,0.142177,-0.996065,-0.334986,-0.696888,0.970677
22,30,-1.0472,-0.698132,-0.174533,0.174533,-1.04222,-0.69215,-0.151303,0.142177,-0.996065,-0.334986,-0.696888,0.970677
22,30,-1.0472,-0.698132,-0.174533,0.174533,-1.04222,-0.69215,-0.151303,0.142177,-0.996065,-0.334986,-0.696888,0.970677
22,30,-1.0472,-0.698132,-0.174533,0.174533,-1.04222,-0.69215,-0.151303,0.142177,-0.996065,-0.334986,-0.696888,0.970677
22,30,-1.0472,-0.698132,-0.174533,0.174533,-1.04222,-0.69215,-0.151303,0.142177,-0.996065,-0.334986,-0.696888,0.970677
22,30,-1.0472,-0.698132,-0.174533,0.174533,-1.04222,-0.69215,-0.151303,0.142177,-0.996065,-0.334986,-0.696888,0.970677
22,30,-1.0472,-0.698132,-0.174533,0.174533,-1.04222,-0.69215,-0.151303,0.142177,-0.996065,-0.334986,-0.696888,0.970677
22,30,-1.0472,-0.698132,-0.174533,0.174533,-1.04222,-0.69215,-0.151303,0.142177,-0.996065,-0.334986,-0.696888,0.970677
22,30,-1.0472,-0.698132,-0.174533,0.174533,-1.04222,-0.69215,-0.151303,0.142177,-0.996065,-0.334986,-0.696888,0.970677
22,30,-1.0472,-0.698132,-0.174533,0.174533,-1.04222,-0.69215,-0.151303,0.142177,-0.996065,-0.334986,-0.696888,0.970677
22,30,-1.0472,-0.698132,-0.174533,0.174533,-1.04222,-0.69215,-0.151303,0.142177,-0.996065,-0.334986,-0.696888,0.970677
22,30,-1.0472,-0.698132,-0.174533,0.174533,-1.04222,-0.69215,-0.151303,0.142177,-0.996065,-0.334986,-0.696888,0.970677
22,30,-1.0472,-0.698132,-0.174533,0.174533,-1.04222,-0.69215,-0.151303,0.142177,-0.996065,-0.334986,-0.696888,0.970677
22,30,-1.0472,-0.698132,-0.174533,0.174533,-1.04222,-0.69215,-0.151303,0.142177,-0.996065,-0.334986,-0.696888,0.970677
22,30,-1.0472,-0.698132,-0.174533,0.174533,-1.04222,-0.69215,-0.151303,0.142177,-0.996065,-0.334986,-0.696888,0.970677
22,30,-1.0472,-0.698132,-0.174533,0.174533,-1.04222,-0.69215,-0.151303,0.142177,-0.996065,-0.334986,-0.696888,0.970677
22,30,-1.0472,-0.698132,-0.174533,0.174533,-1.04222,-0.69215,-0.151303,0.142177,-0.996065,-0.334986,-0.696888,0.970677
22,30,-1.0472,-0.698132,-0.174533,0.174533,-1.04222,-0.69215,-0.151303,0.142177,-0.996065,-0.334986,-0.696888,0.970677
22,30,-1.0472,-0.698132,-0.174533,0.174533,-1.04222,-0.69215,-0.151303,0.142177,-0.996065,-0.334986,-0.696888,0.970677
22,30,-1.0472,-0.698132,-0.174533,0.174533,-1.04222,-0.69215,-0.151303,0.142177,-0.996065,-0.334986,-0.696888,0.970677
22,30,-1.0472,-0.698132,-0.174533,0.174533,-1.04222,-0.69215,-0.151303,0.142177,-0.996065,-0.334986,-0.696888,0.970677
22,30,-1.0472,-0.698132,-0.174533,0.174533,-1.04222,-0.69215,-0.151303,0.142177,-0.996065,-0.334986,-0.696888,0.970677
22,30,-1.0472,-0.698132,-0.174533,0.174533,-1.04222,-0.69215,-0.151303,0.142177,-0.996065,-0.334986,-0.696888,0.970677
22,30,-1.0472,-0.698132,-0.174533,0.174533,-1.04222,-0.69215,-0.151303,0.142177,-0.996065,-0.334986,-0.696888,0.970677
22,30,-1.0472,-0.698132,-0.174533,0.174533,-1.04222,-0.69215,-0.151303,0.142177,-0.996065,-0.334986,-0.696888,0.970677
22,30,-1.0472,-0.698132,-0.174533,0.174533,-1.04222,-0.69215,-0.151303,0.142177,-0.996065,-0.334986,-0.696888,0.970677
22,30,-1.0472,-0.698132,-0.174533,0.174533,-1.04222,-0.69215,-0.151303,0.142177,-0.996065,-0.334986,-0.696888,0.970677
22,30,-1.0472,-0.698132,-0.174533,0.174533,-1.04222,-0.69215,-0.151303,0.142177,-0.996065,-0.334986,-0.696888,0.970677
22,30,-1.0472,-0.698132,-0.174533,0.174533,-1.04222,-0.69215,-0.151303,0.142177,-0.996065,-0.334986,-0.696888,0.970677
22,30,-1.0472,-0.698132,-0.174533,0.174533,-1.04222,-0.69215,-0.151303,0.142177,-0.996065,-0.334986,-0.696888,0.970677
22,30,-1.0472,-0.698132,-0.174533,0.174533,-1.04222,-0.69215,-0.151303,0.142177,-0.996065,-0.334986,-0.696888,0.970677
22,30,-1.0472,-0.698132,-0.174533,0.174533,-1.04222,-0.69215,-0.151303,0.142177,-0.996065,-0.334986,-0.696888,0.970677
22,30,-1.0472,-0.698132,-0.174533,0.174533,-1.04222,-0.69215,-0.151303,0.142177,-0.996065,-0.334986,-0.696888,0.970677
22,30,-1.0472,-0.698132,-0.174533,0.174533,-1.04222,-0.69215,-0.151303,0.142177,-0.996065,-0.334986,-0.696888,0.970677
22,30,-1.0472,-0.698132,-0.174533,0.174533,-1.04222,-0.69215,-0.151303,0.142177,-0.996065,-0.334986,-0.696888,0.970677
22,30,-1.0472,-0.698132,-0.174533,0.174533,-1.04222,-0.69215,-0.151303,0.142177,-0.996065,-0.334986,-0.696888,0.970677
22,30,-1.0472,-0.698132,-0.174533,0.174533,-1.04222,-0.69215,-0.151303,0.142177,-0.996065,-0.334986,-0.696888,0.970677
22,30,-1.0472,-0.698132,-0.174533,0.174533,-1.04222,-0.69215,-0.151303,0.142177,-0.996065,-0.334986,-0.696888,0.970677
22,30,-1.0472,-0.698132,-0.174533,0.174533,-1.04222,-0.69215,-0.151303,0.142177,-0.996065,-0.334986,-0.696888,0.970677
22,30,-1.0472,-0.698132,-0.174533,0.174533,-1.04222,-0.69215,-0.151303,0.142177,-0.996065,-0.334986,-0.696888,0.970677
22,30,-1.0472,-0.698132,-0.174533,0.174533,-1.04222,-0.69215,-0.151303,0.142177,-0.996065,-0.334986,-0.696888,0.970677
22,30,-1.0472,-0.698132,-0.174533,0.174533,-1.04222,-0.69215,-0.151303,0.142177,-0.996065,-0.334986,-0.696888,0.970677
22,30,-1.0472,-0.698132,-0.174533,0.174533,-1.04222,-0.69215,-0.151303,0.142177,-0.996065,-0.334986,-0.696888,0.970677
22,30,-1.0472,-0.698132,-0.174533,0.174533,-1.04222,-0.69215,-0.151303,0.142177,-0.996065,-0.334986,-0.696888,0.970677
22,30,-1.0472,-0.698132,-0.174533,0.174533,-1.04222,-0.69215,-0.151303,0.142177,-0.996065,-0.334986,-0.696888,0.970677
22,30,-1.0472,-0.698132,-0.174533,0.174533,-1.04222,-0.69215,-0.151303,0.142177,-0.996065,-0.334986,-0.696888,0.970677
22,30,-1.0472,-0.698132,-0.174533,0.174533,-1.04222,-0.69215,-0.151303,0.142177,-0.996065,-0.334986,-0.696888,0.970677
22,30,-1.0472,-0.698132,-0.174533,0.174533,-1.04222,-0.69215,-0.151303,0.142177,-0.996065,-0.334986,-0.696888,0.970677
22,30,-1.0472,-0.698132,-0.174533,0.174533,-1.04222,-0.69215,-0.151303,0.142177,-0.996065,-0.334986,-0.696888,0.970677
22,30,-1.0472,-0.698132,-0.174533,0.174533,-1.04222,-0.69215,-0.151303,0.142177,-0.996065,-0.334986,-0.696888,0.970677
22,30,-1.0472,-0.698132,-0.174533,0.174533,-1.04222,-0.69215,-0.151303,0.142177,-0.996065,-0.334986,-0.696888,0.970677
22,30,-1.0472,-0.698132,-0.174533,0.174533,-1.04222,-0.69215,-0.151303,0.142177,-0.996065,-0.334986,-0.696888,0.970677
22,30,-1.0472,-0.698132,-0.174533,0.174533,-1.04222,-0.69215,-0.151303,0.142177,-0.996065,-0.334986,-0.696888,0.970677
22,30,-1.0472,-0.698132,-0.174533,0.174533,-1.04222,-0.69215,-0.151303,0.142177,-0.996065,-0.334986,-0.696888,0.970677
22,30,-1.0472,-0.698132,-0.174533,0.174533,-1.04222,-0.69215,-0.151303,0.142177,-0.996065,-0.334986,-0.696888,0.970677
22,30,-1.0472,-0.698132,-0.174533,0.174533,-1.04222,-0.69215,-0.151303,0.142177,-0.996065,-0.334986,-0.696888,0.970677
22,30,-1.0472,-0.698132,-0.174533,0.174533,-1.04222,-0.69215,-0.151303,0.142177,-0.996065,-0.334986,-0.696888,0.970677
22,30,-1.0472,-0.698132,-0.174533,0.174533,-1.04222,-0.69215,-0.151303,0.142177,-0.996065,-0.334986,-0.696888,0.970677
22,30,-1.0472,-0.698132,-0.174533,0.174533,-1.04222,-0.69215,-0.151303,0.142177,-0.996065,-0.334986,-0.696888,0.970677
22,30,-1.0472,-0.698132,-0.174533,0.174533,-1.04222,-0.69215,-0.151303,0.142177,-0.996065,-0.334986,-0.696888,0.970677
22,30,-1.0472,-0.698132,-0.174533,0.174533,-1.04222,-0.69215,-0.151303,0.142177,-0.996065,-0.334986,-0.696888,0.970677
22,30,-1.0472,-0.698132,-0.174533,0.174533,-1.04222,-0.69215,-0.151303,0.142177,-0.996065,-0.334986,-0.696888,0.970677
22,30,-1.0472,-0.698132,-0.174533,0.174533,-1.04222,-0.69215,-0.151303,0.142177,-0.996065,-0.334986,-0.696888,0.970677
22,30,-1.0472,-0.698132,-0.174533,0.174533,-1.04222,-0.69215,-0.151303,0.142177,-0.996065,-0.334986,-0.696888,0.970677
22,30,-1.0472,-0.698132,-0.174533,0.174533,-1.04222,-0.69215,-0.151303,0.142177,-0.996065,-0.334986,-0.696888,0.970677
22,30,-1.0472,-0.698132,-0.174533,0.174533,-1.04222,-0.69215,-0.151303,0.142177,-0.996065,-0.334986,-0.696888,0.970677
22,30,-1.0472,-0.698132,-0.174533,0.174533,-1.04222,-0.69215,-0.151303,0.142177,-0.996065,-0.334986,-0.696888,0.970677
22,30,-1.0472,-0.698132,-0.174533,0.174533,-1.04222,-0.69215,-0.151303,0.142177,-0.996065,-0.334986,-0.696888,0.970677
22,30,-1.0472,-0.698132,-0.174533,0.174533,-1.04222,-0.69215,-0.151303,0.142177,-0.996065,-0.334986,-0.696888,0.970677
22,30,-1.0472,-0.698132,-0.174533,0.174533,-1.04222,-0.69215,-0.151254,0.14222,-0.996065,-0.334986,-0.698376,0.969397
22,30,-1.0472,-0.698132,-0.174533,0.174533,-1.04222,-0.69215,-0.151254,0.14222,-0.996065,-0.334986,-0.698376,0.969397
22,30,-1.0472,-0.698132,-0.174533,0.174533,-1.04222,-0.69215,-0.151254,0.14222,-0.996065,-0.334986,-0.698376,0.969397
22,30,-1.0472,-0.698132,-0.174533,0.174533,-1.04222,-0.69215,-0.151254,0.14222,-0.996065,-0.334986,-0.698376,0.969397
22,30,-1.0472,-0.698132,-0.174533,0.174533,-1.04222,-0.69215,-0.151254,0.14222,-0.996065,-0.334986,-0.698376,0.969397
22,30,-1.0472,-0.698132,-0.174533,0.174533,-1.04222,-0.69215,-0.151254,0.14222,-0.996065,-0.334986,-0.698376,0.969397
22,30,-1.0472,-0.698132,-0.174533,0.174533,-1.04222,-0.69215,-0.151254,0.14222,-0.996065,-0.334986,-0.698376,0.969397
22,30,-1.0472,-0.698132,-0.174533,0.174533,-1.04222,-0.69215,-0.151254,0.14222,-0.996065,-0.334986,-0.698376,0.969397
22,30,-1.0472,-0.698132,-0.174533,0.174533,-1.04222,-0.69215,-0.151254,0.14222,-0.996065,-0.334986,-0.698376,0.969397
22,30,-1.0472,-0.698132,-0.174533,0.174533,-1.04222,-0.69215,-0.151254,0.14222,-0.996065,-0.334986,-0.698376,0.969397
22,30,-1.0472,-0.698132,-0.174533,0.174533,-1.04222,-0.69215,-0.151254,0.14222,-0.996065,-0.334986,-0.698376,0.969397
22,30,-1.0472,-0.698132,-0.174533,0.174533,-1.04222,-0.69215,-0.151254,0.14222,-0.996065,-0.334986,-0.698376,0.969397
22,30,-1.0472,-0.698132,-0.174533,0.174533,-1.04222,-0.69215,-0.151254,0.14222,-0.996065,-0.334986,-0.698376,0.969397
22,30,-1.0472,-0.698132,-0.174533,0.174533,-1.04222,-0.69215,-0.151254,0.14222,-0.996065,-0.334986,-0.698376,0.969397
22,30,-1.0472,-0.698132,-0.174533,0.174533,-1.04222,-0.69215,-0.151254,0.14222,-0.996065,-0.334986,-0.698376,0.969397
22,30,-1.0472,-0.698132,-0.174533,0.174533,-1.04222,-0.69215,-0.151254,0.14222,-0.996065,-0.334986,-0.698376,0.969397
22,30,-1.0472,-0.698132,-0.174533,0.174533,-1.04222,-0.69215,-0.151254,0.14222,-0.996065,-0.334986,-0.698376,0.969397
22,30,-1.0472,-0.698132,-0.174533,0.174533,-1.04222,-0.69215,-0.151254,0.14222,-0.996065,-0.334986,-0.698376,0.969397
22,30,-1.0472,-0.698132,-0.174533,0.174533,-1.04222,-0.69215,-0.151254,0.14222,-0.996065,-0.334986,-0.698376,0.969397
22,30,-1.0472,-0.698132,-0.174533,0.174533,-1.04222,-0.69215,-0.151254,0.14222,-0.996065,-0.334986,-0.698376,0.969397
22,30,-1.0472,-0.698132,-0.174533,0.174533,-1.04222,-0.69215,-0.151254,0.14222,-0.996065,-0.334986,-0.698376,0.969397
22,30,-1.0472,-0.698132,-0.174533,0.174533,-1.04222,-0.69215,-0.151254,0.14222,-0.996065,-0.334986,-0.698376,0.969397
22,30,-1.0472,-0.698132,-0.174533,0.174533,-1.04222,-0.69215,-0.151254,0.14222,-0.996065,-0.334986,-0.698376,0.969397
22,30,-1.0472,-0.698132,-0.174533,0.174533,-1.04222,-0.69215,-0.151306,0.142246,-0.996065,-0.334986,-0.696804,0.968608
22,30,-1.0472,-0.698132,-0.174533,0.174533,-1.04222,-0.69215,-0.151306,0.142246,-0.996065,-0.334986,-0.696804,0.968608
22,30,-1.0472,-0.698132,-0.174533,0.174533,-1.04222,-0.69215,-0.151306,0.142246,-0.996065,-0.334986,-0.696804,0.968608
22,30,-1.0472,-0.698132,-0.174533,0.174533,-1.04222,-0.69215,-0.151306,0.142246,-0.996065,-0.334986,-0.696804,0.968608
22,30,-1.0472,-0.698132,-0.174533,0.174533,-1.04222,-0.69215,-0.151306,0.142246,-0.996065,-0.334986,-0.696804,0.968608
22,30,-1.0472,-0.698132,-0.174533,0.174533,-1.04222,-0.69215,-0.151306,0.142246,-0.996065,-0.334986,-0.696804,0.968608
22,30,-1.0472,-0.698132,-0.174533,0.174533,-1.04222,-0.69215,-0.151306,0.142246,-0.996065,-0.334986,-0.696804,0.968608
22,30,-1.0472,-0.698132,-0.174533,0.174533,-1.04222,-0.69215,-0.151306,0.142246,-0.996065,-0.334986,-0.696804,0.968608
22,30,-1.0472,-0.698132,-0.174533,0.174533,-1.04222,-0.69215,-0.151306,0.142246,-0.996065,-0.334986,-0.696804,0.968608
22,30,-1.0472,-0.698132,-0.174533,0.174533,-1.04222,-0.69215,-0.151306,0.142246,-0.996065,-0.334986,-0.696804,0.968608
22,30,-1.0472,-0.698132,-0.174533,0.174533,-1.04222,-0.69215,-0.151306,0.142246,-0.996065,-0.334986,-0.696804,0.968608
22,30,-1.0472,-0.698132,-0.174533,0.174533,-1.04222,-0.69215,-0.151306,0.142246,-0.996065,-0.334986,-0.696804,0.968608
22,30,-1.0472,-0.698132,-0.174533,0.174533,-1.04222,-0.69215,-0.151306,0.142246,-0.996065,-0.334986,-0.696804,0.968608
22,30,-1.0472,-0.698132,-0.174533,0.174533,-1.04222,-0.69215,-0.151306,0.142246,-0.996065,-0.334986,-0.696804,0.968608
22,30,-1.0472,-0.698132,-0.174533,0.174533,-1.04222,-0.69215,-0.151306,0.142246,-0.996065,-0.334986,-0.696804,0.968608
22,30,-1.0472,-0.698132,-0.174533,0.174533,-1.04222,-0.69215,-0.151306,0.142246,-0.996065,-0.334986,-0.696804,0.968608
22,30,-1.0472,-0.698132,-0.174533,0.174533,-1.04222,-0.69215,-0.151306,0.142246,-0.996065,-0.334986,-0.696804,0.968608
22,30,-1.0472,-0.698132,-0.174533,0.174533,-1.04222,-0.69215,-0.151306,0.142246,-0.996065,-0.334986,-0.696804,0.968608
22,30,-1.0472,-0.698132,-0.174533,0.174533,-1.04222,-0.69215,-0.151306,0.142246,-0.996065,-0.334986,-0.696804,0.968608
22,30,-1.0472,-0.698132,-0.174533,0.174533,-1.04222,-0.69215,-0.151306,0.142246,-0.996065,-0.334986,-0.696804,0.968608
22,30,-1.0472,-0.698132,-0.174533,0.174533,-1.04222,-0.69215,-0.151306,0.142246,-0.996065,-0.334986,-0.696804,0.968608
22,30,-1.0472,-0.698132,-0.174533,0.174533,-1.04222,-0.69215,-0.151306,0.142246,-0.996065,-0.334986,-0.696804,0.968608
22,30,-1.0472,-0.698132,-0.174533,0.174533,-1.04222,-0.69215,-0.151306,0.142246,-0.996065,-0.334986,-0.696804,0.968608
22,30,-1.0472,-0.698132,-0.174533,0.174533,-1.04222,-0.69215,-0.151306,0.142246,-0.996065,-0.334986,-0.696804,0.968608
22,30,-1.0472,-0.698132,-0.174533,0.174533,-1.04222,-0.69215,-0.151306,0.142246,-0.996065,-0.334986,-0.696804,0.968608
22,30,-1.0472,-0.698132,-0.174533,0.174533,-1.04222,-0.69215,-0.151306,0.142246,-0.996065,-0.334986,-0.696804,0.968608
22,30,-1.0472,-0.698132,-0.174533,0.174533,-1.04222,-0.69215,-0.151306,0.142246,-0.996065,-0.334986,-0.696804,0.968608
22,30,-1.0472,-0.698132,-0.174533,0.174533,-1.04222,-0.69215,-0.151306,0.142246,-0.996065,-0.334986,-0.696804,0.968608
22,30,-1.0472,-0.698132,-0.174533,0.174533,-1.04222,-0.69215,-0.151306,0.142246,-0.996065,-0.334986,-0.696804,0.968608
22,30,-1.0472,-0.698132,-0.174533,0.174533,-1.04222,-0.69215,-0.151306,0.142246,-0.996065,-0.334986,-0.696804,0.968608
22,30,-1.0472,-0.698132,-0.174533,0.174533,-1.04222,-0.69215,-0.151306,0.142246,-0.996065,-0.334986,-0.696804,0.968608
22,30,-1.0472,-0.698132,-0.174533,0.174533,-1.04222,-0.69215,-0.151306,0.142246,-0.996065,-0.334986,-0.696804,0.968608
22,30,-1.0472,-0.698132,-0.174533,0.174533,-1.04222,-0.69215,-0.151306,0.142246,-0.996065,-0.334986,-0.696804,0.968608
22,30,-1.0472,-0.698132,-0.174533,0.174533,-1.04222,-0.69215,-0.151306,0.142246,-0.996065,-0.334986,-0.696804,0.968608
22,30,-1.0472,-0.698132,-0.174533,0.174533,-1.04222,-0.69215,-0.151306,0.142246,-0.996065,-0.334986,-0.696804,0.968608
22,30,-1.0472,-0.698132,-0.174533,0.174533,-1.04222,-0.69215,-0.151306,0.142246,-0.996065,-0.334986,-0.696804,0.968608
22,30,-1.0472,-0.698132,-0.174533,0.174533,-1.04222,-0.69215,-0.151306,0.142246,-0.996065,-0.334986,-0.696804,0.968608
22,30,-1.0472,-0.698132,-0.174533,0.174533,-1.04222,-0.69215,-0.151306,0.142246,-0.996065,-0.334986,-0.696804,0.968608
22,30,-1.0472,-0.698132,-0.174533,0.174533,-1.04222,-0.69215,-0.151306,0.142246,-0.996065,-0.334986,-0.696804,0.968608
22,30,-1.0472,-0.698132,-0.174533,0.174533,-1.04222,-0.69215,-0.151306,0.142246,-0.996065,-0.334986,-0.696804,0.968608
22,30,-1.0472,-0.698132,-0.174533,0.174533,-1.04222,-0.69215,-0.151306,0.142246,-0.996065,-0.334986,-0.696804,0.968608
22,30,-1.0472,-0.698132,-0.174533,0.174533,-1.04222,-0.69215,-0.151306,0.142246,-0.996065,-0.334986,-0.696804,0.968608
22,30,-1.0472,-0.698132,-0.174533,0.174533,-1.04222,-0.69215,-0.151306,0.142246,-0.996065,-0.334986,-0.696804,0.968608
22,30,-1.0472,-0.698132,-0.174533,0.174533,-1.04222,-0.69215,-0.151306,0.142246,-0.996065,-0.334986,-0.696804,0.968608
22,30,-1.0472,-0.698132,-0.174533,0.174533,-1.04222,-0.69215,-0.151306,0.142246,-0.996065,-0.334986,-0.696804,0.968608
22,30,-1.0472,-0.698132,-0.174533,0.174533,-1.04222,-0.69215,-0.151306,0.142246,-0.996065,-0.334986,-0.696804,0.968608
22,30,-1.0472,-0.698132,-0.174533,0.174533,-1.04222,-0.69215,-0.151306,0.142246,-0.996065,-0.334986,-0.696804,0.968608
22,30,-1.0472,-0.698132,-0.174533,0.174533,-1.04222,-0.69215,-0.151306,0.142246,-0.996065,-0.334986,-0.696804,0.968608
22,30,-1.0472,-0.698132,-0.174533,0.174533,-1.04222,-0.69215,-0.151306,0.142246,-0.996065,-0.334986,-0.696804,0.968608
22,30,-1.0472,-0.698132,-0.174533,0.174533,-1.04222,-0.69215,-0.151306,0.142246,-0.996065,-0.334986,-0.696804,0.968608
22,30,-1.0472,-0.698132,-0.174533,0.174533,-1.04222,-0.69215,-0.151306,0.142246,-0.996065,-0.334986,-0.696804,0.968608
22,30,-1.0472,-0.698132,-0.174533,0.174533,-1.04222,-0.69215,-0.151306,0.142246,-0.996065,-0.334986,-0.696804,0.968608
22,30,-1.0472,-0.698132,-0.174533,0.174533,-1.04222,-0.69215,-0.151306,0.142246,-0.996065,-0.334986,-0.696804,0.968608
22,30,-1.0472,-0.698132,-0.174533,0.174533,-1.04222,-0.69215,-0.151306,0.142246,-0.996065,-0.334986,-0.696804,0.968608
22,30,-1.0472,-0.698132,-0.174533,0.174533,-1.04222,-0.69215,-0.151306,0.142246,-0.996065,-0.334986,-0.696804,0.968608
22,30,-1.0472,-0.698132,-0.174533,0.174533,-1.04222,-0.69215,-0.151306,0.142246,-0.996065,-0.334986,-0.696804,0.968608
22,30,-1.0472,-0.698132,-0.174533,0.174533,-1.04222,-0.69215,-0.151306,0.142246,-0.996065,-0.334986,-0.696804,0.968608
22,30,-1.0472,-0.698132,-0.174533,0.174533,-1.04222,-0.69215,-0.151306,0.142246,-0.996065,-0.334986,-0.696804,0.968608
22,30,-1.0472,-0.698132,-0.174533,0.174533,-1.04222,-0.69215,-0.151306,0.142246,-0.996065,-0.334986,-0.696804,0.968608
22,30,-1.0472,-0.698132,-0.174533,0.174533,-1.04222,-0.69215,-0.151306,0.142246,-0.996065,-0.334986,-0.696804,0.968608
22,30,-1.0472,-0.698132,-0.174533,0.174533,-1.04222,-0.69215,-0.151306,0.142246,-0.996065,-0.334986,-0.696804,0.968608
22,30,-1.0472,-0.698132,-0.174533,0.174533,-1.04222,-0.69215,-0.151306,0.142246,-0.996065,-0.334986,-0.696804,0.968608
22,30,-1.0472,-0.698132,-0.174533,0.174533,-1.04222,-0.69215,-0.151306,0.142246,-0.996065,-0.334986,-0.696804,0.968608
22,30,-1.0472,-0.698132,-0.174533,0.174533,-1.04222,-0.69215,-0.151306,0.142246,-0.996065,-0.334986,-0.696804,0.968608
22,30,-1.0472,-0.698132,-0.174533,0.174533,-1.04222,-0.69215,-0.151306,0.142246,-0.996065,-0.334986,-0.696804,0.968608
22,30,-1.0472,-0.698132,-0.174533,0.174533,-1.04222,-0.69215,-0.151306,0.142246,-0.996065,-0.334986,-0.696804,0.968608
22,30,-1.0472,-0.698132,-0.174533,0.174533,-1.04222,-0.69215,-0.151306,0.142246,-0.996065,-0.334986,-0.696804,0.968608
22,30,-1.0472,-0.698132,-0.174533,0.174533,-1.04222,-0.69215,-0.151306,0.142246,-0.996065,-0.334986,-0.696804,0.968608
22,30,-1.0472,-0.698132,-0.174533,0.174533,-1.04222,-0.69215,-0.151306,0.142246,-0.996065,-0.334986,-0.696804,0.968608
22,30,-1.0472,-0.698132,-0.174533,0.174533,-1.04222,-0.69215,-0.151306,0.142246,-0.996065,-0.334986,-0.696804,0.968608
22,30,-1.0472,-0.698132,-0.174533,0.174533,-1.04222,-0.69215,-0.151306,0.142246,-0.996065,-0.334986,-0.696804,0.968608
22,30,-1.0472,-0.698132,-0.174533,0.174533,-1.04222,-0.69215,-0.151306,0.142246,-0.996065,-0.334986,-0.696804,0.968608
22,30,-1.0472,-0.698132,-0.174533,0.174533,-1.04222,-0.69215,-0.151306,0.142246,-0.996065,-0.334986,-0.696804,0.968608
22,30,-1.0472,-0.698132,-0.174533,0.174533,-1.04222,-0.69215,-0.151306,0.142246,-0.996065,-0.334986,-0.696804,0.968608
22,30,-1.0472,-0.698132,-0.174533,0.174533,-1.04222,-0.69215,-0.151306,0.142246,-0.996065,-0.334986,-0.696804,0.968608
22,30,-1.0472,-0.698132,-0.174533,0.174533,-1.04222,-0.69215,-0.151306,0.142246,-0.996065,-0.334986,-0.696804,0.968608
22,30,-1.0472,-0.698132,-0.174533,0.174533,-1.04222,-0.69215,-0.151306,0.142246,-0.996065,-0.334986,-0.696804,0.968608
22,30,-1.0472,-0.698132,-0.174533,0.174533,-1.04222,-0.69215,-0.151306,0.142246,-0.996065,-0.334986,-0.696804,0.968608
22,30,-1.0472,-0.698132,-0.174533,0.174533,-1.04222,-0.69215,-0.151306,0.142246,-0.996065,-0.334986,-0.696804,0.968608
22,30,-1.0472,-0.698132,-0.174533,0.174533,-1.04222,-0.69215,-0.151306,0.142246,-0.996065,-0.334986,-0.696804,0.968608
22,30,-1.0472,-0.698132,-0.174533,0.174533,-1.04222,-0.69215,-0.151306,0.142246,-0.996065,-0.334986,-0.696804,0.968608
22,30,-1.0472,-0.698132,-0.174533,0.174533,-1.04222,-0.69215,-0.151306,0.142246,-0.996065,-0.334986,-0.696804,0.968608
22,30,-1.0472,-0.698132,-0.174533,0.174533,-1.04222,-0.69215,-0.151306,0.142246,-0.996065,-0.334986,-0.696804,0.968608
22,30,-1.0472,-0.698132,-0.174533,0.174533,-1.04222,-0.69215,-0.151306,0.142246,-0.996065,-0.334986,-0.696804,0.968608
22,30,-1.0472,-0.698132,-0.174533,0.174533,-1.04222,-0.69215,-0.151306,0.142246,-0.996065,-0.334986,-0.696804,0.968608
22,30,-1.0472,-0.698132,-0.174533,0.174533,-1.04222,-0.69215,-0.151306,0.142246,-0.996065,-0.334986,-0.696804,0.968608
22,30,-1.0472,-0.698132,-0.174533,0.174533,-1.04222,-0.69215,-0.151306,0.142246,-0.996065,-0.334986,-0.696804,0.968608
22,30,-1.0472,-0.698132,-0.174533,0.174533,-1.04222,-0.69215,-0.151306,0.142246,-0.996065,-0.334986,-0.696804,0.968608
22,30,-1.0472,-0.698132,-0.174533,0.174533,-1.04222,-0.69215,-0.151306,0.142246,-0.996065,-0.334986,-0.696804,0.968608
22,30,-1.0472,-0.698132,-0.174533,0.174533,-1.04222,-0.69215,-0.151306,0.142246,-0.996065,-0.334986,-0.696804,0.968608
22,30,-1.0472,-0.698132,-0.174533,0.174533,-1.04222,-0.69215,-0.151306,0.142246,-0.996065,-0.334986,-0.696804,0.968608
22,30,-1.0472,-0.698132,-0.174533,0.174533,-1.04222,-0.69215,-0.151306,0.142246,-0.996065,-0.334986,-0.696804,0.968608
22,30,-1.0472,-0.698132,-0.174533,0.174533,-1.04222,-0.69215,-0.151306,0.142246,-0.996065,-0.334986,-0.696804,0.968608
22,30,-1.0472,-0.698132,-0.174533,0.174533,-1.04222,-0.69215,-0.151306,0.142246,-0.996065,-0.334986,-0.696804,0.968608
22,30,-1.0472,-0.698132,-0.174533,0.174533,-1.04222,-0.69215,-0.151306,0.142246,-0.996065,-0.334986,-0.696804,0.968608
22,30,-1.0472,-0.698132,-0.174533,0.174533,-1.04222,-0.69215,-0.151306,0.142246,-0.996065,-0.334986,-0.696804,0.968608
22,30,-1.0472,-0.698132,-0.174533,0.174533,-1.04222,-0.69215,-0.151306,0.142246,-0.996065,-0.334986,-0.696804,0.968608
22,30,-1.0472,-0.698132,-0.174533,0.174533,-1.04222,-0.69215,-0.151306,0.142246,-0.996065,-0.334986,-0.696804,0.968608
22,30,-1.0472,-0.698132,-0.174533,0.174533,-1.04222,-0.69215,-0.151306,0.142246,-0.996065,-0.334986,-0.696804,0.968608
22,30,-1.0472,-0.698132,-0.174533,0.174533,-1.04222,-0.69215,-0.151306,0.142246,-0.996065,-0.334986,-0.696804,0.968608
22,30,-1.0472,-0.698132,-0.174533,0.174533,-1.04222,-0.69215,-0.151306,0.142246,-0.996065,-0.334986,-0.696804,0.968608
22,30,-1.0472,-0.698132,-0.174533,0.174533,-1.04222,-0.69215,-0.151306,0.142246,-0.996065,-0.334986,-0.696804,0.968608
22,30,-1.0472,-0.698132,-0.174533,0.174533,-1.04222,-0.69215,-0.151306,0.142246,-0.996065,-0.334986,-0.696804,0.968608
22,30,-1.0472,-0.698132,-0.174533,0.174533,-1.04222,-0.69215,-0.151306,0.142246,-0.996065,-0.334986,-0.696804,0.968608
22,30,-1.0472,-0.698132,-0.174533,0.174533,-1.04222,-0.69215,-0.151306,0.142246,-0.996065,-0.334986,-0.696804,0.968608
22,30,-1.0472,-0.698132,-0.174533,0.174533,-1.04222,-0.69215,-0.151306,0.142246,-0.996065,-0.334986,-0.696804,0.968608
22,30,-1.0472,-0.698132,-0.174533,0.174533,-1.04222,-0.69215,-0.151306,0.142246,-0.996065,-0.334986,-0.696804,0.968608
22,30,-1.0472,-0.698132,-0.174533,0.174533,-1.04222,-0.69215,-0.151306,0.142246,-0.996065,-0.334986,-0.696804,0.968608
22,30,-1.0472,-0.698132,-0.174533,0.174533,-1.04222,-0.69215,-0.151306,0.142246,-0.996065,-0.334986,-0.696804,0.968608
22,30,-1.0472,-0.698132,-0.174533,0.174533,-1.04222,-0.69215,-0.151306,0.142246,-0.996065,-0.334986,-0.696804,0.968608
22,30,-1.0472,-0.698132,-0.174533,0.174533,-1.04222,-0.69215,-0.151306,0.142246,-0.996065,-0.334986,-0.696804,0.968608
22,30,-1.0472,-0.698132,-0.174533,0.174533,-1.04222,-0.69215,-0.151306,0.142246,-0.996065,-0.334986,-0.696804,0.968608
22,30,-1.0472,-0.698132,-0.174533,0.174533,-1.04222,-0.69215,-0.151306,0.142246,-0.996065,-0.334986,-0.696804,0.968608
22,30,-1.0472,-0.698132,-0.174533,0.174533,-1.04222,-0.69215,-0.151306,0.142246,-0.996065,-0.334986,-0.696804,0.968608
22,30,-1.0472,-0.698132,-0.174533,0.174533,-1.04222,-0.69215,-0.151306,0.142246,-0.996065,-0.334986,-0.696804,0.968608
22,30,-1.0472,-0.698132,-0.174533,0.174533,-1.04222,-0.69215,-0.151306,0.142246,-0.996065,-0.334986,-0.696804,0.968608
22,30,-1.0472,-0.698132,-0.174533,0.174533,-1.04222,-0.69215,-0.151306,0.142246,-0.996065,-0.334986,-0.696804,0.968608
22,30,-1.0472,-0.698132,-0.174533,0.174533,-1.04222,-0.69215,-0.151306,0.142246,-0.996065,-0.334986,-0.696804,0.968608
22,30,-1.0472,-0.698132,-0.174533,0.174533,-1.04222,-0.69215,-0.151306,0.142246,-0.996065,-0.334986,-0.696804,0.968608
22,30,-1.0472,-0.698132,-0.174533,0.174533,-1.04222,-0.69215,-0.151306,0.142246,-0.996065,-0.334986,-0.696804,0.968608
22,30,-1.0472,-0.698132,-0.174533,0.174533,-1.04222,-0.69215,-0.151306,0.142246,-0.996065,-0.334986,-0.696804,0.968608
22,30,-1.0472,-0.698132,-0.174533,0.174533,-1.04222,-0.69215,-0.151306,0.142246,-0.996065,-0.334986,-0.696804,0.968608
22,30,-1.0472,-0.698132,-0.174533,0.174533,-1.04222,-0.69215,-0.151306,0.142246,-0.996065,-0.334986,-0.696804,0.968608
22,30,-1.0472,-0.698132,-0.174533,0.174533,-1.04222,-0.69215,-0.151306,0.142246,-0.996065,-0.334986,-0.696804,0.968608
22,30,-1.0472,-0.698132,-0.174533,0.174533,-1.04222,-0.69215,-0.151306,0.142246,-0.996065,-0.334986,-0.696804,0.968608
22,30,-1.0472,-0.698132,-0.174533,0.174533,-1.04222,-0.69215,-0.151306,0.142246,-0.996065,-0.334986,-0.696804,0.968608
22,30,-1.0472,-0.698132,-0.174533,0.174533,-1.04222,-0.69215,-0.151306,0.142246,-0.996065,-0.334986,-0.696804,0.968608
22,30,-1.0472,-0.698132,-0.174533,0.174533,-1.04222,-0.69215,-0.151306,0.142246,-0.996065,-0.334986,-0.696804,0.968608
22,30,-1.0472,-0.698132,-0.174533,0.174533,-1.04222,-0.69215,-0.151306,0.142246,-0.996065,-0.334986,-0.696804,0.968608
22,30,-1.0472,-0.698132,-0.174533,0.174533,-1.04222,-0.69215,-0.151306,0.142246,-0.996065,-0.334986,-0.696804,0.968608
22,30,-1.0472,-0.698132,-0.174533,0.174533,-1.04222,-0.69215,-0.151306,0.142246,-0.996065,-0.334986,-0.696804,0.968608
22,30,-1.0472,-0.698132,-0.174533,0.174533,-1.04222,-0.69215,-0.151306,0.142246,-0.996065,-0.334986,-0.696804,0.968608
22,30,-1.0472,-0.698132,-0.174533,0.174533,-1.04222,-0.69215,-0.151306,0.142246,-0.996065,-0.334986,-0.696804,0.968608
22,30,-1.0472,-0.698132,-0.174533,0.174533,-1.04222,-0.69215,-0.151306,0.142246,-0.996065,-0.334986,-0.696804,0.968608
22,30,-1.0472,-0.698132,-0.174533,0.174533,-1.04222,-0.69215,-0.151306,0.142246,-0.996065,-0.334986,-0.696804,0.968608
22,30,-1.0472,-0.698132,-0.174533,0.174533,-1.04222,-0.69215,-0.151306,0.142246,-0.996065,-0.334986,-0.696804,0.968608
22,30,-1.0472,-0.698132,-0.174533,0.174533,-1.04222,-0.69215,-0.151306,0.142246,-0.996065,-0.334986,-0.696804,0.968608
22,30,-1.0472,-0.698132,-0.174533,0.174533,-1.04222,-0.69215,-0.151306,0.142246,-0.996065,-0.334986,-0.696804,0.968608
22,30,-1.0472,-0.698132,-0.174533,0.174533,-1.04222,-0.69215,-0.151306,0.142246,-0.996065,-0.334986,-0.696804,0.968608
22,30,-1.0472,-0.698132,-0.174533,0.174533,-1.04222,-0.69215,-0.151306,0.142246,-0.996065,-0.334986,-0.696804,0.968608
22,30,-1.0472,-0.698132,-0.174533,0.174533,-1.04222,-0.69215,-0.151306,0.142246,-0.996065,-0.334986,-0.696804,0.968608
22,30,-1.0472,-0.698132,-0.174533,0.174533,-1.04222,-0.69215,-0.151306,0.142246,-0.996065,-0.334986,-0.696804,0.968608
22,30,-1.0472,-0.698132,-0.174533,0.174533,-1.04222,-0.69215,-0.151306,0.142246,-0.996065,-0.334986,-0.696804,0.968608
22,30,-1.0472,-0.698132,-0.174533,0.174533,-1.04222,-0.69215,-0.151306,0.142246,-0.996065,-0.334986,-0.696804,0.968608
22,30,-1.0472,-0.698132,-0.174533,0.174533,-1.04222,-0.69215,-0.151306,0.142246,-0.996065,-0.334986,-0.696804,0.968608
22,30,-1.0472,-0.698132,-0.174533,0.174533,-1.04222,-0.69215,-0.151306,0.142246,-0.996065,-0.334986,-0.696804,0.968608
22,30,-1.0472,-0.698132,-0.174533,0.174533,-1.04222,-0.69215,-0.151306,0.142246,-0.996065,-0.334986,-0.696804,0.968608
22,30,-1.0472,-0.698132,-0.174533,0.174533,-1.04222,-0.69215,-0.151306,0.142246,-0.996065,-0.334986,-0.696804,0.968608
22,30,-1.0472,-0.698132,-0.174533,0.174533,-1.04222,-0.69215,-0.151306,0.142246,-0.996065,-0.334986,-0.696804,0.968608
22,30,-1.0472,-0.698132,-0.174533,0.174533,-1.04222,-0.69215,-0.151306,0.142246,-0.996065,-0.334986,-0.696804,0.968608
22,30,-1.0472,-0.698132,-0.174533,0.174533,-1.04222,-0.69215,-0.151306,0.142246,-0.996065,-0.334986,-0.696804,0.968608
22,30,-1.0472,-0.698132,-0.174533,0.174533,-1.04222,-0.69215,-0.151306,0.142246,-0.996065,-0.334986,-0.696804,0.968608
22,30,-1.0472,-0.698132,-0.174533,0.174533,-1.04222,-0.69215,-0.151306,0.142246,-0.996065,-0.334986,-0.696804,0.968608
22,30,-1.0472,-0.698132,-0.174533,0.174533,-1.04222,-0.69215,-0.151306,0.142246,-0.996065,-0.334986,-0.696804,0.968608
22,30,-1.0472,-0.698132,-0.174533,0.174533,-1.04222,-0.69215,-0.151306,0.142246,-0.996065,-0.334986,-0.696804,0.968608
22,30,-1.0472,-0.698132,-0.174533,0.174533,-1.04222,-0.69215,-0.151306,0.142246,-0.996065,-0.334986,-0.696804,0.968608
22,30,-1.0472,-0.698132,-0.174533,0.174533,-1.04222,-0.69215,-0.151306,0.142246,-0.996065,-0.334986,-0.696804,0.968608
22,30,-1.0472,-0.698132,-0.174533,0.174533,-1.04222,-0.69215,-0.151306,0.142246,-0.996065,-0.334986,-0.696804,0.968608
22,30,-1.0472,-0.698132,-0.174533,0.174533,-1.04222,-0.69215,-0.151306,0.142246,-0.996065,-0.334986,-0.696804,0.968608
22,30,-1.0472,-0.698132,-0.174533,0.174533,-1.04222,-0.69215,-0.151306,0.142246,-0.996065,-0.334986,-0.696804,0.968608
22,30,-1.0472,-0.698132,-0.174533,0.174533,-1.04222,-0.69215,-0.151306,0.142246,-0.996065,-0.334986,-0.696804,0.968608
22,30,-1.0472,-0.698132,-0.174533,0.174533,-1.04222,-0.69215,-0.151306,0.142246,-0.996065,-0.334986,-0.696804,0.968608
22,30,-1.0472,-0.698132,-0.174533,0.174533,-1.04222,-0.69215,-0.151306,0.142246,-0.996065,-0.334986,-0.696804,0.968608
22,30,-1.0472,-0.698132,-0.174533,0.174533,-1.04222,-0.69215,-0.151306,0.142246,-0.996065,-0.334986,-0.696804,0.968608
22,30,-1.0472,-0.698132,-0.174533,0.174533,-1.04222,-0.69215,-0.151306,0.142246,-0.996065,-0.334986,-0.696804,0.968608
22,30,-1.0472,-0.698132,-0.174533,0.174533,-1.04222,-0.69215,-0.151306,0.142246,-0.996065,-0.334986,-0.696804,0.968608
22,30,-1.0472,-0.698132,-0.174533,0.174533,-1.04222,-0.69215,-0.151306,0.142246,-0.996065,-0.334986,-0.696804,0.968608
22,30,-1.0472,-0.698132,-0.174533,0.174533,-1.04222,-0.69215,-0.151306,0.142246,-0.996065,-0.334986,-0.696804,0.968608
22,30,-1.0472,-0.698132,-0.174533,0.174533,-1.04222,-0.69215,-0.151306,0.142246,-0.996065,-0.334986,-0.696804,0.968608
22,30,-1.0472,-0.698132,-0.174533,0.174533,-1.04222,-0.69215,-0.151306,0.142246,-0.996065,-0.334986,-0.696804,0.968608
22,30,-1.0472,-0.698132,-0.174533,0.174533,-1.04222,-0.69215,-0.151306,0.142246,-0.996065,-0.334986,-0.696804,0.968608
22,30,-1.0472,-0.698132,-0.174533,0.174533,-1.04222,-0.69215,-0.151306,0.142246,-0.996065,-0.334986,-0.696804,0.968608
22,30,-1.0472,-0.698132,-0.174533,0.174533,-1.04222,-0.69215,-0.151306,0.142246,-0.996065,-0.334986,-0.696804,0.968608
22,30,-1.0472,-0.698132,-0.174533,0.174533,-1.04222,-0.69215,-0.151306,0.142246,-0.996065,-0.334986,-0.696804,0.968608
22,30,-1.0472,-0.698132,-0.174533,0.174533,-1.04222,-0.69215,-0.151306,0.142246,-0.996065,-0.334986,-0.696804,0.968608
22,30,-1.0472,-0.698132,-0.174533,0.174533,-1.04222,-0.69215,-0.151306,0.142246,-0.996065,-0.334986,-0.696804,0.968608
22,30,-1.0472,-0.698132,-0.174533,0.174533,-1.04222,-0.69215,-0.151306,0.142246,-0.996065,-0.334986,-0.696804,0.968608
22,30,-1.0472,-0.698132,-0.174533,0.174533,-1.04222,-0.69215,-0.151306,0.142246,-0.996065,-0.334986,-0.696804,0.968608
22,30,-1.0472,-0.698132,-0.174533,0.174533,-1.04222,-0.69215,-0.151306,0.142246,-0.996065,-0.334986,-0.696804,0.968608
22,30,-1.0472,-0.698132,-0.174533,0.174533,-1.04222,-0.69215,-0.151306,0.142246,-0.996065,-0.334986,-0.696804,0.968608
22,30,-1.0472,-0.698132,-0.174533,0.174533,-1.04222,-0.69215,-0.151306,0.142246,-0.996065,-0.334986,-0.696804,0.968608
22,30,-1.0472,-0.698132,-0.174533,0.174533,-1.04222,-0.69215,-0.151306,0.142246,-0.996065,-0.334986,-0.696804,0.968608
22,30,-1.0472,-0.698132,-0.174533,0.174533,-1.04222,-0.69215,-0.151306,0.142246,-0.996065,-0.334986,-0.696804,0.968608
22,30,-1.0472,-0.698132,-0.174533,0.174533,-1.04222,-0.69215,-0.151306,0.142246,-0.996065,-0.334986,-0.696804,0.968608
22,30,-1.0472,-0.698132,-0.174533,0.174533,-1.04222,-0.69215,-0.151306,0.142246,-0.996065,-0.334986,-0.696804,0.968608
22,30,-1.0472,-0.698132,-0.174533,0.174533,-1.04222,-0.69215,-0.151306,0.142246,-0.996065,-0.334986,-0.696804,0.968608
22,30,-1.0472,-0.698132,-0.174533,0.174533,-1.04222,-0.69215,-0.151306,0.142246,-0.996065,-0.334986,-0.6968,0.968611
22,30,-1.0472,-0.698132,-0.174533,0.174533,-1.04222,-0.69215,-0.151306,0.142246,-0.996065,-0.334986,-0.6968,0.968611
22,30,-1.0472,-0.698132,-0.174533,0.174533,-1.04222,-0.69215,-0.151306,0.142246,-0.996065,-0.334986,-0.6968,0.968611
22,30,-1.0472,-0.698132,-0.174533,0.174533,-1.04222,-0.69215,-0.151306,0.142246,-0.996065,-0.334986,-0.6968,0.968611
22,30,-1.0472,-0.698132,-0.174533,0.174533,-1.04222,-0.69215,-0.151306,0.142246,-0.996065,-0.334986,-0.6968,0.968611
22,30,-1.0472,-0.698132,-0.174533,0.174533,-1.04222,-0.69215,-0.151306,0.142246,-0.996065,-0.334986,-0.6968,0.968611
22,30,-1.0472,-0.698132,-0.174533,0.174533,-1.04222,-0.69215,-0.151306,0.142246,-0.996065,-0.334986,-0.6968,0.968611
22,30,-1.0472,-0.698132,-0.174533,0.174533,-1.04222,-0.69215,-0.151306,0.142246,-0.996065,-0.334986,-0.6968,0.968611
22,30,-1.0472,-0.698132,-0.174533,0.174533,-1.04222,-0.69215,-0.151306,0.142246,-0.996065,-0.334986,-0.6968,0.968611
22,30,-1.0472,-0.698132,-0.174533,0.174533,-1.04222,-0.69215,-0.151306,0.142246,-0.996065,-0.334986,-0.6968,0.968611
22,30,-1.0472,-0.698132,-0.174533,0.174533,-1.04222,-0.69215,-0.151306,0.142246,-0.996065,-0.334986,-0.6968,0.968611
22,30,-1.0472,-0.698132,-0.174533,0.174533,-1.04222,-0.69215,-0.151306,0.142246,-0.996065,-0.334986,-0.6968,0.968611
22,30,-1.0472,-0.698132,-0.174533,0.174533,-1.04222,-0.69215,-0.151306,0.142246,-0.996065,-0.334986,-0.6968,0.968611
22,30,-1.0472,-0.698132,-0.174533,0.174533,-1.04222,-0.69215,-0.151306,0.142246,-0.996065,-0.334986,-0.6968,0.968611
22,30,-1.0472,-0.698132,-0.174533,0.174533,-1.04222,-0.69215,-0.151306,0.142246,-0.996065,-0.334986,-0.6968,0.968611
22,30,-1.0472,-0.698132,-0.174533,0.174533,-1.04222,-0.69215,-0.151306,0.142246,-0.996065,-0.334986,-0.6968,0.968611
22,30,-1.0472,-0.698132,-0.174533,0.174533,-1.04222,-0.69215,-0.151306,0.142246,-0.996065,-0.334986,-0.6968,0.968611
22,30,-1.0472,-0.698132,-0.174533,0.174533,-1.04222,-0.69215,-0.151306,0.142246,-0.996065,-0.334986,-0.6968,0.968611
22,30,-1.0472,-0.698132,-0.174533,0.174533,-1.04222,-0.69215,-0.151306,0.142246,-0.996065,-0.334986,-0.6968,0.968611
22,30,-1.0472,-0.698132,-0.174533,0.174533,-1.04222,-0.69215,-0.151306,0.142246,-0.996065,-0.334986,-0.6968,0.968611
22,30,-1.0472,-0.698132,-0.174533,0.174533,-1.04222,-0.69215,-0.151306,0.142246,-0.996065,-0.334986,-0.6968,0.968611
22,30,-1.0472,-0.698132,-0.174533,0.174533,-1.04222,-0.69215,-0.151306,0.142246,-0.996065,-0.334986,-0.6968,0.968611
22,30,-1.0472,-0.698132,-0.174533,0.174533,-1.04222,-0.69215,-0.151306,0.142246,-0.996065,-0.334986,-0.6968,0.968611
22,30,-1.0472,-0.698132,-0.174533,0.174533,-1.04222,-0.69215,-0.151306,0.142246,-0.996065,-0.334986,-0.6968,0.968611
22,30,-1.0472,-0.698132,-0.174533,0.174533,-1.04222,-0.69215,-0.151306,0.142246,-0.996065,-0.334986,-0.696803,0.968613
22,30,-1.0472,-0.698132,-0.174533,0.174533,-1.04222,-0.69215,-0.151306,0.142246,-0.996065,-0.334986,-0.696803,0.968613
22,30,-1.0472,-0.698132,-0.174533,0.174533,-1.04222,-0.69215,-0.151306,0.142246,-0.996065,-0.334986,-0.696803,0.968613
22,30,-1.0472,-0.698132,-0.174533,0.174533,-1.04222,-0.69215,-0.151306,0.142246,-0.996065,-0.334986,-0.696803,0.968613
22,30,-1.0472,-0.698132,-0.174533,0.174533,-1.04222,-0.69215,-0.151306,0.142246,-0.996065,-0.334986,-0.696803,0.968613
22,30,-1.0472,-0.698132,-0.174533,0.174533,-1.04222,-0.69215,-0.151306,0.142246,-0.996065,-0.334986,-0.696803,0.968613
22,30,-1.0472,-0.698132,-0.174533,0.174533,-1.04222,-0.69215,-0.151306,0.142246,-0.996065,-0.334986,-0.696803,0.968613
22,30,-1.0472,-0.698132,-0.174533,0.174533,-1.04222,-0.69215,-0.151306,0.142246,-0.996065,-0.334986,-0.696803,0.968613
22,30,-1.0472,-0.698132,-0.174533,0.174533,-1.04222,-0.69215,-0.151306,0.142246,-0.996065,-0.334986,-0.696803,0.968613
22,30,-1.0472,-0.698132,-0.174533,0.174533,-1.04222,-0.69215,-0.151306,0.142246,-0.996065,-0.334986,-0.696803,0.968613
22,30,-1.0472,-0.698132,-0.174533,0.174533,-1.04222,-0.69215,-0.151306,0.142246,-0.996065,-0.334986,-0.696803,0.968613
22,30,-1.0472,-0.698132,-0.174533,0.174533,-1.04222,-0.69215,-0.151306,0.142246,-0.996065,-0.334986,-0.696803,0.968613
22,30,-1.0472,-0.698132,-0.174533,0.174533,-1.04222,-0.69215,-0.151306,0.142246,-0.996065,-0.334986,-0.696803,0.968613
22,30,-1.0472,-0.698132,-0.174533,0.174533,-1.04222,-0.69215,-0.151306,0.142246,-0.996065,-0.334986,-0.696803,0.968613
22,30,-1.0472,-0.698132,-0.174533,0.174533,-1.04222,-0.69215,-0.151306,0.142246,-0.996065,-0.334986,-0.696803,0.968613
22,30,-1.0472,-0.698132,-0.174533,0.174533,-1.04222,-0.69215,-0.151306,0.142246,-0.996065,-0.334986,-0.696803,0.968613
22,30,-1.0472,-0.698132,-0.174533,0.174533,-1.04222,-0.69215,-0.151306,0.142246,-0.996065,-0.334986,-0.696803,0.968613
22,30,-1.0472,-0.698132,-0.174533,0.174533,-1.04222,-0.69215,-0.151306,0.142246,-0.996065,-0.334986,-0.696803,0.968613
22,30,-1.0472,-0.698132,-0.174533,0.174533,-1.04222,-0.69215,-0.151306,0.142246,-0.996065,-0.334986,-0.696803,0.968613
22,30,-1.0472,-0.698132,-0.174533,0.174533,-1.04222,-0.69215,-0.151306,0.142246,-0.996065,-0.334986,-0.696803,0.968613
22,30,-1.0472,-0.698132,-0.174533,0.174533,-1.04222,-0.69215,-0.151306,0.142246,-0.996065,-0.334986,-0.696803,0.968613
22,30,-1.0472,-0.698132,-0.174533,0.174533,-1.04222,-0.69215,-0.151306,0.142246,-0.996065,-0.334986,-0.696803,0.968613
22,30,-1.0472,-0.698132,-0.174533,0.174533,-1.04222,-0.69215,-0.151306,0.142246,-0.996065,-0.334986,-0.696803,0.968613
22,30,-1.0472,-0.698132,-0.174533,0.174533,-1.04222,-0.69215,-0.151306,0.142246,-0.996065,-0.334986,-0.696803,0.968613
22,30,-1.0472,-0.698132,-0.174533,0.174533,-1.04222,-0.69215,-0.151306,0.142246,-0.996065,-0.334986,-0.696803,0.968613
22,30,-1.0472,-0.698132,-0.174533,0.174533,-1.04222,-0.69215,-0.151306,0.142246,-0.996065,-0.334986,-0.696803,0.968613
22,30,-1.0472,-0.698132,-0.174533,0.174533,-1.04222,-0.69215,-0.151306,0.142246,-0.996065,-0.334986,-0.696803,0.968613
22,30,-1.0472,-0.698132,-0.174533,0.174533,-1.04222,-0.69215,-0.151306,0.142246,-0.996065,-0.334986,-0.696803,0.968613
22,30,-1.0472,-0.698132,-0.174533,0.174533,-1.04222,-0.69215,-0.151306,0.142246,-0.996065,-0.334986,-0.696803,0.968613
22,30,-1.0472,-0.698132,-0.174533,0.174533,-1.04222,-0.69215,-0.151306,0.142246,-0.996065,-0.334986,-0.696803,0.968613
22,30,-1.0472,-0.698132,-0.174533,0.174533,-1.04222,-0.69215,-0.151306,0.142246,-0.996065,-0.334986,-0.696803,0.968613
22,30,-1.0472,-0.698132,-0.174533,0.174533,-1.04222,-0.69215,-0.151306,0.142246,-0.996065,-0.334986,-0.696803,0.968613
22,30,-1.0472,-0.698132,-0.174533,0.174533,-1.04222,-0.69215,-0.151306,0.142246,-0.996065,-0.334986,-0.696803,0.968613
22,30,-1.0472,-0.698132,-0.174533,0.174533,-1.04222,-0.69215,-0.151306,0.142246,-0.996065,-0.334986,-0.696803,0.968613
22,30,-1.0472,-0.698132,-0.174533,0.174533,-1.04222,-0.69215,-0.151306,0.142246,-0.996065,-0.334986,-0.696803,0.968613
22,30,-1.0472,-0.698132,-0.174533,0.174533,-1.04222,-0.69215,-0.151306,0.142246,-0.996065,-0.334986,-0.696803,0.968613
22,30,-1.0472,-0.698132,-0.174533,0.174533,-1.04222,-0.69215,-0.151306,0.142246,-0.996065,-0.334986,-0.696803,0.968613
22,30,-1.0472,-0.698132,-0.174533,0.174533,-1.04222,-0.69215,-0.151306,0.142246,-0.996065,-0.334986,-0.696803,0.968613
22,30,-1.0472,-0.698132,-0.174533,0.174533,-1.04222,-0.69215,-0.151306,0.142246,-0.996065,-0.334986,-0.696803,0.968613
22,30,-1.0472,-0.698132,-0.174533,0.174533,-1.04222,-0.69215,-0.151306,0.142246,-0.996065,-0.334986,-0.696803,0.968613
22,30,-1.0472,-0.698132,-0.174533,0.174533,-1.04222,-0.69215,-0.151306,0.142246,-0.996065,-0.334986,-0.696803,0.968613
22,30,-1.0472,-0.698132,-0.174533,0.174533,-1.04222,-0.69215,-0.151306,0.142246,-0.996065,-0.334986,-0.696803,0.968613
22,30,-1.0472,-0.698132,-0.174533,0.174533,-1.04222,-0.69215,-0.151257,0.142288,-0.996065,-0.334986,-0.698292,0.967333
22,30,-1.0472,-0.698132,-0.174533,0.174533,-1.04222,-0.69215,-0.151257,0.142288,-0.996065,-0.334986,-0.698292,0.967333
22,30,-1.0472,-0.698132,-0.174533,0.174533,-1.04222,-0.69215,-0.151257,0.142288,-0.996065,-0.334986,-0.698292,0.967333
22,30,-1.0472,-0.698132,-0.174533,0.174533,-1.04222,-0.69215,-0.151257,0.142288,-0.996065,-0.334986,-0.698292,0.967333
22,30,-1.0472,-0.698132,-0.174533,0.174533,-1.04222,-0.69215,-0.151257,0.142288,-0.996065,-0.334986,-0.698292,0.967333
22,30,-1.0472,-0.698132,-0.174533,0.174533,-1.04222,-0.69215,-0.151257,0.142288,-0.996065,-0.334986,-0.698292,0.967333
22,30,-1.0472,-0.698132,-0.174533,0.174533,-1.04222,-0.69215,-0.151257,0.142288,-0.996065,-0.334986,-0.698292,0.967333
22,30,-1.0472,-0.698132,-0.174533,0.174533,-1.04222,-0.69215,-0.151257,0.142288,-0.996065,-0.334986,-0.698292,0.967333
22,30,-1.0472,-0.698132,-0.174533,0.174533,-1.04222,-0.69215,-0.151257,0.142288,-0.996065,-0.334986,-0.698292,0.967333
22,30,-1.0472,-0.698132,-0.174533,0.174533,-1.04222,-0.69215,-0.151257,0.142288,-0.996065,-0.334986,-0.698292,0.967333
22,30,-1.0472,-0.698132,-0.174533,0.174533,-1.04222,-0.69215,-0.151257,0.142288,-0.996065,-0.334986,-0.698292,0.967333
22,30,-1.0472,-0.698132,-0.174533,0.174533,-1.04222,-0.69215,-0.151257,0.142288,-0.996065,-0.334986,-0.698292,0.967333
22,30,-1.0472,-0.698132,-0.174533,0.174533,-1.04222,-0.69215,-0.151257,0.142288,-0.996065,-0.334986,-0.698292,0.967333
22,30,-1.0472,-0.698132,-0.174533,0.174533,-1.04222,-0.69215,-0.151257,0.142288,-0.996065,-0.334986,-0.698292,0.967333
22,30,-1.0472,-0.698132,-0.174533,0.174533,-1.04222,-0.69215,-0.151257,0.142288,-0.996065,-0.334986,-0.698292,0.967333
22,30,-1.0472,-0.698132,-0.174533,0.174533,-1.04222,-0.69215,-0.151257,0.142288,-0.996065,-0.334986,-0.698292,0.967333
22,30,-1.0472,-0.698132,-0.174533,0.174533,-1.04222,-0.69215,-0.151257,0.142288,-0.996065,-0.334986,-0.698292,0.967333
22,30,-1.0472,-0.698132,-0.174533,0.174533,-1.04222,-0.69215,-0.151257,0.142288,-0.996065,-0.334986,-0.698292,0.967333
22,30,-1.0472,-0.698132,-0.174533,0.174533,-1.04222,-0.69215,-0.151257,0.142288,-0.996065,-0.334986,-0.698292,0.967333
22,30,-1.0472,-0.698132,-0.174533,0.174533,-1.04222,-0.69215,-0.151257,0.142288,-0.996065,-0.334986,-0.698292,0.967333
22,30,-1.0472,-0.698132,-0.174533,0.174533,-1.04222,-0.69215,-0.151257,0.142288,-0.996065,-0.334986,-0.698292,0.967333
22,30,-1.0472,-0.698132,-0.174533,0.174533,-1.04222,-0.69215,-0.151257,0.142288,-0.996065,-0.334986,-0.698292,0.967333
22,30,-1.0472,-0.698132,-0.174533,0.174533,-1.04222,-0.69215,-0.151257,0.142288,-0.996065,-0.334986,-0.698292,0.967333
22,30,-1.0472,-0.698132,-0.174533,0.174533,-1.04222,-0.69215,-0.151257,0.142288,-0.996065,-0.334986,-0.698292,0.967333
22,30,-1.0472,-0.698132,-0.174533,0.174533,-1.04222,-0.69215,-0.151257,0.142288,-0.996065,-0.334986,-0.698292,0.967333
22,30,-1.0472,-0.698132,-0.174533,0.174533,-1.04222,-0.69215,-0.151257,0.142288,-0.996065,-0.334986,-0.698292,0.967333
22,30,-1.0472,-0.698132,-0.174533,0.174533,-1.04222,-0.69215,-0.151257,0.142288,-0.996065,-0.334986,-0.698292,0.967333
22,30,-1.0472,-0.698132,-0.174533,0.174533,-1.04222,-0.69215,-0.151257,0.142288,-0.996065,-0.334986,-0.698292,0.967333
22,30,-1.0472,-0.698132,-0.174533,0.174533,-1.04222,-0.69215,-0.151257,0.142288,-0.996065,-0.334986,-0.698292,0.967333
22,30,-1.0472,-0.698132,-0.174533,0.174533,-1.04222,-0.69215,-0.151257,0.142288,-0.996065,-0.334986,-0.698292,0.967333
22,30,-1.0472,-0.698132,-0.174533,0.174533,-1.04222,-0.69215,-0.151257,0.142288,-0.996065,-0.334986,-0.698292,0.967333
22,30,-1.0472,-0.698132,-0.174533,0.174533,-1.04222,-0.69215,-0.151257,0.142288,-0.996065,-0.334986,-0.698292,0.967333
22,30,-1.0472,-0.698132,-0.174533,0.174533,-1.04222,-0.69215,-0.151257,0.142288,-0.996065,-0.334986,-0.698292,0.967333
22,30,-1.0472,-0.698132,-0.174533,0.174533,-1.04222,-0.69215,-0.151257,0.142288,-0.996065,-0.334986,-0.698292,0.967333
22,30,-1.0472,-0.698132,-0.174533,0.174533,-1.04222,-0.69215,-0.151257,0.142288,-0.996065,-0.334986,-0.698292,0.967333
22,30,-1.0472,-0.698132,-0.174533,0.174533,-1.04222,-0.69215,-0.151257,0.142288,-0.996065,-0.334986,-0.698292,0.967333
22,30,-1.0472,-0.698132,-0.174533,0.174533,-1.04222,-0.69215,-0.151257,0.142288,-0.996065,-0.334986,-0.698292,0.967333
22,30,-1.0472,-0.698132,-0.174533,0.174533,-1.04222,-0.69215,-0.151257,0.142288,-0.996065,-0.334986,-0.698292,0.967333
22,30,-1.0472,-0.698132,-0.174533,0.174533,-1.04222,-0.69215,-0.151257,0.142288,-0.996065,-0.334986,-0.698292,0.967333
22,30,-1.0472,-0.698132,-0.174533,0.174533,-1.04222,-0.69215,-0.151257,0.142288,-0.996065,-0.334986,-0.698292,0.967333
22,30,-1.0472,-0.698132,-0.174533,0.174533,-1.04222,-0.69215,-0.151257,0.142288,-0.996065,-0.334986,-0.698292,0.967333
22,30,-1.0472,-0.698132,-0.174533,0.174533,-1.04222,-0.69215,-0.151257,0.142288,-0.996065,-0.334986,-0.698292,0.967333
22,30,-1.0472,-0.698132,-0.174533,0.174533,-1.04222,-0.69215,-0.151257,0.142288,-0.996065,-0.334986,-0.698292,0.967333
22,30,-1.0472,-0.698132,-0.174533,0.174533,-1.04222,-0.69215,-0.151257,0.142288,-0.996065,-0.334986,-0.698292,0.967333
22,30,-1.0472,-0.698132,-0.174533,0.174533,-1.04222,-0.69215,-0.151257,0.142288,-0.996065,-0.334986,-0.698292,0.967333
22,30,-1.0472,-0.698132,-0.174533,0.174533,-1.04222,-0.69215,-0.151257,0.142288,-0.996065,-0.334986,-0.698292,0.967333
22,30,-1.0472,-0.698132,-0.174533,0.174533,-1.04222,-0.69215,-0.151257,0.142288,-0.996065,-0.334986,-0.698292,0.967333
22,30,-1.0472,-0.698132,-0.174533,0.174533,-1.04222,-0.69215,-0.151257,0.142288,-0.996065,-0.334986,-0.698292,0.967333
22,30,-1.0472,-0.698132,-0.174533,0.174533,-1.04222,-0.69215,-0.151257,0.142288,-0.996065,-0.334986,-0.698292,0.967333
22,30,-1.0472,-0.698132,-0.174533,0.174533,-1.04222,-0.69215,-0.151257,0.142288,-0.996065,-0.334986,-0.698292,0.967333
22,30,-1.0472,-0.698132,-0.174533,0.174533,-1.04222,-0.69215,-0.151257,0.142288,-0.996065,-0.334986,-0.698292,0.967333
22,30,-1.0472,-0.698132,-0.174533,0.174533,-1.04222,-0.69215,-0.151257,0.142288,-0.996065,-0.334986,-0.698292,0.967333
22,30,-1.0472,-0.698132,-0.174533,0.174533,-1.04222,-0.69215,-0.151257,0.142288,-0.996065,-0.334986,-0.698292,0.967333
22,30,-1.0472,-0.698132,-0.174533,0.174533,-1.04222,-0.69215,-0.151257,0.142288,-0.996065,-0.334986,-0.698292,0.967333
22,30,-1.0472,-0.698132,-0.174533,0.174533,-1.04222,-0.69215,-0.151257,0.142288,-0.996065,-0.334986,-0.698292,0.967333
22,30,-1.0472,-0.698132,-0.174533,0.174533,-1.04222,-0.69215,-0.151257,0.142288,-0.996065,-0.334986,-0.698292,0.967333
22,30,-1.0472,-0.698132,-0.174533,0.174533,-1.04222,-0.69215,-0.151257,0.142288,-0.996065,-0.334986,-0.698292,0.967333
22,30,-1.0472,-0.698132,-0.174533,0.174533,-1.04222,-0.69215,-0.151257,0.142288,-0.996065,-0.334986,-0.698292,0.967333
22,30,-1.0472,-0.698132,-0.174533,0.174533,-1.04222,-0.69215,-0.151257,0.142288,-0.996065,-0.334986,-0.698292,0.967333
22,30,-1.0472,-0.698132,-0.174533,0.174533,-1.04222,-0.69215,-0.151257,0.142288,-0.996065,-0.334986,-0.698292,0.967333
22,30,-1.0472,-0.698132,-0.174533,0.174533,-1.04222,-0.69215,-0.151257,0.142288,-0.996065,-0.334986,-0.698292,0.967333
22,30,-1.0472,-0.698132,-0.174533,0.174533,-1.04222,-0.69215,-0.151257,0.142288,-0.996065,-0.334986,-0.698292,0.967333
22,30,-1.0472,-0.698132,-0.174533,0.174533,-1.04222,-0.69215,-0.151253,0.142218,-0.996065,-0.334986,-0.698398,0.969446
22,30,-1.0472,-0.698132,-0.174533,0.174533,-1.04222,-0.69215,-0.151253,0.142218,-0.996065,-0.334986,-0.698398,0.969446
22,30,-1.0472,-0.698132,-0.174533,0.174533,-1.04222,-0.69215,-0.151253,0.142218,-0.996065,-0.334986,-0.698398,0.969446
22,30,-1.0472,-0.698132,-0.174533,0.174533,-1.04222,-0.69215,-0.151253,0.142218,-0.996065,-0.334986,-0.698398,0.969446
22,30,-1.0472,-0.698132,-0.174533,0.174533,-1.04222,-0.69215,-0.151253,0.142218,-0.996065,-0.334986,-0.698398,0.969446
22,30,-1.0472,-0.698132,-0.174533,0.174533,-1.04222,-0.69215,-0.151253,0.142218,-0.996065,-0.334986,-0.698398,0.969446
22,30,-1.0472,-0.698132,-0.174533,0.174533,-1.04222,-0.69215,-0.151253,0.142218,-0.996065,-0.334986,-0.698398,0.969446
22,30,-1.0472,-0.698132,-0.174533,0.174533,-1.04222,-0.69215,-0.151253,0.142218,-0.996065,-0.334986,-0.698398,0.969446
22,30,-1.0472,-0.698132,-0.174533,0.174533,-1.04222,-0.69215,-0.151253,0.142218,-0.996065,-0.334986,-0.698398,0.969446
22,30,-1.0472,-0.698132,-0.174533,0.174533,-1.04222,-0.69215,-0.151253,0.142218,-0.996065,-0.334986,-0.698398,0.969446
22,30,-1.0472,-0.698132,-0.174533,0.174533,-1.04222,-0.69215,-0.151253,0.142218,-0.996065,-0.334986,-0.698398,0.969446
22,30,-1.0472,-0.698132,-0.174533,0.174533,-1.04222,-0.69215,-0.151253,0.142218,-0.996065,-0.334986,-0.698398,0.969446
22,30,-1.0472,-0.698132,-0.174533,0.174533,-1.04222,-0.69215,-0.151253,0.142218,-0.996065,-0.334986,-0.698398,0.969446
22,30,-1.0472,-0.698132,-0.174533,0.174533,-1.04222,-0.69215,-0.151253,0.142218,-0.996065,-0.334986,-0.698398,0.969446
22,30,-1.0472,-0.698132,-0.174533,0.174533,-1.04222,-0.69215,-0.151253,0.142218,-0.996065,-0.334986,-0.698398,0.969446
22,30,-1.0472,-0.698132,-0.174533,0.174533,-1.04222,-0.69215,-0.151253,0.142218,-0.996065,-0.334986,-0.698398,0.969446
22,30,-1.0472,-0.698132,-0.174533,0.174533,-1.04222,-0.69215,-0.151253,0.142218,-0.996065,-0.334986,-0.698398,0.969446
22,30,-1.0472,-0.698132,-0.174533,0.174533,-1.04222,-0.69215,-0.151253,0.142218,-0.996065,-0.334986,-0.698398,0.969446
22,30,-1.0472,-0.698132,-0.174533,0.174533,-1.04222,-0.69215,-0.151253,0.142218,-0.996065,-0.334986,-0.698398,0.969446
22,30,-1.0472,-0.698132,-0.174533,0.174533,-1.04222,-0.69215,-0.151253,0.142218,-0.996065,-0.334986,-0.698398,0.969446
22,30,-1.0472,-0.698132,-0.174533,0.174533,-1.04222,-0.69215,-0.151253,0.142218,-0.996065,-0.334986,-0.698398,0.969446
22,30,-1.0472,-0.698132,-0.174533,0.174533,-1.04222,-0.69215,-0.151253,0.142218,-0.996065,-0.334986,-0.698398,0.969446
22,30,-1.0472,-0.698132,-0.174533,0.174533,-1.04222,-0.69215,-0.151253,0.142218,-0.996065,-0.334986,-0.698398,0.969446
22,30,-1.0472,-0.698132,-0.174533,0.174533,-1.04222,-0.69215,-0.151253,0.142218,-0.996065,-0.334986,-0.698398,0.969446
22,30,-1.0472,-0.698132,-0.174533,0.174533,-1.04222,-0.69215,-0.151253,0.142218,-0.996065,-0.334986,-0.698398,0.969446
22,30,-1.0472,-0.698132,-0.174533,0.174533,-1.04222,-0.69215,-0.151253,0.142218,-0.996065,-0.334986,-0.698398,0.969446
22,30,-1.0472,-0.698132,-0.174533,0.174533,-1.04222,-0.69215,-0.151253,0.142218,-0.996065,-0.334986,-0.698398,0.969446
22,30,-1.0472,-0.698132,-0.174533,0.174533,-1.04222,-0.69215,-0.151253,0.142218,-0.996065,-0.334986,-0.698398,0.969446
22,30,-1.0472,-0.698132,-0.174533,0.174533,-1.04222,-0.69215,-0.151253,0.142218,-0.996065,-0.334986,-0.698398,0.969446
22,30,-1.0472,-0.698132,-0.174533,0.174533,-1.04222,-0.69215,-0.151253,0.142218,-0.996065,-0.334986,-0.698398,0.969446
22,30,-1.0472,-0.698132,-0.174533,0.174533,-1.04222,-0.69215,-0.151253,0.142218,-0.996065,-0.334986,-0.698398,0.969446
22,30,-1.0472,-0.698132,-0.174533,0.174533,-1.04222,-0.69215,-0.151253,0.142218,-0.996065,-0.334986,-0.698398,0.969446
22,30,-1.0472,-0.698132,-0.174533,0.174533,-1.04222,-0.69215,-0.151253,0.142218,-0.996065,-0.334986,-0.698398,0.969446
22,30,-1.0472,-0.698132,-0.174533,0.174533,-1.04222,-0.69215,-0.151253,0.142218,-0.996065,-0.334986,-0.698398,0.969446
22,30,-1.0472,-0.698132,-0.174533,0.174533,-1.04222,-0.69215,-0.151253,0.142218,-0.996065,-0.334986,-0.698398,0.969446
22,30,-1.0472,-0.698132,-0.174533,0.174533,-1.04222,-0.69215,-0.151253,0.142218,-0.996065,-0.334986,-0.698398,0.969446
22,30,-1.0472,-0.698132,-0.174533,0.174533,-1.04222,-0.69215,-0.151253,0.142218,-0.996065,-0.334986,-0.698398,0.969446
22,30,-1.0472,-0.698132,-0.174533,0.174533,-1.04222,-0.69215,-0.151253,0.142218,-0.996065,-0.334986,-0.698398,0.969446
22,30,-1.0472,-0.698132,-0.174533,0.174533,-1.04222,-0.69215,-0.151253,0.142218,-0.996065,-0.334986,-0.698398,0.969446
22,30,-1.0472,-0.698132,-0.174533,0.174533,-1.04222,-0.69215,-0.151253,0.142218,-0.996065,-0.334986,-0.698398,0.969446
22,30,-1.0472,-0.698132,-0.174533,0.174533,-1.04222,-0.69215,-0.151253,0.142218,-0.996065,-0.334986,-0.698398,0.969446
22,30,-1.0472,-0.698132,-0.174533,0.174533,-1.04222,-0.69215,-0.151253,0.142218,-0.996065,-0.334986,-0.698398,0.969446
22,30,-1.0472,-0.698132,-0.174533,0.174533,-1.04222,-0.69215,-0.151253,0.142218,-0.996065,-0.334986,-0.698398,0.969446
22,30,-1.0472,-0.698132,-0.174533,0.174533,-1.04222,-0.69215,-0.151253,0.142218,-0.996065,-0.334986,-0.698398,0.969446
22,30,-1.0472,-0.698132,-0.174533,0.174533,-1.04222,-0.69215,-0.151253,0.142218,-0.996065,-0.334986,-0.698398,0.969446
22,30,-1.0472,-0.698132,-0.174533,0.174533,-1.04222,-0.69215,-0.151253,0.142218,-0.996065,-0.334986,-0.698398,0.969446
22,30,-1.0472,-0.698132,-0.174533,0.174533,-1.04222,-0.69215,-0.151253,0.142218,-0.996065,-0.334986,-0.698398,0.969446
22,30,-1.0472,-0.698132,-0.174533,0.174533,-1.04222,-0.69215,-0.151253,0.142218,-0.996065,-0.334986,-0.698398,0.969446
22,30,-1.0472,-0.698132,-0.174533,0.174533,-1.04222,-0.69215,-0.151253,0.142218,-0.996065,-0.334986,-0.698398,0.969446
22,30,-1.0472,-0.698132,-0.174533,0.174533,-1.04222,-0.69215,-0.151253,0.142218,-0.996065,-0.334986,-0.698398,0.969446
22,30,-1.0472,-0.698132,-0.174533,0.174533,-1.04222,-0.69215,-0.151253,0.142218,-0.996065,-0.334986,-0.698398,0.969446
22,30,-1.0472,-0.698132,-0.174533,0.174533,-1.04222,-0.69215,-0.151253,0.142218,-0.996065,-0.334986,-0.698398,0.969446
22,30,-1.0472,-0.698132,-0.174533,0.174533,-1.04222,-0.69215,-0.151253,0.142218,-0.996065,-0.334986,-0.698398,0.969446
22,30,-1.0472,-0.698132,-0.174533,0.174533,-1.04222,-0.69215,-0.151253,0.142218,-0.996065,-0.334986,-0.698398,0.969446
22,30,-1.0472,-0.698132,-0.174533,0.174533,-1.04222,-0.69215,-0.151253,0.142218,-0.996065,-0.334986,-0.698398,0.969446
22,30,-1.0472,-0.698132,-0.174533,0.174533,-1.04222,-0.69215,-0.151253,0.142218,-0.996065,-0.334986,-0.698398,0.969446
22,30,-1.0472,-0.698132,-0.174533,0.174533,-1.04222,-0.69215,-0.151253,0.142218,-0.996065,-0.334986,-0.698398,0.969446
22,30,-1.0472,-0.698132,-0.174533,0.174533,-1.04222,-0.69215,-0.151253,0.142218,-0.996065,-0.334986,-0.698398,0.969446
22,30,-1.0472,-0.698132,-0.174533,0.174533,-1.04222,-0.69215,-0.151253,0.142218,-0.996065,-0.334986,-0.698398,0.969446
22,30,-1.0472,-0.698132,-0.174533,0.174533,-1.04222,-0.69215,-0.151253,0.142218,-0.996065,-0.334986,-0.698398,0.969446
22,30,-1.0472,-0.698132,-0.174533,0.174533,-1.04222,-0.69215,-0.151253,0.142218,-0.996065,-0.334986,-0.698398,0.969446
22,30,-1.0472,-0.698132,-0.174533,0.174533,-1.04222,-0.69215,-0.151253,0.142218,-0.996065,-0.334986,-0.698398,0.969446
22,30,-1.0472,-0.698132,-0.174533,0.174533,-1.04222,-0.69215,-0.151253,0.142218,-0.996065,-0.334986,-0.698398,0.969446
22,30,-1.0472,-0.698132,-0.174533,0.174533,-1.04222,-0.69215,-0.151253,0.142218,-0.996065,-0.334986,-0.698398,0.969446
22,30,-1.0472,-0.698132,-0.174533,0.174533,-1.04222,-0.69215,-0.151253,0.142218,-0.996065,-0.334986,-0.698398,0.969446
22,30,-1.0472,-0.698132,-0.174533,0.174533,-1.04222,-0.69215,-0.151253,0.142218,-0.996065,-0.334986,-0.698398,0.969446
22,30,-1.0472,-0.698132,-0.174533,0.174533,-1.04222,-0.69215,-0.151253,0.142218,-0.996065,-0.334986,-0.698398,0.969446
22,30,-1.0472,-0.698132,-0.174533,0.174533,-1.04222,-0.69215,-0.151253,0.142218,-0.996065,-0.334986,-0.698398,0.969446
22,30,-1.0472,-0.698132,-0.174533,0.174533,-1.04222,-0.69215,-0.151253,0.142218,-0.996065,-0.334986,-0.698398,0.969446
22,30,-1.0472,-0.698132,-0.174533,0.174533,-1.04222,-0.69215,-0.151253,0.142218,-0.996065,-0.334986,-0.698398,0.969446
22,30,-1.0472,-0.698132,-0.174533,0.174533,-1.04222,-0.69215,-0.151253,0.142218,-0.996065,-0.334986,-0.698398,0.969446
22,30,-1.0472,-0.698132,-0.174533,0.174533,-1.04222,-0.69215,-0.151253,0.142218,-0.996065,-0.334986,-0.698398,0.969446
22,30,-1.0472,-0.698132,-0.174533,0.174533,-1.04222,-0.69215,-0.151253,0.142218,-0.996065,-0.334986,-0.698398,0.969446
22,30,-1.0472,-0.698132,-0.174533,0.174533,-1.04222,-0.69215,-0.151253,0.142218,-0.996065,-0.334986,-0.698398,0.969446
22,30,-1.0472,-0.698132,-0.174533,0.174533,-1.04222,-0.69215,-0.151253,0.142218,-0.996065,-0.334986,-0.698398,0.969446
22,30,-1.0472,-0.698132,-0.174533,0.174533,-1.04222,-0.69215,-0.151253,0.142218,-0.996065,-0.334986,-0.698398,0.969446
22,30,-1.0472,-0.698132,-0.174533,0.174533,-1.04222,-0.69215,-0.151253,0.142218,-0.996065,-0.334986,-0.698398,0.969446
22,30,-1.0472,-0.698132,-0.174533,0.174533,-1.04222,-0.69215,-0.151253,0.142218,-0.996065,-0.334986,-0.698398,0.969446
22,30,-1.0472,-0.698132,-0.174533,0.174533,-1.04222,-0.69215,-0.151253,0.142218,-0.996065,-0.334986,-0.698398,0.969446
22,30,-1.0472,-0.698132,-0.174533,0.174533,-1.04222,-0.69215,-0.151253,0.142218,-0.996065,-0.334986,-0.698398,0.969446
22,30,-1.0472,-0.698132,-0.174533,0.174533,-1.04222,-0.69215,-0.151253,0.142218,-0.996065,-0.334986,-0.698398,0.969446
22,30,-1.0472,-0.698132,-0.174533,0.174533,-1.04222,-0.69215,-0.151253,0.142218,-0.996065,-0.334986,-0.698398,0.969446
22,30,-1.0472,-0.698132,-0.174533,0.174533,-1.04222,-0.69215,-0.151253,0.142218,-0.996065,-0.334986,-0.698398,0.969446
22,30,-1.0472,-0.698132,-0.174533,0.174533,-1.04222,-0.69215,-0.151253,0.142218,-0.996065,-0.334986,-0.698398,0.969446
22,30,-1.0472,-0.698132,-0.174533,0.174533,-1.04222,-0.69215,-0.151253,0.142218,-0.996065,-0.334986,-0.698398,0.969446
22,30,-1.0472,-0.698132,-0.174533,0.174533,-1.04222,-0.69215,-0.151253,0.142218,-0.996065,-0.334986,-0.698398,0.969446
22,30,-1.0472,-0.698132,-0.174533,0.174533,-1.04222,-0.69215,-0.151253,0.142218,-0.996065,-0.334986,-0.698398,0.969446
22,30,-1.0472,-0.698132,-0.174533,0.174533,-1.04222,-0.69215,-0.151253,0.142218,-0.996065,-0.334986,-0.698398,0.969446
22,30,-1.0472,-0.698132,-0.174533,0.174533,-1.04222,-0.69215,-0.151253,0.142218,-0.996065,-0.334986,-0.698398,0.969446
22,30,-1.0472,-0.698132,-0.174533,0.174533,-1.04222,-0.69215,-0.151253,0.142218,-0.996065,-0.334986,-0.698398,0.969446
22,30,-1.0472,-0.698132,-0.174533,0.174533,-1.04222,-0.69215,-0.151253,0.142218,-0.996065,-0.334986,-0.698398,0.969446
22,30,-1.0472,-0.698132,-0.174533,0.174533,-1.04222,-0.69215,-0.151253,0.142218,-0.996065,-0.334986,-0.698398,0.969446
22,30,-1.0472,-0.698132,-0.174533,0.174533,-1.04222,-0.69215,-0.151253,0.142218,-0.996065,-0.334986,-0.698398,0.969446
22,30,-1.0472,-0.698132,-0.174533,0.174533,-1.04222,-0.69215,-0.151253,0.142218,-0.996065,-0.334986,-0.698398,0.969446
22,30,-1.0472,-0.698132,-0.174533,0.174533,-1.04222,-0.69215,-0.151253,0.142218,-0.996065,-0.334986,-0.698398,0.969446
22,30,-1.0472,-0.698132,-0.174533,0.174533,-1.04222,-0.69215,-0.151253,0.142218,-0.996065,-0.334986,-0.698398,0.969446
22,30,-1.0472,-0.698132,-0.174533,0.174533,-1.04222,-0.69215,-0.151253,0.142218,-0.996065,-0.334986,-0.698398,0.969446
22,30,-1.0472,-0.698132,-0.174533,0.174533,-1.04222,-0.69215,-0.151253,0.142218,-0.996065,-0.334986,-0.698398,0.969446
22,30,-1.0472,-0.698132,-0.174533,0.174533,-1.04222,-0.69215,-0.151253,0.142218,-0.996065,-0.334986,-0.698398,0.969446
22,30,-1.0472,-0.698132,-0.174533,0.174533,-1.04222,-0.69215,-0.151253,0.142218,-0.996065,-0.334986,-0.698398,0.969446
22,30,-1.0472,-0.698132,-0.174533,0.174533,-1.04222,-0.69215,-0.151253,0.142218,-0.996065,-0.334986,-0.698398,0.969446
22,30,-1.0472,-0.698132,-0.174533,0.174533,-1.04222,-0.69215,-0.151253,0.142218,-0.996065,-0.334986,-0.698398,0.969446
22,30,-1.0472,-0.698132,-0.174533,0.174533,-1.04222,-0.69215,-0.151253,0.142218,-0.996065,-0.334986,-0.698398,0.969446
22,30,-1.0472,-0.698132,-0.174533,0.174533,-1.04222,-0.69215,-0.151253,0.142218,-0.996065,-0.334986,-0.698398,0.969446
22,30,-1.0472,-0.698132,-0.174533,0.174533,-1.04222,-0.69215,-0.151253,0.142218,-0.996065,-0.334986,-0.698398,0.969446
22,30,-1.0472,-0.698132,-0.174533,0.174533,-1.04222,-0.69215,-0.151253,0.142218,-0.996065,-0.334986,-0.698398,0.969446
22,30,-1.0472,-0.698132,-0.174533,0.174533,-1.04222,-0.69215,-0.151253,0.142218,-0.996065,-0.334986,-0.698398,0.969446
22,30,-1.0472,-0.698132,-0.174533,0.174533,-1.04222,-0.69215,-0.151253,0.142218,-0.996065,-0.334986,-0.698398,0.969446
22,30,-1.0472,-0.698132,-0.174533,0.174533,-1.04222,-0.69215,-0.151253,0.142218,-0.996065,-0.334986,-0.698398,0.969446
22,30,-1.0472,-0.698132,-0.174533,0.174533,-1.04222,-0.69215,-0.151253,0.142218,-0.996065,-0.334986,-0.698398,0.969446
22,30,-1.0472,-0.698132,-0.174533,0.174533,-1.04222,-0.69215,-0.151253,0.142218,-0.996065,-0.334986,-0.698398,0.969446
22,30,-1.0472,-0.698132,-0.174533,0.174533,-1.04222,-0.69215,-0.151253,0.142218,-0.996065,-0.334986,-0.698398,0.969446
22,30,-1.0472,-0.698132,-0.174533,0.174533,-1.04222,-0.69215,-0.151253,0.142218,-0.996065,-0.334986,-0.698398,0.969446
22,30,-1.0472,-0.698132,-0.174533,0.174533,-1.04222,-0.69215,-0.151253,0.142218,-0.996065,-0.334986,-0.698398,0.969446
22,30,-1.0472,-0.698132,-0.174533,0.174533,-1.04222,-0.69215,-0.151253,0.142218,-0.996065,-0.334986,-0.698398,0.969446
22,30,-1.0472,-0.698132,-0.174533,0.174533,-1.04222,-0.69215,-0.151253,0.142218,-0.996065,-0.334986,-0.698398,0.969446
22,30,-1.0472,-0.698132,-0.174533,0.174533,-1.04222,-0.69215,-0.151253,0.142218,-0.996065,-0.334986,-0.698398,0.969446
22,30,-1.0472,-0.698132,-0.174533,0.174533,-1.04222,-0.69215,-0.151253,0.142218,-0.996065,-0.334986,-0.698398,0.969446
22,30,-1.0472,-0.698132,-0.174533,0.174533,-1.04222,-0.69215,-0.151253,0.142218,-0.996065,-0.334986,-0.698398,0.969446
22,30,-1.0472,-0.698132,-0.174533,0.174533,-1.04222,-0.69215,-0.151253,0.142218,-0.996065,-0.334986,-0.698398,0.969446
22,30,-1.0472,-0.698132,-0.174533,0.174533,-1.04222,-0.69215,-0.151253,0.142218,-0.996065,-0.334986,-0.698398,0.969446
22,30,-1.0472,-0.698132,-0.174533,0.174533,-1.04222,-0.69215,-0.151253,0.142218,-0.996065,-0.334986,-0.698398,0.969446
22,30,-1.0472,-0.698132,-0.174533,0.174533,-1.04222,-0.69215,-0.151253,0.142218,-0.996065,-0.334986,-0.698398,0.969446
22,30,-1.0472,-0.698132,-0.174533,0.174533,-1.04222,-0.69215,-0.151253,0.142218,-0.996065,-0.334986,-0.698398,0.969446
22,30,-1.0472,-0.698132,-0.174533,0.174533,-1.04222,-0.69215,-0.151253,0.142218,-0.996065,-0.334986,-0.698398,0.969446
22,30,-1.0472,-0.698132,-0.174533,0.174533,-1.04222,-0.69215,-0.151253,0.142218,-0.996065,-0.334986,-0.698398,0.969446
22,30,-1.0472,-0.698132,-0.174533,0.174533,-1.04222,-0.69215,-0.151253,0.142218,-0.996065,-0.334986,-0.698398,0.969446
22,30,-1.0472,-0.698132,-0.174533,0.174533,-1.04222,-0.69215,-0.151253,0.142218,-0.996065,-0.334986,-0.698398,0.969446
22,30,-1.0472,-0.698132,-0.174533,0.174533,-1.04222,-0.69215,-0.151253,0.142218,-0.996065,-0.334986,-0.698398,0.969446
22,30,-1.0472,-0.698132,-0.174533,0.174533,-1.04222,-0.69215,-0.151253,0.142218,-0.996065,-0.334986,-0.698398,0.969446
22,30,-1.0472,-0.698132,-0.174533,0.174533,-1.04222,-0.69215,-0.151253,0.142218,-0.996065,-0.334986,-0.698398,0.969446
22,30,-1.0472,-0.698132,-0.174533,0.174533,-1.04222,-0.69215,-0.151253,0.142218,-0.996065,-0.334986,-0.698398,0.969446
22,30,-1.0472,-0.698132,-0.174533,0.174533,-1.04222,-0.69215,-0.151253,0.142218,-0.996065,-0.334986,-0.698398,0.969446
22,30,-1.0472,-0.698132,-0.174533,0.174533,-1.04222,-0.69215,-0.151253,0.142218,-0.996065,-0.334986,-0.698398,0.969446
22,30,-1.0472,-0.698132,-0.174533,0.174533,-1.04222,-0.69215,-0.151253,0.142218,-0.996065,-0.334986,-0.698398,0.969446
22,30,-1.0472,-0.698132,-0.174533,0.174533,-1.04222,-0.69215,-0.151253,0.142218,-0.996065,-0.334986,-0.698398,0.969446
22,30,-1.0472,-0.698132,-0.174533,0.174533,-1.04222,-0.69215,-0.151253,0.142218,-0.996065,-0.334986,-0.698398,0.969446
22,30,-1.0472,-0.698132,-0.174533,0.174533,-1.04222,-0.69215,-0.151253,0.142218,-0.996065,-0.334986,-0.698398,0.969446
22,30,-1.0472,-0.698132,-0.174533,0.174533,-1.04222,-0.69215,-0.151253,0.142218,-0.996065,-0.334986,-0.698398,0.969446
22,30,-1.0472,-0.698132,-0.174533,0.174533,-1.04222,-0.69215,-0.151253,0.142218,-0.996065,-0.334986,-0.698398,0.969446
22,30,-1.0472,-0.698132,-0.174533,0.174533,-1.04222,-0.69215,-0.151253,0.142218,-0.996065,-0.334986,-0.698398,0.969446
22,30,-1.0472,-0.698132,-0.174533,0.174533,-1.04222,-0.69215,-0.151253,0.142218,-0.996065,-0.334986,-0.698398,0.969446
22,30,-1.0472,-0.698132,-0.174533,0.174533,-1.04222,-0.69215,-0.151253,0.142218,-0.996065,-0.334986,-0.698398,0.969446
22,30,-1.0472,-0.698132,-0.174533,0.174533,-1.04222,-0.69215,-0.151253,0.142218,-0.996065,-0.334986,-0.698398,0.969446
22,30,-1.0472,-0.698132,-0.174533,0.174533,-1.04222,-0.69215,-0.151253,0.142218,-0.996065,-0.334986,-0.698398,0.969446
22,30,-1.0472,-0.698132,-0.174533,0.174533,-1.04222,-0.69215,-0.151253,0.142218,-0.996065,-0.334986,-0.698398,0.969446
22,30,-1.0472,-0.698132,-0.174533,0.174533,-1.04222,-0.69215,-0.151253,0.142218,-0.996065,-0.334986,-0.698398,0.969446
22,30,-1.0472,-0.698132,-0.174533,0.174533,-1.04222,-0.69215,-0.151253,0.142218,-0.996065,-0.334986,-0.698394,0.96945
22,30,-1.0472,-0.698132,-0.174533,0.174533,-1.04222,-0.69215,-0.151253,0.142218,-0.996065,-0.334986,-0.698394,0.96945
22,30,-1.0472,-0.698132,-0.174533,0.174533,-1.04222,-0.69215,-0.151253,0.142218,-0.996065,-0.334986,-0.698394,0.96945
22,30,-1.0472,-0.698132,-0.174533,0.174533,-1.04222,-0.69215,-0.151253,0.142218,-0.996065,-0.334986,-0.698394,0.96945
22,30,-1.0472,-0.698132,-0.174533,0.174533,-1.04222,-0.69215,-0.151253,0.142218,-0.996065,-0.334986,-0.698394,0.96945
22,30,-1.0472,-0.698132,-0.174533,0.174533,-1.04222,-0.69215,-0.151253,0.142218,-0.996065,-0.334986,-0.698394,0.96945
22,30,-1.0472,-0.698132,-0.174533,0.174533,-1.04222,-0.69215,-0.151253,0.142218,-0.996065,-0.334986,-0.698394,0.96945
22,30,-1.0472,-0.698132,-0.174533,0.174533,-1.04222,-0.69215,-0.151253,0.142218,-0.996065,-0.334986,-0.698394,0.96945
22,30,-1.0472,-0.698132,-0.174533,0.174533,-1.04222,-0.69215,-0.151253,0.142218,-0.996065,-0.334986,-0.698394,0.96945
22,30,-1.0472,-0.698132,-0.174533,0.174533,-1.04222,-0.69215,-0.151253,0.142218,-0.996065,-0.334986,-0.698394,0.96945
22,30,-1.0472,-0.698132,-0.174533,0.174533,-1.04222,-0.69215,-0.151253,0.142218,-0.996065,-0.334986,-0.698394,0.96945
22,30,-1.0472,-0.698132,-0.174533,0.174533,-1.04222,-0.69215,-0.151253,0.142218,-0.996065,-0.334986,-0.698394,0.96945
22,30,-1.0472,-0.698132,-0.174533,0.174533,-1.04222,-0.69215,-0.151253,0.142218,-0.996065,-0.334986,-0.698394,0.96945
22,30,-1.0472,-0.698132,-0.174533,0.174533,-1.04222,-0.69215,-0.151253,0.142218,-0.996065,-0.334986,-0.698394,0.96945
22,30,-1.0472,-0.698132,-0.174533,0.174533,-1.04222,-0.69215,-0.151253,0.142218,-0.996065,-0.334986,-0.698394,0.96945
22,30,-1.0472,-0.698132,-0.174533,0.174533,-1.04222,-0.69215,-0.151253,0.142218,-0.996065,-0.334986,-0.698394,0.96945
22,30,-1.0472,-0.698132,-0.174533,0.174533,-1.04222,-0.69215,-0.151253,0.142218,-0.996065,-0.334986,-0.698394,0.96945
22,30,-1.0472,-0.698132,-0.174533,0.174533,-1.04222,-0.69215,-0.151253,0.142218,-0.996065,-0.334986,-0.698394,0.96945
22,30,-1.0472,-0.698132,-0.174533,0.174533,-1.04222,-0.69215,-0.151253,0.142218,-0.996065,-0.334986,-0.698394,0.96945
22,30,-1.0472,-0.698132,-0.174533,0.174533,-1.04222,-0.69215,-0.151253,0.142218,-0.996065,-0.334986,-0.698394,0.96945
22,30,-1.0472,-0.698132,-0.174533,0.174533,-1.04222,-0.69215,-0.151253,0.142218,-0.996065,-0.334986,-0.698394,0.96945
22,30,-1.0472,-0.698132,-0.174533,0.174533,-1.04222,-0.69215,-0.151253,0.142218,-0.996065,-0.334986,-0.698394,0.96945
22,30,-1.0472,-0.698132,-0.174533,0.174533,-1.04222,-0.69215,-0.151253,0.142218,-0.996065,-0.334986,-0.698394,0.96945
22,30,-1.0472,-0.698132,-0.174533,0.174533,-1.04222,-0.69215,-0.151253,0.142218,-0.996065,-0.334986,-0.698394,0.96945
22,30,-1.0472,-0.698132,-0.174533,0.174533,-1.04222,-0.69215,-0.151253,0.142218,-0.996065,-0.334986,-0.698394,0.96945
22,30,-1.0472,-0.698132,-0.174533,0.174533,-1.04222,-0.69215,-0.151253,0.142218,-0.996065,-0.334986,-0.698394,0.96945
22,30,-1.0472,-0.698132,-0.174533,0.174533,-1.04222,-0.69215,-0.151253,0.142218,-0.996065,-0.334986,-0.698394,0.96945
22,30,-1.0472,-0.698132,-0.174533,0.174533,-1.04222,-0.69215,-0.151253,0.142218,-0.996065,-0.334986,-0.698394,0.96945
22,30,-1.0472,-0.698132,-0.174533,0.174533,-1.04222,-0.69215,-0.151253,0.142218,-0.996065,-0.334986,-0.698394,0.96945
22,30,-1.0472,-0.698132,-0.174533,0.174533,-1.04222,-0.69215,-0.151253,0.142218,-0.996065,-0.334986,-0.698394,0.96945
22,30,-1.0472,-0.698132,-0.174533,0.174533,-1.04222,-0.69215,-0.151253,0.142218,-0.996065,-0.334986,-0.698394,0.96945
22,30,-1.0472,-0.698132,-0.174533,0.174533,-1.04222,-0.69215,-0.151253,0.142218,-0.996065,-0.334986,-0.698394,0.96945
22,30,-1.0472,-0.698132,-0.174533,0.174533,-1.04222,-0.69215,-0.151253,0.142218,-0.996065,-0.334986,-0.698394,0.96945
22,30,-1.0472,-0.698132,-0.174533,0.174533,-1.04222,-0.69215,-0.151253,0.142218,-0.996065,-0.334986,-0.698394,0.96945
22,30,-1.0472,-0.698132,-0.174533,0.174533,-1.04222,-0.69215,-0.151253,0.142218,-0.996065,-0.334986,-0.698394,0.96945
22,30,-1.0472,-0.698132,-0.174533,0.174533,-1.04222,-0.69215,-0.151253,0.142218,-0.996065,-0.334986,-0.698394,0.96945
22,30,-1.0472,-0.698132,-0.174533,0.174533,-1.04222,-0.69215,-0.151253,0.142218,-0.996065,-0.334986,-0.698394,0.96945
22,30,-1.0472,-0.698132,-0.174533,0.174533,-1.04222,-0.69215,-0.151253,0.142218,-0.996065,-0.334986,-0.698394,0.96945
22,30,-1.0472,-0.698132,-0.174533,0.174533,-1.04222,-0.69215,-0.151253,0.142218,-0.996065,-0.334986,-0.698394,0.96945
22,30,-1.0472,-0.698132,-0.174533,0.174533,-1.04222,-0.69215,-0.151253,0.142218,-0.996065,-0.334986,-0.698394,0.96945
22,30,-1.0472,-0.698132,-0.174533,0.174533,-1.04222,-0.69215,-0.151253,0.142218,-0.996065,-0.334986,-0.698394,0.96945
22,30,-1.0472,-0.698132,-0.174533,0.174533,-1.04222,-0.69215,-0.151253,0.142218,-0.996065,-0.334986,-0.698394,0.96945
22,30,-1.0472,-0.698132,-0.174533,0.174533,-1.04222,-0.69215,-0.151253,0.142218,-0.996065,-0.334986,-0.698394,0.96945
22,30,-1.0472,-0.698132,-0.174533,0.174533,-1.04222,-0.69215,-0.151253,0.142218,-0.996065,-0.334986,-0.698394,0.96945
22,30,-1.0472,-0.698132,-0.174533,0.174533,-1.04222,-0.69215,-0.151253,0.142218,-0.996065,-0.334986,-0.698394,0.96945
22,30,-1.0472,-0.698132,-0.174533,0.174533,-1.04222,-0.69215,-0.151253,0.142218,-0.996065,-0.334986,-0.698394,0.96945
22,30,-1.0472,-0.698132,-0.174533,0.174533,-1.04222,-0.69215,-0.151253,0.142218,-0.996065,-0.334986,-0.698394,0.96945
22,30,-1.0472,-0.698132,-0.174533,0.174533,-1.04222,-0.69215,-0.151253,0.142218,-0.996065,-0.334986,-0.698394,0.96945
22,30,-1.0472,-0.698132,-0.174533,0.174533,-1.04222,-0.69215,-0.151253,0.142218,-0.996065,-0.334986,-0.698394,0.96945
22,30,-1.0472,-0.698132,-0.174533,0.174533,-1.04222,-0.69215,-0.151253,0.142218,-0.996065,-0.334986,-0.698394,0.96945
22,30,-1.0472,-0.698132,-0.174533,0.174533,-1.04222,-0.69215,-0.151253,0.142218,-0.996065,-0.334986,-0.698394,0.96945
22,30,-1.0472,-0.698132,-0.174533,0.174533,-1.04222,-0.69215,-0.151253,0.142218,-0.996065,-0.334986,-0.698394,0.96945
22,30,-1.0472,-0.698132,-0.174533,0.174533,-1.04222,-0.69215,-0.151253,0.142218,-0.996065,-0.334986,-0.698394,0.96945
22,30,-1.0472,-0.698132,-0.174533,0.174533,-1.04222,-0.69215,-0.151253,0.142218,-0.996065,-0.334986,-0.698394,0.96945
22,30,-1.0472,-0.698132,-0.174533,0.174533,-1.04222,-0.69215,-0.151253,0.142218,-0.996065,-0.334986,-0.698394,0.96945
22,30,-1.0472,-0.698132,-0.174533,0.174533,-1.04222,-0.69215,-0.151253,0.142218,-0.996065,-0.334986,-0.698394,0.96945
22,30,-1.0472,-0.698132,-0.174533,0.174533,-1.04222,-0.69215,-0.151253,0.142218,-0.996065,-0.334986,-0.698394,0.96945
22,30,-1.0472,-0.698132,-0.174533,0.174533,-1.04222,-0.69215,-0.151253,0.142218,-0.996065,-0.334986,-0.698394,0.96945
22,30,-1.0472,-0.698132,-0.174533,0.174533,-1.04222,-0.69215,-0.151253,0.142218,-0.996065,-0.334986,-0.698394,0.96945
22,30,-1.0472,-0.698132,-0.174533,0.174533,-1.04222,-0.69215,-0.151253,0.142218,-0.996065,-0.334986,-0.698394,0.96945
22,30,-1.0472,-0.698132,-0.174533,0.174533,-1.04222,-0.69215,-0.151253,0.142218,-0.996065,-0.334986,-0.698394,0.96945
22,30,-1.0472,-0.698132,-0.174533,0.174533,-1.04222,-0.69215,-0.151253,0.142218,-0.996065,-0.334986,-0.698394,0.96945
22,30,-1.0472,-0.698132,-0.174533,0.174533,-1.04222,-0.69215,-0.151253,0.142218,-0.996065,-0.334986,-0.698394,0.969443
22,30,-1.0472,-0.698132,-0.174533,0.174533,-1.04222,-0.69215,-0.151253,0.142218,-0.996065,-0.334986,-0.698394,0.969443
22,30,-1.0472,-0.698132,-0.174533,0.174533,-1.04222,-0.69215,-0.151253,0.142218,-0.996065,-0.334986,-0.698394,0.969443
22,30,-1.0472,-0.698132,-0.174533,0.174533,-1.04222,-0.69215,-0.151253,0.142218,-0.996065,-0.334986,-0.698394,0.969443
22,30,-1.0472,-0.698132,-0.174533,0.174533,-1.04222,-0.69215,-0.151253,0.142218,-0.996065,-0.334986,-0.698394,0.969443
22,30,-1.0472,-0.698132,-0.174533,0.174533,-1.04222,-0.69215,-0.151253,0.142218,-0.996065,-0.334986,-0.698394,0.969443
22,30,-1.0472,-0.698132,-0.174533,0.174533,-1.04222,-0.69215,-0.151253,0.142218,-0.996065,-0.334986,-0.698394,0.969443
22,30,-1.0472,-0.698132,-0.174533,0.174533,-1.04222,-0.69215,-0.151253,0.142218,-0.996065,-0.334986,-0.698394,0.969443
22,30,-1.0472,-0.698132,-0.174533,0.174533,-1.04222,-0.69215,-0.151253,0.142218,-0.996065,-0.334986,-0.698394,0.969443
