stim_pw [us],stim_amp [mA],com_elbow_fe [rad],com_forearm_ps [rad],com_wrist_fe [rad],com_wrist_ru [rad],act_elbow_fe [rad],act_forearm_ps [rad],act_wrist_fe [rad],act_wrist_ru [rad],elbow_fe_trq [Nm],forearm_ps_trq [Nm],wrist_fe_trq [Nm],wrist_ru_trq [Nm]
26,60,-1.0472,-0.698132,-0.174533,-0.174533,-1.04386,-0.692811,-0.159311,-0.185876,-0.66677,-0.297954,-0.456706,0.340309
26,60,-1.0472,-0.698132,-0.174533,-0.174533,-1.04386,-0.692811,-0.159311,-0.185876,-0.66677,-0.297954,-0.456706,0.340309
26,60,-1.0472,-0.698132,-0.174533,-0.174533,-1.04386,-0.692811,-0.159311,-0.185876,-0.66677,-0.297954,-0.456706,0.340309
26,60,-1.0472,-0.698132,-0.174533,-0.174533,-1.04386,-0.692811,-0.159311,-0.185876,-0.66677,-0.297954,-0.456705,0.340308
26,60,-1.0472,-0.698132,-0.174533,-0.174533,-1.04386,-0.692811,-0.159311,-0.185876,-0.66677,-0.297954,-0.456705,0.340308
26,60,-1.0472,-0.698132,-0.174533,-0.174533,-1.04386,-0.692811,-0.159311,-0.185876,-0.66677,-0.297954,-0.456705,0.340308
26,60,-1.0472,-0.698132,-0.174533,-0.174533,-1.04386,-0.692811,-0.159311,-0.185876,-0.66677,-0.297954,-0.456705,0.340308
26,60,-1.0472,-0.698132,-0.174533,-0.174533,-1.04386,-0.692811,-0.159311,-0.185876,-0.66677,-0.297954,-0.456704,0.340308
26,60,-1.0472,-0.698132,-0.174533,-0.174533,-1.04386,-0.692811,-0.159311,-0.185876,-0.66677,-0.297954,-0.456704,0.340307
26,60,-1.0472,-0.698132,-0.174533,-0.174533,-1.04386,-0.692811,-0.159311,-0.185876,-0.66677,-0.297954,-0.456704,0.340307
26,60,-1.0472,-0.698132,-0.174533,-0.174533,-1.04386,-0.692811,-0.159311,-0.185876,-0.66677,-0.297954,-0.456704,0.340307
26,60,-1.0472,-0.698132,-0.174533,-0.174533,-1.04386,-0.692811,-0.159311,-0.185876,-0.66677,-0.297954,-0.456703,0.340307
26,60,-1.0472,-0.698132,-0.174533,-0.174533,-1.04386,-0.692811,-0.15925,-0.185895,-0.66677,-0.297954,-0.458528,0.340896
26,60,-1.0472,-0.698132,-0.174533,-0.174533,-1.04386,-0.692811,-0.15925,-0.185895,-0.66677,-0.297954,-0.458528,0.340896
26,60,-1.0472,-0.698132,-0.174533,-0.174533,-1.04386,-0.692811,-0.15925,-0.185895,-0.66677,-0.297954,-0.458528,0.340895
26,60,-1.0472,-0.698132,-0.174533,-0.174533,-1.04386,-0.692811,-0.15925,-0.185895,-0.66677,-0.297954,-0.458528,0.340895
26,60,-1.0472,-0.698132,-0.174533,-0.174533,-1.04386,-0.692811,-0.15925,-0.185895,-0.66677,-0.297954,-0.458528,0.340895
26,60,-1.0472,-0.698132,-0.174533,-0.174533,-1.04386,-0.692811,-0.15925,-0.185895,-0.66677,-0.297954,-0.458528,0.340895
26,60,-1.0472,-0.698132,-0.174533,-0.174533,-1.04386,-0.692811,-0.15925,-0.185895,-0.66677,-0.297954,-0.458528,0.340895
26,60,-1.0472,-0.698132,-0.174533,-0.174533,-1.04386,-0.692811,-0.15925,-0.185895,-0.66677,-0.297954,-0.458528,0.340895
26,60,-1.0472,-0.698132,-0.174533,-0.174533,-1.04386,-0.692811,-0.15925,-0.185895,-0.66677,-0.297954,-0.458528,0.340895
26,60,-1.0472,-0.698132,-0.174533,-0.174533,-1.04386,-0.692811,-0.15925,-0.185895,-0.66677,-0.297954,-0.458528,0.340894
26,60,-1.0472,-0.698132,-0.174533,-0.174533,-1.04386,-0.692811,-0.15925,-0.185895,-0.66677,-0.297954,-0.458528,0.340894
26,60,-1.0472,-0.698132,-0.174533,-0.174533,-1.04386,-0.692811,-0.15925,-0.185895,-0.66677,-0.297954,-0.458528,0.340894
26,60,-1.0472,-0.698132,-0.174533,-0.174533,-1.04386,-0.692811,-0.15925,-0.185895,-0.66677,-0.297954,-0.458528,0.340894
26,60,-1.0472,-0.698132,-0.174533,-0.174533,-1.04386,-0.692811,-0.15925,-0.185895,-0.66677,-0.297954,-0.458528,0.340894
26,60,-1.0472,-0.698132,-0.174533,-0.174533,-1.04386,-0.692811,-0.15925,-0.185895,-0.66677,-0.297954,-0.458528,0.340894
26,60,-1.0472,-0.698132,-0.174533,-0.174533,-1.04386,-0.692811,-0.15925,-0.185895,-0.66677,-0.297954,-0.458528,0.340894
26,60,-1.0472,-0.698132,-0.174533,-0.174533,-1.04386,-0.692811,-0.15925,-0.185895,-0.66677,-0.297954,-0.458528,0.340894
26,60,-1.0472,-0.698132,-0.174533,-0.174533,-1.04386,-0.692811,-0.15925,-0.185895,-0.66677,-0.297954,-0.458528,0.340893
26,60,-1.0472,-0.698132,-0.174533,-0.174533,-1.04386,-0.692811,-0.15925,-0.185895,-0.66677,-0.297954,-0.458528,0.340893
26,60,-1.0472,-0.698132,-0.174533,-0.174533,-1.04386,-0.692811,-0.15925,-0.185895,-0.66677,-0.297954,-0.458528,0.340893
26,60,-1.0472,-0.698132,-0.174533,-0.174533,-1.04386,-0.692811,-0.15925,-0.185895,-0.66677,-0.297954,-0.458528,0.340893
26,60,-1.0472,-0.698132,-0.174533,-0.174533,-1.04386,-0.692811,-0.15925,-0.185895,-0.66677,-0.297954,-0.458528,0.340893
26,60,-1.0472,-0.698132,-0.174533,-0.174533,-1.04386,-0.692811,-0.15925,-0.185895,-0.66677,-0.297954,-0.458528,0.340893
26,60,-1.0472,-0.698132,-0.174533,-0.174533,-1.04386,-0.692811,-0.15925,-0.185895,-0.66677,-0.297954,-0.458528,0.340893
26,60,-1.0472,-0.698132,-0.174533,-0.174533,-1.04386,-0.692811,-0.15925,-0.185895,-0.66677,-0.297954,-0.458528,0.340893
26,60,-1.0472,-0.698132,-0.174533,-0.174533,-1.04386,-0.692811,-0.15925,-0.185895,-0.66677,-0.297954,-0.458528,0.340893
26,60,-1.0472,-0.698132,-0.174533,-0.174533,-1.04386,-0.692811,-0.15925,-0.185895,-0.66677,-0.297954,-0.458528,0.340892
26,60,-1.0472,-0.698132,-0.174533,-0.174533,-1.04386,-0.692811,-0.15925,-0.185895,-0.66677,-0.297954,-0.458528,0.340892
26,60,-1.0472,-0.698132,-0.174533,-0.174533,-1.04386,-0.692811,-0.15925,-0.185895,-0.66677,-0.297954,-0.458528,0.340892
26,60,-1.0472,-0.698132,-0.174533,-0.174533,-1.04386,-0.692811,-0.15925,-0.185895,-0.66677,-0.297954,-0.458528,0.340892
26,60,-1.0472,-0.698132,-0.174533,-0.174533,-1.04386,-0.692811,-0.15925,-0.185895,-0.66677,-0.297954,-0.458528,0.340892
26,60,-1.0472,-0.698132,-0.174533,-0.174533,-1.04386,-0.692811,-0.15925,-0.185895,-0.66677,-0.297954,-0.458528,0.340892
26,60,-1.0472,-0.698132,-0.174533,-0.174533,-1.04386,-0.692811,-0.15925,-0.185895,-0.66677,-0.297954,-0.458528,0.340892
26,60,-1.0472,-0.698132,-0.174533,-0.174533,-1.04386,-0.692811,-0.15925,-0.185895,-0.66677,-0.297954,-0.458528,0.340892
26,60,-1.0472,-0.698132,-0.174533,-0.174533,-1.04386,-0.692811,-0.15925,-0.185895,-0.66677,-0.297954,-0.458528,0.340892
26,60,-1.0472,-0.698132,-0.174533,-0.174533,-1.04386,-0.692811,-0.15925,-0.185895,-0.66677,-0.297954,-0.458528,0.340892
26,60,-1.0472,-0.698132,-0.174533,-0.174533,-1.04386,-0.692811,-0.15925,-0.185895,-0.66677,-0.297954,-0.458528,0.340891
26,60,-1.0472,-0.698132,-0.174533,-0.174533,-1.04386,-0.692811,-0.15925,-0.185895,-0.66677,-0.297954,-0.458528,0.340891
26,60,-1.0472,-0.698132,-0.174533,-0.174533,-1.04386,-0.692811,-0.15925,-0.185895,-0.66677,-0.297954,-0.458528,0.340891
26,60,-1.0472,-0.698132,-0.174533,-0.174533,-1.04386,-0.692811,-0.15925,-0.185895,-0.66677,-0.297954,-0.458528,0.340891
26,60,-1.0472,-0.698132,-0.174533,-0.174533,-1.04386,-0.692811,-0.15925,-0.185895,-0.66677,-0.297954,-0.458528,0.340891
26,60,-1.0472,-0.698132,-0.174533,-0.174533,-1.04386,-0.692811,-0.15925,-0.185895,-0.66677,-0.297954,-0.458528,0.340891
26,60,-1.0472,-0.698132,-0.174533,-0.174533,-1.04386,-0.692811,-0.15925,-0.185895,-0.66677,-0.297954,-0.458528,0.340891
26,60,-1.0472,-0.698132,-0.174533,-0.174533,-1.04386,-0.692811,-0.15925,-0.185895,-0.66677,-0.297954,-0.458528,0.340891
26,60,-1.0472,-0.698132,-0.174533,-0.174533,-1.04386,-0.692811,-0.15925,-0.185895,-0.66677,-0.297954,-0.458528,0.340891
26,60,-1.0472,-0.698132,-0.174533,-0.174533,-1.04386,-0.692811,-0.15925,-0.185895,-0.66677,-0.297954,-0.458528,0.340891
26,60,-1.0472,-0.698132,-0.174533,-0.174533,-1.04386,-0.692811,-0.15925,-0.185895,-0.66677,-0.297954,-0.458528,0.340891
26,60,-1.0472,-0.698132,-0.174533,-0.174533,-1.04386,-0.692811,-0.15925,-0.185895,-0.66677,-0.297954,-0.458528,0.340891
26,60,-1.0472,-0.698132,-0.174533,-0.174533,-1.04386,-0.692811,-0.15925,-0.185895,-0.66677,-0.297954,-0.458528,0.34089
26,60,-1.0472,-0.698132,-0.174533,-0.174533,-1.04386,-0.692811,-0.15925,-0.185895,-0.66677,-0.297954,-0.458528,0.34089
26,60,-1.0472,-0.698132,-0.174533,-0.174533,-1.04386,-0.692811,-0.15925,-0.185895,-0.66677,-0.297954,-0.458528,0.34089
26,60,-1.0472,-0.698132,-0.174533,-0.174533,-1.04386,-0.692811,-0.15925,-0.185895,-0.66677,-0.297954,-0.458528,0.34089
26,60,-1.0472,-0.698132,-0.174533,-0.174533,-1.04386,-0.692811,-0.15925,-0.185895,-0.66677,-0.297954,-0.458528,0.34089
26,60,-1.0472,-0.698132,-0.174533,-0.174533,-1.04386,-0.692811,-0.15925,-0.185895,-0.66677,-0.297954,-0.458528,0.34089
26,60,-1.0472,-0.698132,-0.174533,-0.174533,-1.04386,-0.692811,-0.15925,-0.185895,-0.66677,-0.297954,-0.458528,0.34089
26,60,-1.0472,-0.698132,-0.174533,-0.174533,-1.04386,-0.692811,-0.15925,-0.185895,-0.66677,-0.297954,-0.458528,0.34089
26,60,-1.0472,-0.698132,-0.174533,-0.174533,-1.04386,-0.692811,-0.15925,-0.185895,-0.66677,-0.297954,-0.458528,0.34089
26,60,-1.0472,-0.698132,-0.174533,-0.174533,-1.04386,-0.692811,-0.15925,-0.185895,-0.66677,-0.297954,-0.458528,0.34089
26,60,-1.0472,-0.698132,-0.174533,-0.174533,-1.04386,-0.692811,-0.15925,-0.185895,-0.66677,-0.297954,-0.458528,0.34089
26,60,-1.0472,-0.698132,-0.174533,-0.174533,-1.04386,-0.692811,-0.15925,-0.185895,-0.66677,-0.297954,-0.458528,0.34089
26,60,-1.0472,-0.698132,-0.174533,-0.174533,-1.04386,-0.692811,-0.15925,-0.185895,-0.66677,-0.297954,-0.458528,0.340889
26,60,-1.0472,-0.698132,-0.174533,-0.174533,-1.04386,-0.692811,-0.15925,-0.185895,-0.66677,-0.297954,-0.458529,0.340874
26,60,-1.0472,-0.698132,-0.174533,-0.174533,-1.04386,-0.692811,-0.15925,-0.185895,-0.66677,-0.297954,-0.458528,0.340874
26,60,-1.0472,-0.698132,-0.174533,-0.174533,-1.04386,-0.692811,-0.15925,-0.185895,-0.66677,-0.297954,-0.458527,0.340874
26,60,-1.0472,-0.698132,-0.174533,-0.174533,-1.04386,-0.692811,-0.15925,-0.185895,-0.66677,-0.297954,-0.458527,0.340874
26,60,-1.0472,-0.698132,-0.174533,-0.174533,-1.04386,-0.692811,-0.15925,-0.185895,-0.66677,-0.297954,-0.458526,0.340873
26,60,-1.0472,-0.698132,-0.174533,-0.174533,-1.04386,-0.692811,-0.15925,-0.185895,-0.66677,-0.297954,-0.458526,0.340873
26,60,-1.0472,-0.698132,-0.174533,-0.174533,-1.04386,-0.692811,-0.15925,-0.185895,-0.66677,-0.297954,-0.458525,0.340873
26,60,-1.0472,-0.698132,-0.174533,-0.174533,-1.04386,-0.692811,-0.15925,-0.185895,-0.66677,-0.297954,-0.458524,0.340873
26,60,-1.0472,-0.698132,-0.174533,-0.174533,-1.04386,-0.692811,-0.15925,-0.185895,-0.66677,-0.297954,-0.458524,0.340873
26,60,-1.0472,-0.698132,-0.174533,-0.174533,-1.04386,-0.692811,-0.15925,-0.185895,-0.66677,-0.297954,-0.458523,0.340872
26,60,-1.0472,-0.698132,-0.174533,-0.174533,-1.04386,-0.692811,-0.15925,-0.185895,-0.66677,-0.297954,-0.458523,0.340872
26,60,-1.0472,-0.698132,-0.174533,-0.174533,-1.04386,-0.692811,-0.15925,-0.185895,-0.66677,-0.297954,-0.458522,0.340872
26,60,-1.0472,-0.698132,-0.174533,-0.174533,-1.04386,-0.692811,-0.15925,-0.185895,-0.66677,-0.297954,-0.458522,0.340872
26,60,-1.0472,-0.698132,-0.174533,-0.174533,-1.04386,-0.692811,-0.15925,-0.185895,-0.66677,-0.297954,-0.458521,0.340872
26,60,-1.0472,-0.698132,-0.174533,-0.174533,-1.04386,-0.692811,-0.15925,-0.185895,-0.66677,-0.297954,-0.458521,0.340872
26,60,-1.0472,-0.698132,-0.174533,-0.174533,-1.04386,-0.692811,-0.15925,-0.185895,-0.66677,-0.297954,-0.458521,0.340872
26,60,-1.0472,-0.698132,-0.174533,-0.174533,-1.04386,-0.692811,-0.15925,-0.185895,-0.66677,-0.297954,-0.45852,0.340871
26,60,-1.0472,-0.698132,-0.174533,-0.174533,-1.04386,-0.692811,-0.15925,-0.185895,-0.66677,-0.297954,-0.45852,0.340871
26,60,-1.0472,-0.698132,-0.174533,-0.174533,-1.04386,-0.692811,-0.15925,-0.185895,-0.66677,-0.297954,-0.458519,0.340871
26,60,-1.0472,-0.698132,-0.174533,-0.174533,-1.04386,-0.692811,-0.15925,-0.185895,-0.66677,-0.297954,-0.458519,0.340871
26,60,-1.0472,-0.698132,-0.174533,-0.174533,-1.04386,-0.692811,-0.15925,-0.185895,-0.66677,-0.297954,-0.458519,0.340871
26,60,-1.0472,-0.698132,-0.174533,-0.174533,-1.04386,-0.692811,-0.15925,-0.185895,-0.66677,-0.297954,-0.458518,0.340871
26,60,-1.0472,-0.698132,-0.174533,-0.174533,-1.04386,-0.692811,-0.15925,-0.185895,-0.66677,-0.297954,-0.458518,0.340871
26,60,-1.0472,-0.698132,-0.174533,-0.174533,-1.04386,-0.692811,-0.15925,-0.185895,-0.66677,-0.297954,-0.458504,0.340879
26,60,-1.0472,-0.698132,-0.174533,-0.174533,-1.04386,-0.692811,-0.15925,-0.185895,-0.66677,-0.297954,-0.458503,0.340879
26,60,-1.0472,-0.698132,-0.174533,-0.174533,-1.04386,-0.692811,-0.15925,-0.185895,-0.66677,-0.297954,-0.458503,0.340879
26,60,-1.0472,-0.698132,-0.174533,-0.174533,-1.04386,-0.692811,-0.15925,-0.185895,-0.66677,-0.297954,-0.458503,0.340879
26,60,-1.0472,-0.698132,-0.174533,-0.174533,-1.04386,-0.692811,-0.15925,-0.185895,-0.66677,-0.297954,-0.458502,0.340879
26,60,-1.0472,-0.698132,-0.174533,-0.174533,-1.04386,-0.692811,-0.15925,-0.185895,-0.66677,-0.297954,-0.458502,0.340879
26,60,-1.0472,-0.698132,-0.174533,-0.174533,-1.04386,-0.692811,-0.15925,-0.185895,-0.66677,-0.297954,-0.458502,0.340879
26,60,-1.0472,-0.698132,-0.174533,-0.174533,-1.04386,-0.692811,-0.15925,-0.185895,-0.66677,-0.297954,-0.458501,0.340879
26,60,-1.0472,-0.698132,-0.174533,-0.174533,-1.04386,-0.692811,-0.15925,-0.185895,-0.66677,-0.297954,-0.458501,0.340879
26,60,-1.0472,-0.698132,-0.174533,-0.174533,-1.04386,-0.692811,-0.15925,-0.185895,-0.66677,-0.297954,-0.458501,0.340878
26,60,-1.0472,-0.698132,-0.174533,-0.174533,-1.04386,-0.692862,-0.15925,-0.185895,-0.66677,-0.295096,-0.458501,0.340878
26,60,-1.0472,-0.698132,-0.174533,-0.174533,-1.04386,-0.692862,-0.15925,-0.185895,-0.66677,-0.295096,-0.4585,0.340878
26,60,-1.0472,-0.698132,-0.174533,-0.174533,-1.04386,-0.692862,-0.15925,-0.185895,-0.66677,-0.295096,-0.4585,0.340878
26,60,-1.0472,-0.698132,-0.174533,-0.174533,-1.04386,-0.692862,-0.15925,-0.185895,-0.66677,-0.295096,-0.4585,0.340878
26,60,-1.0472,-0.698132,-0.174533,-0.174533,-1.04386,-0.692862,-0.15925,-0.185895,-0.66677,-0.295096,-0.458499,0.340878
26,60,-1.0472,-0.698132,-0.174533,-0.174533,-1.04386,-0.692862,-0.15925,-0.185895,-0.66677,-0.295096,-0.458499,0.340878
26,60,-1.0472,-0.698132,-0.174533,-0.174533,-1.04386,-0.692862,-0.15925,-0.185895,-0.66677,-0.295096,-0.458499,0.340878
26,60,-1.0472,-0.698132,-0.174533,-0.174533,-1.04386,-0.692862,-0.15925,-0.185895,-0.66677,-0.295096,-0.458499,0.340878
26,60,-1.0472,-0.698132,-0.174533,-0.174533,-1.04386,-0.692862,-0.15925,-0.185895,-0.66677,-0.295096,-0.458498,0.340878
26,60,-1.0472,-0.698132,-0.174533,-0.174533,-1.04386,-0.692862,-0.15925,-0.185895,-0.66677,-0.295096,-0.458498,0.340878
26,60,-1.0472,-0.698132,-0.174533,-0.174533,-1.04386,-0.692862,-0.159253,-0.185955,-0.66677,-0.295096,-0.458423,0.342666
26,60,-1.0472,-0.698132,-0.174533,-0.174533,-1.04386,-0.692862,-0.159253,-0.185955,-0.66677,-0.295096,-0.458422,0.342666
26,60,-1.0472,-0.698132,-0.174533,-0.174533,-1.04386,-0.692862,-0.159253,-0.185955,-0.66677,-0.295096,-0.458422,0.342665
26,60,-1.0472,-0.698132,-0.174533,-0.174533,-1.04386,-0.692862,-0.159253,-0.185955,-0.66677,-0.295096,-0.458422,0.342665
26,60,-1.0472,-0.698132,-0.174533,-0.174533,-1.04386,-0.692862,-0.159253,-0.185955,-0.66677,-0.295096,-0.458422,0.342665
26,60,-1.0472,-0.698132,-0.174533,-0.174533,-1.04386,-0.692862,-0.159253,-0.185955,-0.66677,-0.295096,-0.458422,0.342665
26,60,-1.0472,-0.698132,-0.174533,-0.174533,-1.04386,-0.692862,-0.159253,-0.185955,-0.66677,-0.295096,-0.458421,0.342665
26,60,-1.0472,-0.698132,-0.174533,-0.174533,-1.04386,-0.692862,-0.159253,-0.185955,-0.66677,-0.295096,-0.458421,0.342665
26,60,-1.0472,-0.698132,-0.174533,-0.174533,-1.04386,-0.692862,-0.159253,-0.185955,-0.66677,-0.295096,-0.458421,0.342665
26,60,-1.0472,-0.698132,-0.174533,-0.174533,-1.04386,-0.692862,-0.159253,-0.185955,-0.66677,-0.295096,-0.458421,0.342665
26,60,-1.0472,-0.698132,-0.174533,-0.174533,-1.04386,-0.692862,-0.159253,-0.185955,-0.66677,-0.295096,-0.458421,0.342665
26,60,-1.0472,-0.698132,-0.174533,-0.174533,-1.04386,-0.692862,-0.159253,-0.185955,-0.66677,-0.295096,-0.45842,0.342665
26,60,-1.0472,-0.698132,-0.174533,-0.174533,-1.04386,-0.692862,-0.159253,-0.185955,-0.66677,-0.295096,-0.45842,0.342665
26,60,-1.0472,-0.698132,-0.174533,-0.174533,-1.04386,-0.692862,-0.159253,-0.185955,-0.66677,-0.295096,-0.45842,0.342665
26,60,-1.0472,-0.698132,-0.174533,-0.174533,-1.04386,-0.692862,-0.159253,-0.185955,-0.66677,-0.295096,-0.45842,0.342665
26,60,-1.0472,-0.698132,-0.174533,-0.174533,-1.04386,-0.692862,-0.159253,-0.185955,-0.66677,-0.295096,-0.45842,0.342665
26,60,-1.0472,-0.698132,-0.174533,-0.174533,-1.04386,-0.692862,-0.159253,-0.185955,-0.66677,-0.295096,-0.458419,0.342665
26,60,-1.0472,-0.698132,-0.174533,-0.174533,-1.04386,-0.692862,-0.159253,-0.185955,-0.66677,-0.295096,-0.458419,0.342664
26,60,-1.0472,-0.698132,-0.174533,-0.174533,-1.04386,-0.692862,-0.159253,-0.185955,-0.66677,-0.295096,-0.458419,0.342664
26,60,-1.0472,-0.698132,-0.174533,-0.174533,-1.04386,-0.692862,-0.159253,-0.185955,-0.66677,-0.295096,-0.458419,0.342664
26,60,-1.0472,-0.698132,-0.174533,-0.174533,-1.04386,-0.692862,-0.159253,-0.185955,-0.66677,-0.295096,-0.458419,0.342664
26,60,-1.0472,-0.698132,-0.174533,-0.174533,-1.04386,-0.692862,-0.159253,-0.185955,-0.66677,-0.295096,-0.458419,0.342664
26,60,-1.0472,-0.698132,-0.174533,-0.174533,-1.04386,-0.692862,-0.159253,-0.185955,-0.66677,-0.295096,-0.458418,0.342664
26,60,-1.0472,-0.698132,-0.174533,-0.174533,-1.04386,-0.692862,-0.159253,-0.185955,-0.66677,-0.295096,-0.458418,0.342664
26,60,-1.0472,-0.698132,-0.174533,-0.174533,-1.04386,-0.692862,-0.159253,-0.185955,-0.66677,-0.295096,-0.458418,0.342664
26,60,-1.0472,-0.698132,-0.174533,-0.174533,-1.04386,-0.692862,-0.159253,-0.185955,-0.66677,-0.295096,-0.458418,0.342664
26,60,-1.0472,-0.698132,-0.174533,-0.174533,-1.04386,-0.692862,-0.159253,-0.185955,-0.66677,-0.295096,-0.458418,0.342664
26,60,-1.0472,-0.698132,-0.174533,-0.174533,-1.04386,-0.692862,-0.159253,-0.185955,-0.66677,-0.295096,-0.458418,0.342664
26,60,-1.0472,-0.698132,-0.174533,-0.174533,-1.04386,-0.692862,-0.159253,-0.185955,-0.66677,-0.295096,-0.458418,0.342664
26,60,-1.0472,-0.698132,-0.174533,-0.174533,-1.04386,-0.692862,-0.159253,-0.185955,-0.66677,-0.295096,-0.458417,0.342664
26,60,-1.0472,-0.698132,-0.174533,-0.174533,-1.04386,-0.692862,-0.159253,-0.185955,-0.66677,-0.295096,-0.458417,0.342664
26,60,-1.0472,-0.698132,-0.174533,-0.174533,-1.04386,-0.692862,-0.159253,-0.185955,-0.66677,-0.295096,-0.458417,0.342664
26,60,-1.0472,-0.698132,-0.174533,-0.174533,-1.04386,-0.692862,-0.159253,-0.185955,-0.66677,-0.295096,-0.458417,0.342664
26,60,-1.0472,-0.698132,-0.174533,-0.174533,-1.04386,-0.692862,-0.159253,-0.185955,-0.66677,-0.295096,-0.458417,0.342664
26,60,-1.0472,-0.698132,-0.174533,-0.174533,-1.04386,-0.692862,-0.159253,-0.185955,-0.66677,-0.295096,-0.458417,0.342664
26,60,-1.0472,-0.698132,-0.174533,-0.174533,-1.04386,-0.692862,-0.159253,-0.185955,-0.66677,-0.295096,-0.458417,0.342664
26,60,-1.0472,-0.698132,-0.174533,-0.174533,-1.04386,-0.692862,-0.159253,-0.185955,-0.66677,-0.295096,-0.458416,0.342664
26,60,-1.0472,-0.698132,-0.174533,-0.174533,-1.04386,-0.692862,-0.159253,-0.185955,-0.66677,-0.295096,-0.458416,0.342664
26,60,-1.0472,-0.698132,-0.174533,-0.174533,-1.04386,-0.692862,-0.159253,-0.185955,-0.66677,-0.295096,-0.458416,0.342664
26,60,-1.0472,-0.698132,-0.174533,-0.174533,-1.04386,-0.692862,-0.159253,-0.185955,-0.66677,-0.295096,-0.458416,0.342663
26,60,-1.0472,-0.698132,-0.174533,-0.174533,-1.04386,-0.692862,-0.159253,-0.185955,-0.66677,-0.295096,-0.458416,0.342663
26,60,-1.0472,-0.698132,-0.174533,-0.174533,-1.04386,-0.692862,-0.159253,-0.185955,-0.66677,-0.295096,-0.458416,0.342663
26,60,-1.0472,-0.698132,-0.174533,-0.174533,-1.04386,-0.692862,-0.159253,-0.185955,-0.66677,-0.295096,-0.458416,0.342663
26,60,-1.0472,-0.698132,-0.174533,-0.174533,-1.04386,-0.692862,-0.159253,-0.185955,-0.66677,-0.295096,-0.458416,0.342663
26,60,-1.0472,-0.698132,-0.174533,-0.174533,-1.04386,-0.692862,-0.159253,-0.185955,-0.66677,-0.295096,-0.458415,0.342663
26,60,-1.0472,-0.698132,-0.174533,-0.174533,-1.04386,-0.692862,-0.159253,-0.185955,-0.66677,-0.295096,-0.458415,0.342663
26,60,-1.0472,-0.698132,-0.174533,-0.174533,-1.04386,-0.692862,-0.159253,-0.185955,-0.66677,-0.295096,-0.458415,0.342663
26,60,-1.0472,-0.698132,-0.174533,-0.174533,-1.04386,-0.692862,-0.159253,-0.185955,-0.66677,-0.295096,-0.458415,0.342663
26,60,-1.0472,-0.698132,-0.174533,-0.174533,-1.04386,-0.692862,-0.159253,-0.185955,-0.66677,-0.295096,-0.458415,0.342663
26,60,-1.0472,-0.698132,-0.174533,-0.174533,-1.04386,-0.692862,-0.159253,-0.185955,-0.66677,-0.295096,-0.458415,0.342663
26,60,-1.0472,-0.698132,-0.174533,-0.174533,-1.04386,-0.692862,-0.159253,-0.185955,-0.66677,-0.295096,-0.458415,0.342663
26,60,-1.0472,-0.698132,-0.174533,-0.174533,-1.04386,-0.692862,-0.159253,-0.185955,-0.66677,-0.295096,-0.458415,0.342663
26,60,-1.0472,-0.698132,-0.174533,-0.174533,-1.04386,-0.692862,-0.159253,-0.185955,-0.66677,-0.295096,-0.458415,0.342663
26,60,-1.0472,-0.698132,-0.174533,-0.174533,-1.04386,-0.692862,-0.159253,-0.185955,-0.66677,-0.295096,-0.458415,0.342663
26,60,-1.0472,-0.698132,-0.174533,-0.174533,-1.04386,-0.692862,-0.159253,-0.185955,-0.66677,-0.295096,-0.458414,0.342663
26,60,-1.0472,-0.698132,-0.174533,-0.174533,-1.04386,-0.692862,-0.159253,-0.185955,-0.66677,-0.295096,-0.458414,0.342663
26,60,-1.0472,-0.698132,-0.174533,-0.174533,-1.04386,-0.692862,-0.159253,-0.185955,-0.66677,-0.295096,-0.458414,0.342663
26,60,-1.0472,-0.698132,-0.174533,-0.174533,-1.04386,-0.692862,-0.159253,-0.185955,-0.66677,-0.295096,-0.458414,0.342663
26,60,-1.0472,-0.698132,-0.174533,-0.174533,-1.04386,-0.692862,-0.159253,-0.185955,-0.66677,-0.295096,-0.458414,0.342663
26,60,-1.0472,-0.698132,-0.174533,-0.174533,-1.04386,-0.692862,-0.159253,-0.185955,-0.66677,-0.295096,-0.458414,0.342663
26,60,-1.0472,-0.698132,-0.174533,-0.174533,-1.04386,-0.692862,-0.159253,-0.185955,-0.66677,-0.295096,-0.458414,0.342663
26,60,-1.0472,-0.698132,-0.174533,-0.174533,-1.04386,-0.692862,-0.159253,-0.185955,-0.66677,-0.295096,-0.458414,0.342663
26,60,-1.0472,-0.698132,-0.174533,-0.174533,-1.04386,-0.692862,-0.159253,-0.185955,-0.66677,-0.295096,-0.458414,0.342663
26,60,-1.0472,-0.698132,-0.174533,-0.174533,-1.04386,-0.692862,-0.159253,-0.185955,-0.66677,-0.295096,-0.458414,0.342663
26,60,-1.0472,-0.698132,-0.174533,-0.174533,-1.04386,-0.692862,-0.159253,-0.185955,-0.66677,-0.295096,-0.458413,0.342663
26,60,-1.0472,-0.698132,-0.174533,-0.174533,-1.04386,-0.692862,-0.159253,-0.185955,-0.66677,-0.295096,-0.458413,0.342663
26,60,-1.0472,-0.698132,-0.174533,-0.174533,-1.04386,-0.692862,-0.159253,-0.185955,-0.66677,-0.295096,-0.458413,0.342663
26,60,-1.0472,-0.698132,-0.174533,-0.174533,-1.04386,-0.692862,-0.159253,-0.185955,-0.66677,-0.295096,-0.458413,0.342663
26,60,-1.0472,-0.698132,-0.174533,-0.174533,-1.04386,-0.692862,-0.159253,-0.185955,-0.66677,-0.295096,-0.458413,0.342663
26,60,-1.0472,-0.698132,-0.174533,-0.174533,-1.04386,-0.692862,-0.159253,-0.185955,-0.66677,-0.295096,-0.458413,0.342662
26,60,-1.0472,-0.698132,-0.174533,-0.174533,-1.04386,-0.692862,-0.159253,-0.185955,-0.66677,-0.295096,-0.458413,0.342662
26,60,-1.0472,-0.698132,-0.174533,-0.174533,-1.04386,-0.692862,-0.159253,-0.185955,-0.66677,-0.295096,-0.458413,0.342662
26,60,-1.0472,-0.698132,-0.174533,-0.174533,-1.04386,-0.692862,-0.159253,-0.185955,-0.66677,-0.295096,-0.458413,0.342662
26,60,-1.0472,-0.698132,-0.174533,-0.174533,-1.04386,-0.692862,-0.159253,-0.185955,-0.66677,-0.295096,-0.458413,0.342662
26,60,-1.0472,-0.698132,-0.174533,-0.174533,-1.04386,-0.692862,-0.159253,-0.185955,-0.66677,-0.295096,-0.458413,0.342662
26,60,-1.0472,-0.698132,-0.174533,-0.174533,-1.04386,-0.692862,-0.159253,-0.185955,-0.66677,-0.295096,-0.458413,0.342662
26,60,-1.0472,-0.698132,-0.174533,-0.174533,-1.04386,-0.692862,-0.159253,-0.185955,-0.66677,-0.295096,-0.458412,0.342662
26,60,-1.0472,-0.698132,-0.174533,-0.174533,-1.04386,-0.692862,-0.159253,-0.185955,-0.66677,-0.295096,-0.458412,0.342662
26,60,-1.0472,-0.698132,-0.174533,-0.174533,-1.04386,-0.692862,-0.159253,-0.185955,-0.66677,-0.295096,-0.458412,0.342662
26,60,-1.0472,-0.698132,-0.174533,-0.174533,-1.04386,-0.692862,-0.159253,-0.185955,-0.66677,-0.295096,-0.458412,0.342662
26,60,-1.0472,-0.698132,-0.174533,-0.174533,-1.04386,-0.692862,-0.159253,-0.185955,-0.66677,-0.295096,-0.458412,0.342662
26,60,-1.0472,-0.698132,-0.174533,-0.174533,-1.04386,-0.692862,-0.159253,-0.185955,-0.66677,-0.295096,-0.458412,0.342662
26,60,-1.0472,-0.698132,-0.174533,-0.174533,-1.04386,-0.692862,-0.159253,-0.185955,-0.66677,-0.295096,-0.458412,0.342662
26,60,-1.0472,-0.698132,-0.174533,-0.174533,-1.04386,-0.692862,-0.159253,-0.185955,-0.66677,-0.295096,-0.458412,0.342662
26,60,-1.0472,-0.698132,-0.174533,-0.174533,-1.04386,-0.692862,-0.159253,-0.185955,-0.66677,-0.295096,-0.458412,0.342662
26,60,-1.0472,-0.698132,-0.174533,-0.174533,-1.04386,-0.692862,-0.159253,-0.185955,-0.66677,-0.295096,-0.458412,0.342662
26,60,-1.0472,-0.698132,-0.174533,-0.174533,-1.04386,-0.692862,-0.159253,-0.185955,-0.66677,-0.295096,-0.458412,0.342662
26,60,-1.0472,-0.698132,-0.174533,-0.174533,-1.04386,-0.692862,-0.159253,-0.185955,-0.66677,-0.295096,-0.458412,0.342662
26,60,-1.0472,-0.698132,-0.174533,-0.174533,-1.04386,-0.692862,-0.159253,-0.185955,-0.66677,-0.295096,-0.458412,0.342662
26,60,-1.0472,-0.698132,-0.174533,-0.174533,-1.04386,-0.692862,-0.159253,-0.185955,-0.66677,-0.295096,-0.458412,0.342662
26,60,-1.0472,-0.698132,-0.174533,-0.174533,-1.04386,-0.692862,-0.159253,-0.185955,-0.66677,-0.295096,-0.458411,0.342662
26,60,-1.0472,-0.698132,-0.174533,-0.174533,-1.04386,-0.692862,-0.159253,-0.185955,-0.66677,-0.295096,-0.458411,0.342662
26,60,-1.0472,-0.698132,-0.174533,-0.174533,-1.04386,-0.692862,-0.159253,-0.185955,-0.66677,-0.295096,-0.458411,0.342662
26,60,-1.0472,-0.698132,-0.174533,-0.174533,-1.04386,-0.692862,-0.159253,-0.185955,-0.66677,-0.295096,-0.458411,0.342662
26,60,-1.0472,-0.698132,-0.174533,-0.174533,-1.04386,-0.692862,-0.159253,-0.185955,-0.66677,-0.295096,-0.458411,0.342662
26,60,-1.0472,-0.698132,-0.174533,-0.174533,-1.04386,-0.692862,-0.159253,-0.185955,-0.66677,-0.295096,-0.458411,0.342662
26,60,-1.0472,-0.698132,-0.174533,-0.174533,-1.04386,-0.692862,-0.159253,-0.185955,-0.66677,-0.295096,-0.458411,0.342662
26,60,-1.0472,-0.698132,-0.174533,-0.174533,-1.04386,-0.692862,-0.159253,-0.185955,-0.66677,-0.295096,-0.458411,0.342662
26,60,-1.0472,-0.698132,-0.174533,-0.174533,-1.04386,-0.692862,-0.159193,-0.185974,-0.66677,-0.295096,-0.460228,0.343249
26,60,-1.0472,-0.698132,-0.174533,-0.174533,-1.04386,-0.692862,-0.159193,-0.185974,-0.66677,-0.295096,-0.460228,0.343249
26,60,-1.0472,-0.698132,-0.174533,-0.174533,-1.04386,-0.692862,-0.159193,-0.185974,-0.66677,-0.295096,-0.460228,0.343249
26,60,-1.0472,-0.698132,-0.174533,-0.174533,-1.04386,-0.692862,-0.159193,-0.185974,-0.66677,-0.295096,-0.460228,0.343249
26,60,-1.0472,-0.698132,-0.174533,-0.174533,-1.04386,-0.692862,-0.159193,-0.185974,-0.66677,-0.295096,-0.460228,0.343249
26,60,-1.0472,-0.698132,-0.174533,-0.174533,-1.04386,-0.692862,-0.159193,-0.185974,-0.66677,-0.295096,-0.460228,0.343249
26,60,-1.0472,-0.698132,-0.174533,-0.174533,-1.04386,-0.692862,-0.159193,-0.185974,-0.66677,-0.295096,-0.460228,0.343249
26,60,-1.0472,-0.698132,-0.174533,-0.174533,-1.04386,-0.692862,-0.159193,-0.185974,-0.66677,-0.295096,-0.460228,0.343249
26,60,-1.0472,-0.698132,-0.174533,-0.174533,-1.04386,-0.692862,-0.159193,-0.185974,-0.66677,-0.295096,-0.460228,0.343249
26,60,-1.0472,-0.698132,-0.174533,-0.174533,-1.04386,-0.692862,-0.159193,-0.185974,-0.66677,-0.295096,-0.460228,0.343249
26,60,-1.0472,-0.698132,-0.174533,-0.174533,-1.04386,-0.692862,-0.159193,-0.185974,-0.66677,-0.295096,-0.460228,0.343249
26,60,-1.0472,-0.698132,-0.174533,-0.174533,-1.04386,-0.692862,-0.159193,-0.185974,-0.66677,-0.295096,-0.460228,0.343249
26,60,-1.0472,-0.698132,-0.174533,-0.174533,-1.04386,-0.692862,-0.159193,-0.185974,-0.66677,-0.295096,-0.460228,0.343249
26,60,-1.0472,-0.698132,-0.174533,-0.174533,-1.04386,-0.692862,-0.159193,-0.185974,-0.66677,-0.295096,-0.460228,0.343249
26,60,-1.0472,-0.698132,-0.174533,-0.174533,-1.04386,-0.692862,-0.159193,-0.185974,-0.66677,-0.295096,-0.460228,0.343249
26,60,-1.0472,-0.698132,-0.174533,-0.174533,-1.04386,-0.692862,-0.159193,-0.185974,-0.66677,-0.295096,-0.460228,0.343249
26,60,-1.0472,-0.698132,-0.174533,-0.174533,-1.04386,-0.692862,-0.159193,-0.185974,-0.66677,-0.295096,-0.460228,0.343249
26,60,-1.0472,-0.698132,-0.174533,-0.174533,-1.04386,-0.692862,-0.159193,-0.185974,-0.66677,-0.295096,-0.460228,0.343249
26,60,-1.0472,-0.698132,-0.174533,-0.174533,-1.04386,-0.692862,-0.159193,-0.185974,-0.66677,-0.295096,-0.460228,0.343249
26,60,-1.0472,-0.698132,-0.174533,-0.174533,-1.04386,-0.692862,-0.159193,-0.185974,-0.66677,-0.295096,-0.460228,0.343249
26,60,-1.0472,-0.698132,-0.174533,-0.174533,-1.04386,-0.692862,-0.159193,-0.185974,-0.66677,-0.295096,-0.460228,0.343249
26,60,-1.0472,-0.698132,-0.174533,-0.174533,-1.04386,-0.692862,-0.159193,-0.185974,-0.66677,-0.295096,-0.460228,0.343249
26,60,-1.0472,-0.698132,-0.174533,-0.174533,-1.04386,-0.692862,-0.159193,-0.185974,-0.66677,-0.295096,-0.460228,0.343249
26,60,-1.0472,-0.698132,-0.174533,-0.174533,-1.04386,-0.692862,-0.159193,-0.185974,-0.66677,-0.295096,-0.460228,0.343249
26,60,-1.0472,-0.698132,-0.174533,-0.174533,-1.04386,-0.692862,-0.159193,-0.185974,-0.66677,-0.295096,-0.460228,0.343249
26,60,-1.0472,-0.698132,-0.174533,-0.174533,-1.04386,-0.692862,-0.159193,-0.185974,-0.66677,-0.295096,-0.460228,0.343249
26,60,-1.0472,-0.698132,-0.174533,-0.174533,-1.04386,-0.692862,-0.159193,-0.185974,-0.66677,-0.295096,-0.460228,0.343249
26,60,-1.0472,-0.698132,-0.174533,-0.174533,-1.04386,-0.692862,-0.159193,-0.185974,-0.66677,-0.295096,-0.460228,0.343249
26,60,-1.0472,-0.698132,-0.174533,-0.174533,-1.04386,-0.692862,-0.159193,-0.185974,-0.66677,-0.295096,-0.460228,0.343249
26,60,-1.0472,-0.698132,-0.174533,-0.174533,-1.04386,-0.692862,-0.159193,-0.185974,-0.66677,-0.295096,-0.460228,0.343249
26,60,-1.0472,-0.698132,-0.174533,-0.174533,-1.04386,-0.692862,-0.159193,-0.185974,-0.66677,-0.295096,-0.460228,0.343249
26,60,-1.0472,-0.698132,-0.174533,-0.174533,-1.04386,-0.692862,-0.159193,-0.185974,-0.66677,-0.295096,-0.460228,0.343249
26,60,-1.0472,-0.698132,-0.174533,-0.174533,-1.04386,-0.692862,-0.159193,-0.185974,-0.66677,-0.295096,-0.460228,0.343249
26,60,-1.0472,-0.698132,-0.174533,-0.174533,-1.04386,-0.692862,-0.159193,-0.185974,-0.66677,-0.295096,-0.460228,0.343249
26,60,-1.0472,-0.698132,-0.174533,-0.174533,-1.04386,-0.692862,-0.159193,-0.185974,-0.66677,-0.295096,-0.460228,0.343249
26,60,-1.0472,-0.698132,-0.174533,-0.174533,-1.04386,-0.692862,-0.159193,-0.185974,-0.66677,-0.295096,-0.460228,0.343249
26,60,-1.0472,-0.698132,-0.174533,-0.174533,-1.04386,-0.692862,-0.159193,-0.185974,-0.66677,-0.295096,-0.460228,0.343249
26,60,-1.0472,-0.698132,-0.174533,-0.174533,-1.04386,-0.692862,-0.159193,-0.185974,-0.66677,-0.295096,-0.460228,0.343249
26,60,-1.0472,-0.698132,-0.174533,-0.174533,-1.04386,-0.692862,-0.159193,-0.185974,-0.66677,-0.295096,-0.460228,0.343249
26,60,-1.0472,-0.698132,-0.174533,-0.174533,-1.04386,-0.692862,-0.159193,-0.185974,-0.66677,-0.295096,-0.460228,0.343249
26,60,-1.0472,-0.698132,-0.174533,-0.174533,-1.04386,-0.692862,-0.159193,-0.185974,-0.66677,-0.295096,-0.460228,0.343249
26,60,-1.0472,-0.698132,-0.174533,-0.174533,-1.04386,-0.692862,-0.159193,-0.185974,-0.66677,-0.295096,-0.460228,0.343249
26,60,-1.0472,-0.698132,-0.174533,-0.174533,-1.04386,-0.692862,-0.159193,-0.185974,-0.66677,-0.295096,-0.460228,0.343249
26,60,-1.0472,-0.698132,-0.174533,-0.174533,-1.04386,-0.692862,-0.159193,-0.185974,-0.66677,-0.295096,-0.460228,0.343249
26,60,-1.0472,-0.698132,-0.174533,-0.174533,-1.04386,-0.692862,-0.159193,-0.185974,-0.66677,-0.295096,-0.460228,0.343249
26,60,-1.0472,-0.698132,-0.174533,-0.174533,-1.04386,-0.692862,-0.159193,-0.185974,-0.66677,-0.295096,-0.460228,0.343249
26,60,-1.0472,-0.698132,-0.174533,-0.174533,-1.04386,-0.692862,-0.159193,-0.185974,-0.66677,-0.295096,-0.460228,0.343249
26,60,-1.0472,-0.698132,-0.174533,-0.174533,-1.04386,-0.692862,-0.159193,-0.185974,-0.66677,-0.295096,-0.460228,0.343249
26,60,-1.0472,-0.698132,-0.174533,-0.174533,-1.04386,-0.692862,-0.159193,-0.185974,-0.66677,-0.295096,-0.460228,0.343249
26,60,-1.0472,-0.698132,-0.174533,-0.174533,-1.04386,-0.692862,-0.159193,-0.185974,-0.66677,-0.295096,-0.460228,0.343249
26,60,-1.0472,-0.698132,-0.174533,-0.174533,-1.04386,-0.692862,-0.159193,-0.185974,-0.66677,-0.295096,-0.460228,0.343249
26,60,-1.0472,-0.698132,-0.174533,-0.174533,-1.04386,-0.692862,-0.159193,-0.185974,-0.66677,-0.295096,-0.460228,0.343249
26,60,-1.0472,-0.698132,-0.174533,-0.174533,-1.04386,-0.692862,-0.159193,-0.185974,-0.66677,-0.295096,-0.460228,0.343249
26,60,-1.0472,-0.698132,-0.174533,-0.174533,-1.04386,-0.692862,-0.159193,-0.185974,-0.66677,-0.295096,-0.460228,0.343249
26,60,-1.0472,-0.698132,-0.174533,-0.174533,-1.04386,-0.692862,-0.159193,-0.185974,-0.66677,-0.295096,-0.460228,0.343249
26,60,-1.0472,-0.698132,-0.174533,-0.174533,-1.04386,-0.692862,-0.159193,-0.185974,-0.66677,-0.295096,-0.460228,0.343249
26,60,-1.0472,-0.698132,-0.174533,-0.174533,-1.04386,-0.692862,-0.159193,-0.185974,-0.66677,-0.295096,-0.460228,0.343249
26,60,-1.0472,-0.698132,-0.174533,-0.174533,-1.04386,-0.692862,-0.159193,-0.185974,-0.66677,-0.295096,-0.460228,0.343249
26,60,-1.0472,-0.698132,-0.174533,-0.174533,-1.04386,-0.692862,-0.159193,-0.185974,-0.66677,-0.295096,-0.460228,0.343249
26,60,-1.0472,-0.698132,-0.174533,-0.174533,-1.04386,-0.692862,-0.159193,-0.185974,-0.66677,-0.295096,-0.460228,0.343249
26,60,-1.0472,-0.698132,-0.174533,-0.174533,-1.04386,-0.692862,-0.159193,-0.185974,-0.66677,-0.295096,-0.460228,0.343249
26,60,-1.0472,-0.698132,-0.174533,-0.174533,-1.04386,-0.692862,-0.159193,-0.185974,-0.66677,-0.295096,-0.460228,0.343249
26,60,-1.0472,-0.698132,-0.174533,-0.174533,-1.04386,-0.692862,-0.159193,-0.185974,-0.66677,-0.295096,-0.460228,0.343249
26,60,-1.0472,-0.698132,-0.174533,-0.174533,-1.04386,-0.692862,-0.159193,-0.185974,-0.66677,-0.295096,-0.460228,0.343249
26,60,-1.0472,-0.698132,-0.174533,-0.174533,-1.04386,-0.692862,-0.159193,-0.185974,-0.66677,-0.295096,-0.460228,0.343249
26,60,-1.0472,-0.698132,-0.174533,-0.174533,-1.04386,-0.692862,-0.159193,-0.185974,-0.66677,-0.295096,-0.460228,0.343249
26,60,-1.0472,-0.698132,-0.174533,-0.174533,-1.04386,-0.692862,-0.159193,-0.185974,-0.66677,-0.295096,-0.460228,0.343249
26,60,-1.0472,-0.698132,-0.174533,-0.174533,-1.04386,-0.692862,-0.159193,-0.185974,-0.66677,-0.295096,-0.460228,0.343249
26,60,-1.0472,-0.698132,-0.174533,-0.174533,-1.04386,-0.692862,-0.159193,-0.185974,-0.66677,-0.295096,-0.460228,0.343249
26,60,-1.0472,-0.698132,-0.174533,-0.174533,-1.04386,-0.692862,-0.159193,-0.185974,-0.66677,-0.295096,-0.460228,0.343249
26,60,-1.0472,-0.698132,-0.174533,-0.174533,-1.04386,-0.692862,-0.159193,-0.185974,-0.66677,-0.295096,-0.460228,0.343249
26,60,-1.0472,-0.698132,-0.174533,-0.174533,-1.04386,-0.692862,-0.159193,-0.185974,-0.66677,-0.295096,-0.460228,0.343249
26,60,-1.0472,-0.698132,-0.174533,-0.174533,-1.04386,-0.692862,-0.159193,-0.185974,-0.66677,-0.295096,-0.460228,0.343249
26,60,-1.0472,-0.698132,-0.174533,-0.174533,-1.04386,-0.692862,-0.159193,-0.185974,-0.66677,-0.295096,-0.460228,0.343249
26,60,-1.0472,-0.698132,-0.174533,-0.174533,-1.04386,-0.692862,-0.159127,-0.185932,-0.66677,-0.295096,-0.462189,0.34199
26,60,-1.0472,-0.698132,-0.174533,-0.174533,-1.04386,-0.692862,-0.159127,-0.185932,-0.66677,-0.295096,-0.462189,0.34199
26,60,-1.0472,-0.698132,-0.174533,-0.174533,-1.04386,-0.692862,-0.159127,-0.185932,-0.66677,-0.295096,-0.462189,0.34199
26,60,-1.0472,-0.698132,-0.174533,-0.174533,-1.04386,-0.692862,-0.159127,-0.185932,-0.66677,-0.295096,-0.462189,0.34199
26,60,-1.0472,-0.698132,-0.174533,-0.174533,-1.04386,-0.692862,-0.159127,-0.185932,-0.66677,-0.295096,-0.462189,0.34199
26,60,-1.0472,-0.698132,-0.174533,-0.174533,-1.04386,-0.692862,-0.159127,-0.185932,-0.66677,-0.295096,-0.462189,0.34199
26,60,-1.0472,-0.698132,-0.174533,-0.174533,-1.04386,-0.692862,-0.159127,-0.185932,-0.66677,-0.295096,-0.462189,0.34199
26,60,-1.0472,-0.698132,-0.174533,-0.174533,-1.04386,-0.692862,-0.159127,-0.185932,-0.66677,-0.295096,-0.462189,0.34199
26,60,-1.0472,-0.698132,-0.174533,-0.174533,-1.04386,-0.692862,-0.159127,-0.185932,-0.66677,-0.295096,-0.462189,0.34199
26,60,-1.0472,-0.698132,-0.174533,-0.174533,-1.04386,-0.692862,-0.159127,-0.185932,-0.66677,-0.295096,-0.462189,0.34199
26,60,-1.0472,-0.698132,-0.174533,-0.174533,-1.04386,-0.692862,-0.159127,-0.185932,-0.66677,-0.295096,-0.462189,0.34199
26,60,-1.0472,-0.698132,-0.174533,-0.174533,-1.04386,-0.692862,-0.159127,-0.185932,-0.66677,-0.295096,-0.462189,0.34199
26,60,-1.0472,-0.698132,-0.174533,-0.174533,-1.04386,-0.692862,-0.159127,-0.185932,-0.66677,-0.295096,-0.462189,0.34199
26,60,-1.0472,-0.698132,-0.174533,-0.174533,-1.04386,-0.692862,-0.159127,-0.185932,-0.66677,-0.295096,-0.462189,0.34199
26,60,-1.0472,-0.698132,-0.174533,-0.174533,-1.04386,-0.692862,-0.159127,-0.185932,-0.66677,-0.295096,-0.462189,0.34199
26,60,-1.0472,-0.698132,-0.174533,-0.174533,-1.04386,-0.692862,-0.159127,-0.185932,-0.66677,-0.295096,-0.462189,0.34199
26,60,-1.0472,-0.698132,-0.174533,-0.174533,-1.04386,-0.692862,-0.159127,-0.185932,-0.66677,-0.295096,-0.462189,0.34199
26,60,-1.0472,-0.698132,-0.174533,-0.174533,-1.04386,-0.692862,-0.159127,-0.185932,-0.66677,-0.295096,-0.462189,0.34199
26,60,-1.0472,-0.698132,-0.174533,-0.174533,-1.04386,-0.692862,-0.159127,-0.185932,-0.66677,-0.295096,-0.462189,0.34199
26,60,-1.0472,-0.698132,-0.174533,-0.174533,-1.04386,-0.692862,-0.159127,-0.185932,-0.66677,-0.295096,-0.462189,0.34199
26,60,-1.0472,-0.698132,-0.174533,-0.174533,-1.04386,-0.692862,-0.159127,-0.185932,-0.66677,-0.295096,-0.462189,0.34199
26,60,-1.0472,-0.698132,-0.174533,-0.174533,-1.04386,-0.692862,-0.159127,-0.185932,-0.66677,-0.295096,-0.462189,0.34199
26,60,-1.0472,-0.698132,-0.174533,-0.174533,-1.04386,-0.692862,-0.159127,-0.185932,-0.66677,-0.295096,-0.462189,0.34199
26,60,-1.0472,-0.698132,-0.174533,-0.174533,-1.04386,-0.692862,-0.159127,-0.185932,-0.66677,-0.295096,-0.462189,0.34199
26,60,-1.0472,-0.698132,-0.174533,-0.174533,-1.04386,-0.692862,-0.159127,-0.185932,-0.66677,-0.295096,-0.462189,0.34199
26,60,-1.0472,-0.698132,-0.174533,-0.174533,-1.04386,-0.692862,-0.159127,-0.185932,-0.66677,-0.295096,-0.462189,0.34199
26,60,-1.0472,-0.698132,-0.174533,-0.174533,-1.04386,-0.692862,-0.159127,-0.185932,-0.66677,-0.295096,-0.462189,0.34199
26,60,-1.0472,-0.698132,-0.174533,-0.174533,-1.04386,-0.692862,-0.159127,-0.185932,-0.66677,-0.295096,-0.462189,0.34199
26,60,-1.0472,-0.698132,-0.174533,-0.174533,-1.04386,-0.692862,-0.159127,-0.185932,-0.66677,-0.295126,-0.462189,0.34199
26,60,-1.0472,-0.698132,-0.174533,-0.174533,-1.04386,-0.692862,-0.159127,-0.185932,-0.66677,-0.295126,-0.462189,0.34199
26,60,-1.0472,-0.698132,-0.174533,-0.174533,-1.04386,-0.692862,-0.159127,-0.185932,-0.66677,-0.295126,-0.462189,0.34199
26,60,-1.0472,-0.698132,-0.174533,-0.174533,-1.04386,-0.692862,-0.159127,-0.185932,-0.66677,-0.295126,-0.462189,0.34199
26,60,-1.0472,-0.698132,-0.174533,-0.174533,-1.04386,-0.692862,-0.159127,-0.185932,-0.66677,-0.295126,-0.462189,0.34199
26,60,-1.0472,-0.698132,-0.174533,-0.174533,-1.04386,-0.692862,-0.159127,-0.185932,-0.66677,-0.295126,-0.462189,0.34199
26,60,-1.0472,-0.698132,-0.174533,-0.174533,-1.04386,-0.692862,-0.159127,-0.185932,-0.66677,-0.295126,-0.462189,0.34199
26,60,-1.0472,-0.698132,-0.174533,-0.174533,-1.04386,-0.692862,-0.159127,-0.185932,-0.66677,-0.295126,-0.462189,0.34199
26,60,-1.0472,-0.698132,-0.174533,-0.174533,-1.04386,-0.692862,-0.159127,-0.185932,-0.66677,-0.295126,-0.462189,0.34199
26,60,-1.0472,-0.698132,-0.174533,-0.174533,-1.04386,-0.692862,-0.159127,-0.185932,-0.66677,-0.295126,-0.462189,0.34199
26,60,-1.0472,-0.698132,-0.174533,-0.174533,-1.04386,-0.692862,-0.159127,-0.185932,-0.66677,-0.295126,-0.462189,0.341986
26,60,-1.0472,-0.698132,-0.174533,-0.174533,-1.04386,-0.692862,-0.159127,-0.185932,-0.66677,-0.295126,-0.462189,0.341986
26,60,-1.0472,-0.698132,-0.174533,-0.174533,-1.04386,-0.692862,-0.159127,-0.185932,-0.66677,-0.295126,-0.462188,0.341986
26,60,-1.0472,-0.698132,-0.174533,-0.174533,-1.04386,-0.692862,-0.159127,-0.185932,-0.66677,-0.295126,-0.462188,0.341986
26,60,-1.0472,-0.698132,-0.174533,-0.174533,-1.04386,-0.692862,-0.159127,-0.185932,-0.66677,-0.295126,-0.462188,0.341985
26,60,-1.0472,-0.698132,-0.174533,-0.174533,-1.04386,-0.692862,-0.159127,-0.185932,-0.66677,-0.295126,-0.462188,0.341985
26,60,-1.0472,-0.698132,-0.174533,-0.174533,-1.04386,-0.692862,-0.159127,-0.185932,-0.66677,-0.295126,-0.462188,0.341985
26,60,-1.0472,-0.698132,-0.174533,-0.174533,-1.04386,-0.692862,-0.159127,-0.185932,-0.66677,-0.295126,-0.462188,0.341985
26,60,-1.0472,-0.698132,-0.174533,-0.174533,-1.04386,-0.692862,-0.159127,-0.185932,-0.66677,-0.295126,-0.462187,0.341985
26,60,-1.0472,-0.698132,-0.174533,-0.174533,-1.04386,-0.692862,-0.159127,-0.185932,-0.66677,-0.295126,-0.462187,0.341985
26,60,-1.0472,-0.698132,-0.174533,-0.174533,-1.04386,-0.692862,-0.159127,-0.185932,-0.66677,-0.295126,-0.462187,0.341985
26,60,-1.0472,-0.698132,-0.174533,-0.174533,-1.04386,-0.692862,-0.159127,-0.185932,-0.66677,-0.295126,-0.462187,0.341985
26,60,-1.0472,-0.698132,-0.174533,-0.174533,-1.04386,-0.692862,-0.159127,-0.185932,-0.66677,-0.295126,-0.462187,0.341985
26,60,-1.0472,-0.698132,-0.174533,-0.174533,-1.04386,-0.692862,-0.159127,-0.185932,-0.66677,-0.295126,-0.462187,0.341985
26,60,-1.0472,-0.698132,-0.174533,-0.174533,-1.04386,-0.692862,-0.159127,-0.185932,-0.66677,-0.295126,-0.462186,0.341985
26,60,-1.0472,-0.698132,-0.174533,-0.174533,-1.04386,-0.692862,-0.159127,-0.185932,-0.66677,-0.295126,-0.462186,0.341985
26,60,-1.0472,-0.698132,-0.174533,-0.174533,-1.04386,-0.692862,-0.159127,-0.185932,-0.66677,-0.295126,-0.462186,0.341985
26,60,-1.0472,-0.698132,-0.174533,-0.174533,-1.04386,-0.692862,-0.159127,-0.185932,-0.66677,-0.295126,-0.462186,0.341985
26,60,-1.0472,-0.698132,-0.174533,-0.174533,-1.04386,-0.692862,-0.159127,-0.185932,-0.66677,-0.295126,-0.462186,0.341985
26,60,-1.0472,-0.698132,-0.174533,-0.174533,-1.04386,-0.692862,-0.159127,-0.185932,-0.66677,-0.295126,-0.462186,0.341985
26,60,-1.0472,-0.698132,-0.174533,-0.174533,-1.04386,-0.692862,-0.159127,-0.185932,-0.66677,-0.295126,-0.462186,0.341985
26,60,-1.0472,-0.698132,-0.174533,-0.174533,-1.04386,-0.692862,-0.159127,-0.185932,-0.66677,-0.295126,-0.462185,0.341985
26,60,-1.0472,-0.698132,-0.174533,-0.174533,-1.04386,-0.692862,-0.159127,-0.185932,-0.66677,-0.295126,-0.462185,0.341985
26,60,-1.0472,-0.698132,-0.174533,-0.174533,-1.04386,-0.692862,-0.159127,-0.185932,-0.66677,-0.295126,-0.462185,0.341985
26,60,-1.0472,-0.698132,-0.174533,-0.174533,-1.04386,-0.692862,-0.159127,-0.185932,-0.66677,-0.295126,-0.462185,0.341984
26,60,-1.0472,-0.698132,-0.174533,-0.174533,-1.04386,-0.692862,-0.159127,-0.185932,-0.66677,-0.295126,-0.462185,0.341984
26,60,-1.0472,-0.698132,-0.174533,-0.174533,-1.04386,-0.692862,-0.159127,-0.185932,-0.66677,-0.295126,-0.462185,0.341984
26,60,-1.0472,-0.698132,-0.174533,-0.174533,-1.04386,-0.692862,-0.159127,-0.185932,-0.66677,-0.295126,-0.462185,0.341984
26,60,-1.0472,-0.698132,-0.174533,-0.174533,-1.04386,-0.692862,-0.159127,-0.185932,-0.66677,-0.295126,-0.462184,0.341984
26,60,-1.0472,-0.698132,-0.174533,-0.174533,-1.04386,-0.692862,-0.159127,-0.185932,-0.66677,-0.295126,-0.462184,0.341984
26,60,-1.0472,-0.698132,-0.174533,-0.174533,-1.04386,-0.692862,-0.159127,-0.185932,-0.66677,-0.295126,-0.462184,0.341984
26,60,-1.0472,-0.698132,-0.174533,-0.174533,-1.04386,-0.692862,-0.159127,-0.185932,-0.66677,-0.295126,-0.462184,0.341984
26,60,-1.0472,-0.698132,-0.174533,-0.174533,-1.04386,-0.692862,-0.159127,-0.185932,-0.66677,-0.295126,-0.462184,0.341984
26,60,-1.0472,-0.698132,-0.174533,-0.174533,-1.04386,-0.692862,-0.159127,-0.185932,-0.66677,-0.295126,-0.462184,0.341984
26,60,-1.0472,-0.698132,-0.174533,-0.174533,-1.04386,-0.692862,-0.159127,-0.185932,-0.66677,-0.295126,-0.462184,0.341984
26,60,-1.0472,-0.698132,-0.174533,-0.174533,-1.04386,-0.692862,-0.159127,-0.185932,-0.66677,-0.295126,-0.462184,0.341984
26,60,-1.0472,-0.698132,-0.174533,-0.174533,-1.04386,-0.692862,-0.159127,-0.185932,-0.66677,-0.295126,-0.462184,0.341984
26,60,-1.0472,-0.698132,-0.174533,-0.174533,-1.04386,-0.692862,-0.159127,-0.185932,-0.66677,-0.295126,-0.462183,0.341984
26,60,-1.0472,-0.698132,-0.174533,-0.174533,-1.04386,-0.692862,-0.159127,-0.185932,-0.66677,-0.295126,-0.462183,0.341984
26,60,-1.0472,-0.698132,-0.174533,-0.174533,-1.04386,-0.692862,-0.159127,-0.185932,-0.66677,-0.295126,-0.462183,0.341984
26,60,-1.0472,-0.698132,-0.174533,-0.174533,-1.04386,-0.692862,-0.159127,-0.185932,-0.66677,-0.295126,-0.462183,0.341984
26,60,-1.0472,-0.698132,-0.174533,-0.174533,-1.04386,-0.692862,-0.159127,-0.185932,-0.66677,-0.295126,-0.462183,0.341984
26,60,-1.0472,-0.698132,-0.174533,-0.174533,-1.04386,-0.692862,-0.159127,-0.185932,-0.66677,-0.295126,-0.462183,0.341984
26,60,-1.0472,-0.698132,-0.174533,-0.174533,-1.04386,-0.692862,-0.159127,-0.185932,-0.66677,-0.295126,-0.462183,0.341984
26,60,-1.0472,-0.698132,-0.174533,-0.174533,-1.04386,-0.692862,-0.159127,-0.185932,-0.66677,-0.295126,-0.462183,0.341984
26,60,-1.0472,-0.698132,-0.174533,-0.174533,-1.04386,-0.692862,-0.159127,-0.185932,-0.66677,-0.295126,-0.462183,0.341984
26,60,-1.0472,-0.698132,-0.174533,-0.174533,-1.04386,-0.692862,-0.159127,-0.185932,-0.66677,-0.295126,-0.462183,0.341984
26,60,-1.0472,-0.698132,-0.174533,-0.174533,-1.04386,-0.692862,-0.159127,-0.185932,-0.66677,-0.295126,-0.462182,0.341984
26,60,-1.0472,-0.698132,-0.174533,-0.174533,-1.04386,-0.692862,-0.159127,-0.185932,-0.66677,-0.295126,-0.462182,0.341984
26,60,-1.0472,-0.698132,-0.174533,-0.174533,-1.04386,-0.692862,-0.159127,-0.185932,-0.66677,-0.295126,-0.462182,0.341984
26,60,-1.0472,-0.698132,-0.174533,-0.174533,-1.04386,-0.692862,-0.159127,-0.185932,-0.66677,-0.295126,-0.462182,0.341984
26,60,-1.0472,-0.698132,-0.174533,-0.174533,-1.04386,-0.692862,-0.159127,-0.185932,-0.66677,-0.295126,-0.462182,0.341984
26,60,-1.0472,-0.698132,-0.174533,-0.174533,-1.04386,-0.692862,-0.159127,-0.185932,-0.66677,-0.295126,-0.462182,0.341983
26,60,-1.0472,-0.698132,-0.174533,-0.174533,-1.04386,-0.692862,-0.159127,-0.185932,-0.66677,-0.295126,-0.462182,0.341983
26,60,-1.0472,-0.698132,-0.174533,-0.174533,-1.04386,-0.692862,-0.159127,-0.185932,-0.66677,-0.295126,-0.462182,0.341983
26,60,-1.0472,-0.698132,-0.174533,-0.174533,-1.04386,-0.692862,-0.159127,-0.185932,-0.66677,-0.295126,-0.462182,0.341983
26,60,-1.0472,-0.698132,-0.174533,-0.174533,-1.04386,-0.692862,-0.159127,-0.185932,-0.66677,-0.295126,-0.462182,0.341983
26,60,-1.0472,-0.698132,-0.174533,-0.174533,-1.04386,-0.692862,-0.159127,-0.185932,-0.66677,-0.295126,-0.462181,0.341983
26,60,-1.0472,-0.698132,-0.174533,-0.174533,-1.04386,-0.692862,-0.159127,-0.185932,-0.66677,-0.295126,-0.462181,0.341983
26,60,-1.0472,-0.698132,-0.174533,-0.174533,-1.04386,-0.692862,-0.159127,-0.185932,-0.66677,-0.295126,-0.462181,0.341983
26,60,-1.0472,-0.698132,-0.174533,-0.174533,-1.04386,-0.692862,-0.159127,-0.185932,-0.66677,-0.295126,-0.462181,0.341983
26,60,-1.0472,-0.698132,-0.174533,-0.174533,-1.04386,-0.692862,-0.159127,-0.185932,-0.66677,-0.295126,-0.462181,0.341983
26,60,-1.0472,-0.698132,-0.174533,-0.174533,-1.04386,-0.692862,-0.159127,-0.185932,-0.66677,-0.295126,-0.462181,0.341983
26,60,-1.0472,-0.698132,-0.174533,-0.174533,-1.04386,-0.692862,-0.159127,-0.185932,-0.66677,-0.295126,-0.462181,0.341983
26,60,-1.0472,-0.698132,-0.174533,-0.174533,-1.04386,-0.692862,-0.159127,-0.185932,-0.66677,-0.295126,-0.462181,0.341983
26,60,-1.0472,-0.698132,-0.174533,-0.174533,-1.04386,-0.692862,-0.159127,-0.185932,-0.66677,-0.295126,-0.462181,0.341983
26,60,-1.0472,-0.698132,-0.174533,-0.174533,-1.04386,-0.692862,-0.159127,-0.185932,-0.66677,-0.295126,-0.462181,0.341983
26,60,-1.0472,-0.698132,-0.174533,-0.174533,-1.04386,-0.692862,-0.159127,-0.185932,-0.66677,-0.295126,-0.462181,0.341983
26,60,-1.0472,-0.698132,-0.174533,-0.174533,-1.04386,-0.692862,-0.159127,-0.185932,-0.66677,-0.295126,-0.462181,0.341983
26,60,-1.0472,-0.698132,-0.174533,-0.174533,-1.04386,-0.692862,-0.159127,-0.185932,-0.66677,-0.295126,-0.462181,0.341983
26,60,-1.0472,-0.698132,-0.174533,-0.174533,-1.04386,-0.692862,-0.159127,-0.185932,-0.66677,-0.295126,-0.46218,0.341983
26,60,-1.0472,-0.698132,-0.174533,-0.174533,-1.04386,-0.692862,-0.159127,-0.185932,-0.66677,-0.295126,-0.46218,0.341983
26,60,-1.0472,-0.698132,-0.174533,-0.174533,-1.04386,-0.692862,-0.159127,-0.185932,-0.66677,-0.295126,-0.46218,0.341983
26,60,-1.0472,-0.698132,-0.174533,-0.174533,-1.04386,-0.692862,-0.159127,-0.185932,-0.66677,-0.295126,-0.46218,0.341983
26,60,-1.0472,-0.698132,-0.174533,-0.174533,-1.04386,-0.692862,-0.159127,-0.185932,-0.66677,-0.295126,-0.46218,0.341983
26,60,-1.0472,-0.698132,-0.174533,-0.174533,-1.04386,-0.692862,-0.159127,-0.185932,-0.66677,-0.295126,-0.46218,0.341983
26,60,-1.0472,-0.698132,-0.174533,-0.174533,-1.04386,-0.692862,-0.159127,-0.185932,-0.66677,-0.295126,-0.46218,0.341983
26,60,-1.0472,-0.698132,-0.174533,-0.174533,-1.04386,-0.692862,-0.159127,-0.185932,-0.66677,-0.295126,-0.46218,0.341983
26,60,-1.0472,-0.698132,-0.174533,-0.174533,-1.04386,-0.692862,-0.159127,-0.185932,-0.66677,-0.295126,-0.46218,0.341983
26,60,-1.0472,-0.698132,-0.174533,-0.174533,-1.04386,-0.692862,-0.159127,-0.185932,-0.66677,-0.295126,-0.46218,0.341983
26,60,-1.0472,-0.698132,-0.174533,-0.174533,-1.04386,-0.692862,-0.159127,-0.185932,-0.66677,-0.295126,-0.46218,0.341983
26,60,-1.0472,-0.698132,-0.174533,-0.174533,-1.04386,-0.692862,-0.159127,-0.185932,-0.66677,-0.295126,-0.46218,0.341983
26,60,-1.0472,-0.698132,-0.174533,-0.174533,-1.04386,-0.692862,-0.159127,-0.185932,-0.66677,-0.295126,-0.46218,0.341983
26,60,-1.0472,-0.698132,-0.174533,-0.174533,-1.04386,-0.692862,-0.159127,-0.185932,-0.66677,-0.295126,-0.46218,0.341983
26,60,-1.0472,-0.698132,-0.174533,-0.174533,-1.04386,-0.692862,-0.159127,-0.185932,-0.66677,-0.295126,-0.462179,0.341983
26,60,-1.0472,-0.698132,-0.174533,-0.174533,-1.04386,-0.692862,-0.159127,-0.185932,-0.66677,-0.295126,-0.462179,0.341983
26,60,-1.0472,-0.698132,-0.174533,-0.174533,-1.04386,-0.692862,-0.159127,-0.185932,-0.66677,-0.295126,-0.462179,0.341983
26,60,-1.0472,-0.698132,-0.174533,-0.174533,-1.04386,-0.692862,-0.159127,-0.185932,-0.66677,-0.295126,-0.462179,0.341983
26,60,-1.0472,-0.698132,-0.174533,-0.174533,-1.04386,-0.692862,-0.159127,-0.185932,-0.66677,-0.295126,-0.462179,0.341983
26,60,-1.0472,-0.698132,-0.174533,-0.174533,-1.04386,-0.692862,-0.159127,-0.185932,-0.66677,-0.295126,-0.462179,0.341983
26,60,-1.0472,-0.698132,-0.174533,-0.174533,-1.04386,-0.692862,-0.159127,-0.185932,-0.66677,-0.295126,-0.462179,0.341983
26,60,-1.0472,-0.698132,-0.174533,-0.174533,-1.04386,-0.692862,-0.159127,-0.185932,-0.66677,-0.295126,-0.462179,0.341983
26,60,-1.0472,-0.698132,-0.174533,-0.174533,-1.04386,-0.692862,-0.159127,-0.185932,-0.66677,-0.295126,-0.462179,0.341983
26,60,-1.0472,-0.698132,-0.174533,-0.174533,-1.04386,-0.692862,-0.159127,-0.185932,-0.66677,-0.295126,-0.462179,0.341983
26,60,-1.0472,-0.698132,-0.174533,-0.174533,-1.04386,-0.692862,-0.159067,-0.185952,-0.66677,-0.295126,-0.463986,0.342566
26,60,-1.0472,-0.698132,-0.174533,-0.174533,-1.04386,-0.692862,-0.159067,-0.185952,-0.66677,-0.295126,-0.463986,0.342566
26,60,-1.0472,-0.698132,-0.174533,-0.174533,-1.04386,-0.692912,-0.159067,-0.185952,-0.66677,-0.292217,-0.463986,0.342566
26,60,-1.0472,-0.698132,-0.174533,-0.174533,-1.04386,-0.692912,-0.159067,-0.185952,-0.66677,-0.292217,-0.463986,0.342566
26,60,-1.0472,-0.698132,-0.174533,-0.174533,-1.04386,-0.692912,-0.159067,-0.185952,-0.66677,-0.292217,-0.463986,0.342566
26,60,-1.0472,-0.698132,-0.174533,-0.174533,-1.04386,-0.692912,-0.159067,-0.185952,-0.66677,-0.292217,-0.463986,0.342566
26,60,-1.0472,-0.698132,-0.174533,-0.174533,-1.04386,-0.692912,-0.159067,-0.185952,-0.66677,-0.292217,-0.463986,0.342566
26,60,-1.0472,-0.698132,-0.174533,-0.174533,-1.04386,-0.692912,-0.159067,-0.185952,-0.66677,-0.292217,-0.463986,0.342566
26,60,-1.0472,-0.698132,-0.174533,-0.174533,-1.04386,-0.692912,-0.159067,-0.185952,-0.66677,-0.292217,-0.463986,0.342566
26,60,-1.0472,-0.698132,-0.174533,-0.174533,-1.04386,-0.692912,-0.159067,-0.185952,-0.66677,-0.292217,-0.463986,0.342566
26,60,-1.0472,-0.698132,-0.174533,-0.174533,-1.04386,-0.692912,-0.159067,-0.185952,-0.66677,-0.292217,-0.463986,0.342566
26,60,-1.0472,-0.698132,-0.174533,-0.174533,-1.04386,-0.692912,-0.159067,-0.185952,-0.66677,-0.292217,-0.463986,0.342566
26,60,-1.0472,-0.698132,-0.174533,-0.174533,-1.04386,-0.692912,-0.159067,-0.185952,-0.66677,-0.292217,-0.463986,0.342566
26,60,-1.0472,-0.698132,-0.174533,-0.174533,-1.04386,-0.692912,-0.159067,-0.185952,-0.66677,-0.292217,-0.463986,0.342566
26,60,-1.0472,-0.698132,-0.174533,-0.174533,-1.04386,-0.692912,-0.159067,-0.185952,-0.66677,-0.292217,-0.463986,0.342566
26,60,-1.0472,-0.698132,-0.174533,-0.174533,-1.04386,-0.692912,-0.159067,-0.185952,-0.66677,-0.292217,-0.463986,0.342566
26,60,-1.0472,-0.698132,-0.174533,-0.174533,-1.04386,-0.692912,-0.159067,-0.185952,-0.66677,-0.292217,-0.463986,0.342566
26,60,-1.0472,-0.698132,-0.174533,-0.174533,-1.04386,-0.692912,-0.159067,-0.185952,-0.66677,-0.292217,-0.463986,0.342566
26,60,-1.0472,-0.698132,-0.174533,-0.174533,-1.04386,-0.692912,-0.159067,-0.185952,-0.66677,-0.292217,-0.463986,0.342566
26,60,-1.0472,-0.698132,-0.174533,-0.174533,-1.04386,-0.692912,-0.159067,-0.185952,-0.66677,-0.292217,-0.463986,0.342566
26,60,-1.0472,-0.698132,-0.174533,-0.174533,-1.04386,-0.692912,-0.159067,-0.185952,-0.66677,-0.292217,-0.463986,0.342566
26,60,-1.0472,-0.698132,-0.174533,-0.174533,-1.04386,-0.692912,-0.159067,-0.185952,-0.66677,-0.292217,-0.463986,0.342566
26,60,-1.0472,-0.698132,-0.174533,-0.174533,-1.04386,-0.692912,-0.159067,-0.185952,-0.66677,-0.292217,-0.463986,0.342566
26,60,-1.0472,-0.698132,-0.174533,-0.174533,-1.04386,-0.692912,-0.159067,-0.185952,-0.66677,-0.292217,-0.463986,0.342566
26,60,-1.0472,-0.698132,-0.174533,-0.174533,-1.04386,-0.692912,-0.159067,-0.185952,-0.66677,-0.292217,-0.463986,0.342566
26,60,-1.0472,-0.698132,-0.174533,-0.174533,-1.04386,-0.692912,-0.159067,-0.185952,-0.66677,-0.292217,-0.463986,0.342566
26,60,-1.0472,-0.698132,-0.174533,-0.174533,-1.04386,-0.692912,-0.159067,-0.185952,-0.66677,-0.292217,-0.463986,0.342566
26,60,-1.0472,-0.698132,-0.174533,-0.174533,-1.04386,-0.692912,-0.159067,-0.185952,-0.66677,-0.292217,-0.463986,0.342566
26,60,-1.0472,-0.698132,-0.174533,-0.174533,-1.04386,-0.692912,-0.159067,-0.185952,-0.66677,-0.292217,-0.463986,0.342566
26,60,-1.0472,-0.698132,-0.174533,-0.174533,-1.04386,-0.692912,-0.159067,-0.185952,-0.66677,-0.292217,-0.463986,0.342566
26,60,-1.0472,-0.698132,-0.174533,-0.174533,-1.04386,-0.692912,-0.159067,-0.185952,-0.66677,-0.292217,-0.463986,0.342566
26,60,-1.0472,-0.698132,-0.174533,-0.174533,-1.04386,-0.692912,-0.159067,-0.185952,-0.66677,-0.292217,-0.463986,0.342566
26,60,-1.0472,-0.698132,-0.174533,-0.174533,-1.04386,-0.692912,-0.159067,-0.185952,-0.66677,-0.292217,-0.463986,0.342566
26,60,-1.0472,-0.698132,-0.174533,-0.174533,-1.04386,-0.692912,-0.159067,-0.185952,-0.66677,-0.292217,-0.463986,0.342566
26,60,-1.0472,-0.698132,-0.174533,-0.174533,-1.04386,-0.692912,-0.159067,-0.185952,-0.66677,-0.292217,-0.463986,0.342566
26,60,-1.0472,-0.698132,-0.174533,-0.174533,-1.04386,-0.692912,-0.159067,-0.185952,-0.66677,-0.292217,-0.463986,0.342566
26,60,-1.0472,-0.698132,-0.174533,-0.174533,-1.04386,-0.692912,-0.159067,-0.185952,-0.66677,-0.292217,-0.463986,0.342566
26,60,-1.0472,-0.698132,-0.174533,-0.174533,-1.04386,-0.692912,-0.159067,-0.185952,-0.66677,-0.292217,-0.463986,0.342566
26,60,-1.0472,-0.698132,-0.174533,-0.174533,-1.04386,-0.692912,-0.159067,-0.185952,-0.66677,-0.292217,-0.463986,0.342566
26,60,-1.0472,-0.698132,-0.174533,-0.174533,-1.04386,-0.692912,-0.159067,-0.185952,-0.66677,-0.292217,-0.463986,0.342566
26,60,-1.0472,-0.698132,-0.174533,-0.174533,-1.04386,-0.692912,-0.159067,-0.185952,-0.66677,-0.292217,-0.463986,0.342566
26,60,-1.0472,-0.698132,-0.174533,-0.174533,-1.04386,-0.692912,-0.159067,-0.185952,-0.66677,-0.292217,-0.463986,0.342566
26,60,-1.0472,-0.698132,-0.174533,-0.174533,-1.04386,-0.692912,-0.159067,-0.185952,-0.66677,-0.292217,-0.463986,0.342566
26,60,-1.0472,-0.698132,-0.174533,-0.174533,-1.04386,-0.692912,-0.159067,-0.185952,-0.66677,-0.292217,-0.463986,0.342566
26,60,-1.0472,-0.698132,-0.174533,-0.174533,-1.04386,-0.692912,-0.159067,-0.185952,-0.66677,-0.292217,-0.463986,0.342566
26,60,-1.0472,-0.698132,-0.174533,-0.174533,-1.04386,-0.692912,-0.159067,-0.185952,-0.66677,-0.292217,-0.463986,0.342566
26,60,-1.0472,-0.698132,-0.174533,-0.174533,-1.04386,-0.692912,-0.159067,-0.185952,-0.66677,-0.292217,-0.463986,0.342566
26,60,-1.0472,-0.698132,-0.174533,-0.174533,-1.04386,-0.692912,-0.159067,-0.185952,-0.66677,-0.292217,-0.463986,0.342566
26,60,-1.0472,-0.698132,-0.174533,-0.174533,-1.04386,-0.692912,-0.159067,-0.185952,-0.66677,-0.292217,-0.463986,0.342566
26,60,-1.0472,-0.698132,-0.174533,-0.174533,-1.04386,-0.692912,-0.159067,-0.185952,-0.66677,-0.292217,-0.463986,0.342566
26,60,-1.0472,-0.698132,-0.174533,-0.174533,-1.04386,-0.692912,-0.159067,-0.185952,-0.66677,-0.292217,-0.463986,0.342566
26,60,-1.0472,-0.698132,-0.174533,-0.174533,-1.04386,-0.692912,-0.159067,-0.185952,-0.66677,-0.292217,-0.463986,0.342566
26,60,-1.0472,-0.698132,-0.174533,-0.174533,-1.04386,-0.692912,-0.159067,-0.185952,-0.66677,-0.292217,-0.463986,0.342566
26,60,-1.0472,-0.698132,-0.174533,-0.174533,-1.04386,-0.692912,-0.159067,-0.185952,-0.66677,-0.292217,-0.463986,0.342566
26,60,-1.0472,-0.698132,-0.174533,-0.174533,-1.04386,-0.692912,-0.159067,-0.185952,-0.66677,-0.292217,-0.463986,0.342566
26,60,-1.0472,-0.698132,-0.174533,-0.174533,-1.04386,-0.692912,-0.159067,-0.185952,-0.66677,-0.292217,-0.463986,0.342566
26,60,-1.0472,-0.698132,-0.174533,-0.174533,-1.04386,-0.692912,-0.159067,-0.185952,-0.66677,-0.292217,-0.463986,0.342566
26,60,-1.0472,-0.698132,-0.174533,-0.174533,-1.04386,-0.692912,-0.159067,-0.185952,-0.66677,-0.292217,-0.463986,0.342566
26,60,-1.0472,-0.698132,-0.174533,-0.174533,-1.04386,-0.692912,-0.159067,-0.185952,-0.66677,-0.292217,-0.463986,0.342566
26,60,-1.0472,-0.698132,-0.174533,-0.174533,-1.04386,-0.692912,-0.159067,-0.185952,-0.66677,-0.292217,-0.463986,0.342566
26,60,-1.0472,-0.698132,-0.174533,-0.174533,-1.04386,-0.692912,-0.159067,-0.185952,-0.66677,-0.292217,-0.463986,0.342566
26,60,-1.0472,-0.698132,-0.174533,-0.174533,-1.04386,-0.692912,-0.159067,-0.185952,-0.66677,-0.292217,-0.463986,0.342566
26,60,-1.0472,-0.698132,-0.174533,-0.174533,-1.04386,-0.692912,-0.159067,-0.185952,-0.66677,-0.292217,-0.463986,0.342566
26,60,-1.0472,-0.698132,-0.174533,-0.174533,-1.04386,-0.692912,-0.159067,-0.185952,-0.66677,-0.292217,-0.463986,0.342566
26,60,-1.0472,-0.698132,-0.174533,-0.174533,-1.04386,-0.692912,-0.159067,-0.185952,-0.66677,-0.292217,-0.463986,0.342566
26,60,-1.0472,-0.698132,-0.174533,-0.174533,-1.04386,-0.692912,-0.159067,-0.185952,-0.66677,-0.292217,-0.463986,0.342566
26,60,-1.0472,-0.698132,-0.174533,-0.174533,-1.04386,-0.692912,-0.159067,-0.185952,-0.66677,-0.292217,-0.463986,0.342566
26,60,-1.0472,-0.698132,-0.174533,-0.174533,-1.04386,-0.692912,-0.159067,-0.185952,-0.66677,-0.292217,-0.463986,0.342566
26,60,-1.0472,-0.698132,-0.174533,-0.174533,-1.04386,-0.692912,-0.159067,-0.185952,-0.66677,-0.292217,-0.463986,0.342566
26,60,-1.0472,-0.698132,-0.174533,-0.174533,-1.04386,-0.692912,-0.159067,-0.185952,-0.66677,-0.292217,-0.463986,0.342566
26,60,-1.0472,-0.698132,-0.174533,-0.174533,-1.04386,-0.692912,-0.159067,-0.185952,-0.66677,-0.292217,-0.463986,0.342566
26,60,-1.0472,-0.698132,-0.174533,-0.174533,-1.04386,-0.692912,-0.159067,-0.185952,-0.66677,-0.292217,-0.463986,0.342566
26,60,-1.0472,-0.698132,-0.174533,-0.174533,-1.04386,-0.692912,-0.159067,-0.185952,-0.66677,-0.292217,-0.463986,0.342566
26,60,-1.0472,-0.698132,-0.174533,-0.174533,-1.04386,-0.692912,-0.159067,-0.185952,-0.66677,-0.292217,-0.463986,0.342566
26,60,-1.0472,-0.698132,-0.174533,-0.174533,-1.04386,-0.692912,-0.159067,-0.185952,-0.66677,-0.292217,-0.463986,0.342566
26,60,-1.0472,-0.698132,-0.174533,-0.174533,-1.04386,-0.692912,-0.159067,-0.185952,-0.66677,-0.292217,-0.463986,0.342566
26,60,-1.0472,-0.698132,-0.174533,-0.174533,-1.04386,-0.692912,-0.159067,-0.185952,-0.66677,-0.292217,-0.463986,0.342566
26,60,-1.0472,-0.698132,-0.174533,-0.174533,-1.04386,-0.692912,-0.159067,-0.185952,-0.66677,-0.292217,-0.463986,0.342566
26,60,-1.0472,-0.698132,-0.174533,-0.174533,-1.04386,-0.692912,-0.159067,-0.185952,-0.66677,-0.292217,-0.463983,0.342568
26,60,-1.0472,-0.698132,-0.174533,-0.174533,-1.04386,-0.692912,-0.159067,-0.185952,-0.66677,-0.292217,-0.463983,0.342568
26,60,-1.0472,-0.698132,-0.174533,-0.174533,-1.04386,-0.692912,-0.159067,-0.185952,-0.66677,-0.292217,-0.463983,0.342568
26,60,-1.0472,-0.698132,-0.174533,-0.174533,-1.04386,-0.692912,-0.159067,-0.185952,-0.66677,-0.292217,-0.463983,0.342568
26,60,-1.0472,-0.698132,-0.174533,-0.174533,-1.04386,-0.692912,-0.159067,-0.185952,-0.66677,-0.292217,-0.463983,0.342568
26,60,-1.0472,-0.698132,-0.174533,-0.174533,-1.04386,-0.692912,-0.159067,-0.185952,-0.66677,-0.292217,-0.463983,0.342568
26,60,-1.0472,-0.698132,-0.174533,-0.174533,-1.04386,-0.692912,-0.159067,-0.185952,-0.66677,-0.292217,-0.463983,0.342568
26,60,-1.0472,-0.698132,-0.174533,-0.174533,-1.04386,-0.692912,-0.159067,-0.185952,-0.66677,-0.292217,-0.463983,0.342568
26,60,-1.0472,-0.698132,-0.174533,-0.174533,-1.04386,-0.692912,-0.159067,-0.185952,-0.66677,-0.292217,-0.463983,0.342568
26,60,-1.0472,-0.698132,-0.174533,-0.174533,-1.04386,-0.692912,-0.159067,-0.185952,-0.66677,-0.292217,-0.463983,0.342568
26,60,-1.0472,-0.698132,-0.174533,-0.174533,-1.04386,-0.692912,-0.159067,-0.185952,-0.66677,-0.292217,-0.463983,0.342568
26,60,-1.0472,-0.698132,-0.174533,-0.174533,-1.04386,-0.692912,-0.159067,-0.185952,-0.66677,-0.292217,-0.463983,0.342568
26,60,-1.0472,-0.698132,-0.174533,-0.174533,-1.04386,-0.692912,-0.159067,-0.185952,-0.66677,-0.292217,-0.463983,0.342568
26,60,-1.0472,-0.698132,-0.174533,-0.174533,-1.04386,-0.692912,-0.159067,-0.185952,-0.66677,-0.292217,-0.463983,0.342568
26,60,-1.0472,-0.698132,-0.174533,-0.174533,-1.04386,-0.692912,-0.159067,-0.185952,-0.66677,-0.292217,-0.463983,0.342568
26,60,-1.0472,-0.698132,-0.174533,-0.174533,-1.04386,-0.692912,-0.159067,-0.185952,-0.66677,-0.292217,-0.463983,0.342568
26,60,-1.0472,-0.698132,-0.174533,-0.174533,-1.04386,-0.692912,-0.159067,-0.185952,-0.66677,-0.292217,-0.463983,0.342568
26,60,-1.0472,-0.698132,-0.174533,-0.174533,-1.04386,-0.692912,-0.159067,-0.185952,-0.66677,-0.292217,-0.463983,0.342568
26,60,-1.0472,-0.698132,-0.174533,-0.174533,-1.04386,-0.692912,-0.159067,-0.185952,-0.66677,-0.292217,-0.463983,0.342568
26,60,-1.0472,-0.698132,-0.174533,-0.174533,-1.04386,-0.692912,-0.159067,-0.185952,-0.66677,-0.292217,-0.463983,0.342568
26,60,-1.0472,-0.698132,-0.174533,-0.174533,-1.04386,-0.692912,-0.159067,-0.185952,-0.66677,-0.292217,-0.463983,0.342568
26,60,-1.0472,-0.698132,-0.174533,-0.174533,-1.04386,-0.692912,-0.159067,-0.185952,-0.66677,-0.292217,-0.463983,0.342568
26,60,-1.0472,-0.698132,-0.174533,-0.174533,-1.04386,-0.692912,-0.159067,-0.185952,-0.66677,-0.292217,-0.463983,0.342568
26,60,-1.0472,-0.698132,-0.174533,-0.174533,-1.04386,-0.692912,-0.159067,-0.185952,-0.66677,-0.292217,-0.463983,0.342568
26,60,-1.0472,-0.698132,-0.174533,-0.174533,-1.04386,-0.692912,-0.159067,-0.185952,-0.66677,-0.292217,-0.463983,0.342568
26,60,-1.0472,-0.698132,-0.174533,-0.174533,-1.04386,-0.692912,-0.159067,-0.185952,-0.66677,-0.292217,-0.463983,0.342568
26,60,-1.0472,-0.698132,-0.174533,-0.174533,-1.04386,-0.692912,-0.159067,-0.185952,-0.66677,-0.292217,-0.463983,0.342568
26,60,-1.0472,-0.698132,-0.174533,-0.174533,-1.04386,-0.692912,-0.159067,-0.185952,-0.66677,-0.292217,-0.463983,0.342568
26,60,-1.0472,-0.698132,-0.174533,-0.174533,-1.04386,-0.692912,-0.159067,-0.185952,-0.66677,-0.292217,-0.463983,0.342568
26,60,-1.0472,-0.698132,-0.174533,-0.174533,-1.04386,-0.692912,-0.159067,-0.185952,-0.66677,-0.292217,-0.463983,0.342568
26,60,-1.0472,-0.698132,-0.174533,-0.174533,-1.04386,-0.692912,-0.159067,-0.185952,-0.66677,-0.292217,-0.463983,0.342568
26,60,-1.0472,-0.698132,-0.174533,-0.174533,-1.04386,-0.692912,-0.159067,-0.185952,-0.66677,-0.292217,-0.463983,0.342568
26,60,-1.0472,-0.698132,-0.174533,-0.174533,-1.04386,-0.692912,-0.159067,-0.185952,-0.66677,-0.292217,-0.463983,0.342568
26,60,-1.0472,-0.698132,-0.174533,-0.174533,-1.04386,-0.692912,-0.159067,-0.185952,-0.66677,-0.292217,-0.463983,0.342568
26,60,-1.0472,-0.698132,-0.174533,-0.174533,-1.04386,-0.692912,-0.159067,-0.185952,-0.66677,-0.292217,-0.463983,0.342568
26,60,-1.0472,-0.698132,-0.174533,-0.174533,-1.04386,-0.692912,-0.159067,-0.185952,-0.66677,-0.292217,-0.463983,0.342568
26,60,-1.0472,-0.698132,-0.174533,-0.174533,-1.04386,-0.692912,-0.159067,-0.185952,-0.66677,-0.292217,-0.463983,0.342568
26,60,-1.0472,-0.698132,-0.174533,-0.174533,-1.04386,-0.692912,-0.159067,-0.185952,-0.66677,-0.292217,-0.463983,0.342568
26,60,-1.0472,-0.698132,-0.174533,-0.174533,-1.04386,-0.692912,-0.159067,-0.185952,-0.66677,-0.292217,-0.463983,0.342568
26,60,-1.0472,-0.698132,-0.174533,-0.174533,-1.04386,-0.692912,-0.159067,-0.185952,-0.66677,-0.292217,-0.463983,0.342568
26,60,-1.0472,-0.698132,-0.174533,-0.174533,-1.04386,-0.692912,-0.159067,-0.185952,-0.66677,-0.292217,-0.463983,0.342568
26,60,-1.0472,-0.698132,-0.174533,-0.174533,-1.04386,-0.692912,-0.159067,-0.185952,-0.66677,-0.292217,-0.463983,0.342568
26,60,-1.0472,-0.698132,-0.174533,-0.174533,-1.04386,-0.692912,-0.159067,-0.185952,-0.66677,-0.292217,-0.463983,0.342568
26,60,-1.0472,-0.698132,-0.174533,-0.174533,-1.04386,-0.692912,-0.159067,-0.185952,-0.66677,-0.292217,-0.463983,0.342568
26,60,-1.0472,-0.698132,-0.174533,-0.174533,-1.04386,-0.692912,-0.159067,-0.185952,-0.66677,-0.292217,-0.463983,0.342568
26,60,-1.0472,-0.698132,-0.174533,-0.174533,-1.04386,-0.692912,-0.159067,-0.185952,-0.66677,-0.292217,-0.463983,0.342568
26,60,-1.0472,-0.698132,-0.174533,-0.174533,-1.04386,-0.692912,-0.159067,-0.185952,-0.66677,-0.292217,-0.463983,0.342568
26,60,-1.0472,-0.698132,-0.174533,-0.174533,-1.04386,-0.692912,-0.159067,-0.185952,-0.66677,-0.292217,-0.463983,0.342568
26,60,-1.0472,-0.698132,-0.174533,-0.174533,-1.04386,-0.692912,-0.159067,-0.185952,-0.66677,-0.292217,-0.463983,0.342568
26,60,-1.0472,-0.698132,-0.174533,-0.174533,-1.04386,-0.692912,-0.159067,-0.185952,-0.66677,-0.292217,-0.463983,0.342568
26,60,-1.0472,-0.698132,-0.174533,-0.174533,-1.04386,-0.692912,-0.159067,-0.185952,-0.66677,-0.292217,-0.463983,0.342568
26,60,-1.0472,-0.698132,-0.174533,-0.174533,-1.04386,-0.692912,-0.159067,-0.185952,-0.66677,-0.292217,-0.463983,0.342568
26,60,-1.0472,-0.698132,-0.174533,-0.174533,-1.04386,-0.692912,-0.159067,-0.185952,-0.66677,-0.292217,-0.463983,0.342568
26,60,-1.0472,-0.698132,-0.174533,-0.174533,-1.04386,-0.692912,-0.159067,-0.185952,-0.66677,-0.292217,-0.463983,0.342568
26,60,-1.0472,-0.698132,-0.174533,-0.174533,-1.04386,-0.692912,-0.159067,-0.185952,-0.66677,-0.292217,-0.463983,0.342568
26,60,-1.0472,-0.698132,-0.174533,-0.174533,-1.04386,-0.692912,-0.159067,-0.185952,-0.66677,-0.292217,-0.463983,0.342568
26,60,-1.0472,-0.698132,-0.174533,-0.174533,-1.04386,-0.692912,-0.159067,-0.185952,-0.66677,-0.292217,-0.463983,0.342568
26,60,-1.0472,-0.698132,-0.174533,-0.174533,-1.04386,-0.692912,-0.159067,-0.185952,-0.66677,-0.292217,-0.463983,0.342568
26,60,-1.0472,-0.698132,-0.174533,-0.174533,-1.04386,-0.692912,-0.159067,-0.185952,-0.66677,-0.292217,-0.463983,0.342568
26,60,-1.0472,-0.698132,-0.174533,-0.174533,-1.04386,-0.692912,-0.159067,-0.185952,-0.66677,-0.292217,-0.463983,0.342568
26,60,-1.0472,-0.698132,-0.174533,-0.174533,-1.04386,-0.692912,-0.159067,-0.185952,-0.66677,-0.292217,-0.463983,0.342568
26,60,-1.0472,-0.698132,-0.174533,-0.174533,-1.04386,-0.692912,-0.159067,-0.185952,-0.66677,-0.292217,-0.463983,0.342568
26,60,-1.0472,-0.698132,-0.174533,-0.174533,-1.04386,-0.692912,-0.159067,-0.185952,-0.66677,-0.292217,-0.463983,0.342568
26,60,-1.0472,-0.698132,-0.174533,-0.174533,-1.04386,-0.692912,-0.159067,-0.185952,-0.66677,-0.292217,-0.463983,0.342568
26,60,-1.0472,-0.698132,-0.174533,-0.174533,-1.04386,-0.692912,-0.159067,-0.185952,-0.66677,-0.292217,-0.463983,0.342568
26,60,-1.0472,-0.698132,-0.174533,-0.174533,-1.04386,-0.692912,-0.159067,-0.185952,-0.66677,-0.292217,-0.463983,0.342568
26,60,-1.0472,-0.698132,-0.174533,-0.174533,-1.04386,-0.692912,-0.159067,-0.185952,-0.66677,-0.292217,-0.463983,0.342568
26,60,-1.0472,-0.698132,-0.174533,-0.174533,-1.04386,-0.692912,-0.159067,-0.185952,-0.66677,-0.292217,-0.463983,0.342568
26,60,-1.0472,-0.698132,-0.174533,-0.174533,-1.04386,-0.692912,-0.159067,-0.185952,-0.66677,-0.292217,-0.463983,0.342568
26,60,-1.0472,-0.698132,-0.174533,-0.174533,-1.04386,-0.692912,-0.159067,-0.185952,-0.66677,-0.292217,-0.463983,0.342568
26,60,-1.0472,-0.698132,-0.174533,-0.174533,-1.04386,-0.692912,-0.159067,-0.185952,-0.66677,-0.292217,-0.463983,0.342568
26,60,-1.0472,-0.698132,-0.174533,-0.174533,-1.04386,-0.692912,-0.159067,-0.185952,-0.66677,-0.292217,-0.463983,0.342568
26,60,-1.0472,-0.698132,-0.174533,-0.174533,-1.04386,-0.692912,-0.159067,-0.185952,-0.66677,-0.292217,-0.463983,0.342568
26,60,-1.0472,-0.698132,-0.174533,-0.174533,-1.04386,-0.692912,-0.159067,-0.185952,-0.66677,-0.292217,-0.463983,0.342568
26,60,-1.0472,-0.698132,-0.174533,-0.174533,-1.04386,-0.692912,-0.159067,-0.185952,-0.66677,-0.292217,-0.463983,0.342568
26,60,-1.0472,-0.698132,-0.174533,-0.174533,-1.04386,-0.692912,-0.159067,-0.185952,-0.66677,-0.292217,-0.463983,0.342568
26,60,-1.0472,-0.698132,-0.174533,-0.174533,-1.04386,-0.692912,-0.159067,-0.185952,-0.66677,-0.292217,-0.463983,0.342568
26,60,-1.0472,-0.698132,-0.174533,-0.174533,-1.04386,-0.692912,-0.159067,-0.185952,-0.66677,-0.292217,-0.463983,0.342568
26,60,-1.0472,-0.698132,-0.174533,-0.174533,-1.04386,-0.692912,-0.159067,-0.185952,-0.66677,-0.292217,-0.463983,0.342568
26,60,-1.0472,-0.698132,-0.174533,-0.174533,-1.04386,-0.692912,-0.159067,-0.185952,-0.66677,-0.292217,-0.463983,0.342568
26,60,-1.0472,-0.698132,-0.174533,-0.174533,-1.04386,-0.692912,-0.159067,-0.185952,-0.66677,-0.292217,-0.463983,0.342568
26,60,-1.0472,-0.698132,-0.174533,-0.174533,-1.04386,-0.692912,-0.159067,-0.185952,-0.66677,-0.292217,-0.463983,0.342568
26,60,-1.0472,-0.698132,-0.174533,-0.174533,-1.04386,-0.692912,-0.159067,-0.185952,-0.66677,-0.292217,-0.463983,0.342568
26,60,-1.0472,-0.698132,-0.174533,-0.174533,-1.04386,-0.692912,-0.159067,-0.185952,-0.66677,-0.292217,-0.463983,0.342568
26,60,-1.0472,-0.698132,-0.174533,-0.174533,-1.04386,-0.692912,-0.159067,-0.185952,-0.66677,-0.292217,-0.463983,0.342568
26,60,-1.0472,-0.698132,-0.174533,-0.174533,-1.04386,-0.692912,-0.159067,-0.185952,-0.66677,-0.292217,-0.463983,0.342568
26,60,-1.0472,-0.698132,-0.174533,-0.174533,-1.04386,-0.692912,-0.159067,-0.185952,-0.66677,-0.292217,-0.463983,0.342568
26,60,-1.0472,-0.698132,-0.174533,-0.174533,-1.04386,-0.692912,-0.159067,-0.185952,-0.66677,-0.292217,-0.463983,0.342568
26,60,-1.0472,-0.698132,-0.174533,-0.174533,-1.04386,-0.692912,-0.159067,-0.185952,-0.66677,-0.292217,-0.463983,0.342568
26,60,-1.0472,-0.698132,-0.174533,-0.174533,-1.04386,-0.692912,-0.159067,-0.185952,-0.66677,-0.292217,-0.463983,0.342568
26,60,-1.0472,-0.698132,-0.174533,-0.174533,-1.04386,-0.692912,-0.159067,-0.185952,-0.66677,-0.292217,-0.463983,0.342568
26,60,-1.0472,-0.698132,-0.174533,-0.174533,-1.04386,-0.692912,-0.159067,-0.185952,-0.66677,-0.292217,-0.463983,0.342568
26,60,-1.0472,-0.698132,-0.174533,-0.174533,-1.04386,-0.692912,-0.159067,-0.185952,-0.66677,-0.292217,-0.463983,0.342568
26,60,-1.0472,-0.698132,-0.174533,-0.174533,-1.04386,-0.692912,-0.159067,-0.185952,-0.66677,-0.292217,-0.463983,0.342568
26,60,-1.0472,-0.698132,-0.174533,-0.174533,-1.04386,-0.692912,-0.159067,-0.185952,-0.66677,-0.292217,-0.463983,0.342568
26,60,-1.0472,-0.698132,-0.174533,-0.174533,-1.04386,-0.692912,-0.159067,-0.185952,-0.66677,-0.292217,-0.463983,0.342568
26,60,-1.0472,-0.698132,-0.174533,-0.174533,-1.04386,-0.692912,-0.159067,-0.185952,-0.66677,-0.292217,-0.463983,0.342568
26,60,-1.0472,-0.698132,-0.174533,-0.174533,-1.04386,-0.692912,-0.159067,-0.185952,-0.66677,-0.292217,-0.463983,0.342568
26,60,-1.0472,-0.698132,-0.174533,-0.174533,-1.04386,-0.692912,-0.159067,-0.185952,-0.66677,-0.292217,-0.463983,0.342568
26,60,-1.0472,-0.698132,-0.174533,-0.174533,-1.04386,-0.692912,-0.159067,-0.185952,-0.66677,-0.292217,-0.463983,0.342568
26,60,-1.0472,-0.698132,-0.174533,-0.174533,-1.04386,-0.692912,-0.159067,-0.185952,-0.66677,-0.292217,-0.463983,0.342568
26,60,-1.0472,-0.698132,-0.174533,-0.174533,-1.04386,-0.692912,-0.159067,-0.185952,-0.66677,-0.292217,-0.463983,0.342568
26,60,-1.0472,-0.698132,-0.174533,-0.174533,-1.04386,-0.692912,-0.159067,-0.185952,-0.66677,-0.292217,-0.463983,0.342568
26,60,-1.0472,-0.698132,-0.174533,-0.174533,-1.04386,-0.692912,-0.159067,-0.185952,-0.66677,-0.292217,-0.463983,0.342568
26,60,-1.0472,-0.698132,-0.174533,-0.174533,-1.04386,-0.692912,-0.159067,-0.185952,-0.66677,-0.292217,-0.463983,0.342568
26,60,-1.0472,-0.698132,-0.174533,-0.174533,-1.04386,-0.692912,-0.159067,-0.185952,-0.66677,-0.292217,-0.463983,0.342568
26,60,-1.0472,-0.698132,-0.174533,-0.174533,-1.04386,-0.692912,-0.159067,-0.185952,-0.66677,-0.292217,-0.463983,0.342568
26,60,-1.0472,-0.698132,-0.174533,-0.174533,-1.04386,-0.692912,-0.159067,-0.185952,-0.66677,-0.292217,-0.463983,0.342568
26,60,-1.0472,-0.698132,-0.174533,-0.174533,-1.04386,-0.692912,-0.159067,-0.185952,-0.66677,-0.292217,-0.463983,0.342568
26,60,-1.0472,-0.698132,-0.174533,-0.174533,-1.04386,-0.692912,-0.159067,-0.185952,-0.66677,-0.292217,-0.463983,0.342568
26,60,-1.0472,-0.698132,-0.174533,-0.174533,-1.04386,-0.692912,-0.159067,-0.185952,-0.66677,-0.292217,-0.463983,0.342568
26,60,-1.0472,-0.698132,-0.174533,-0.174533,-1.04386,-0.692912,-0.159067,-0.185952,-0.66677,-0.292217,-0.463983,0.342568
26,60,-1.0472,-0.698132,-0.174533,-0.174533,-1.04386,-0.692912,-0.159067,-0.185952,-0.66677,-0.292217,-0.463983,0.342568
26,60,-1.0472,-0.698132,-0.174533,-0.174533,-1.04386,-0.692912,-0.159067,-0.185952,-0.66677,-0.292217,-0.463983,0.342568
26,60,-1.0472,-0.698132,-0.174533,-0.174533,-1.04386,-0.692912,-0.159067,-0.185952,-0.66677,-0.292217,-0.463983,0.342568
26,60,-1.0472,-0.698132,-0.174533,-0.174533,-1.04386,-0.692912,-0.159067,-0.185952,-0.66677,-0.292217,-0.463983,0.342568
26,60,-1.0472,-0.698132,-0.174533,-0.174533,-1.04386,-0.692912,-0.159067,-0.185952,-0.66677,-0.292217,-0.463983,0.342568
26,60,-1.0472,-0.698132,-0.174533,-0.174533,-1.04386,-0.692912,-0.159067,-0.185952,-0.66677,-0.292217,-0.463983,0.342568
26,60,-1.0472,-0.698132,-0.174533,-0.174533,-1.04386,-0.692912,-0.159067,-0.185952,-0.66677,-0.292217,-0.463983,0.342568
26,60,-1.0472,-0.698132,-0.174533,-0.174533,-1.04386,-0.692912,-0.159067,-0.185952,-0.66677,-0.292217,-0.463983,0.342568
26,60,-1.0472,-0.698132,-0.174533,-0.174533,-1.04386,-0.692912,-0.159067,-0.185952,-0.66677,-0.292217,-0.463983,0.342568
26,60,-1.0472,-0.698132,-0.174533,-0.174533,-1.04386,-0.692912,-0.159067,-0.185952,-0.66677,-0.292217,-0.463983,0.342568
26,60,-1.0472,-0.698132,-0.174533,-0.174533,-1.04386,-0.692912,-0.159067,-0.185952,-0.66677,-0.292217,-0.463983,0.342568
26,60,-1.0472,-0.698132,-0.174533,-0.174533,-1.04386,-0.692912,-0.159067,-0.185952,-0.66677,-0.292217,-0.463983,0.342568
26,60,-1.0472,-0.698132,-0.174533,-0.174533,-1.04386,-0.692912,-0.159067,-0.185952,-0.66677,-0.292217,-0.463983,0.342568
26,60,-1.0472,-0.698132,-0.174533,-0.174533,-1.04386,-0.692912,-0.159067,-0.185952,-0.66677,-0.292217,-0.463983,0.342568
26,60,-1.0472,-0.698132,-0.174533,-0.174533,-1.04386,-0.692912,-0.159067,-0.185952,-0.66677,-0.292217,-0.463983,0.342568
26,60,-1.0472,-0.698132,-0.174533,-0.174533,-1.04386,-0.692912,-0.159067,-0.185952,-0.66677,-0.292217,-0.463983,0.342568
26,60,-1.0472,-0.698132,-0.174533,-0.174533,-1.04386,-0.692912,-0.159067,-0.185952,-0.66677,-0.292217,-0.463983,0.342568
26,60,-1.0472,-0.698132,-0.174533,-0.174533,-1.04386,-0.692912,-0.159067,-0.185952,-0.66677,-0.292217,-0.463983,0.342568
26,60,-1.0472,-0.698132,-0.174533,-0.174533,-1.04386,-0.692912,-0.159067,-0.185952,-0.66677,-0.292217,-0.463983,0.342568
26,60,-1.0472,-0.698132,-0.174533,-0.174533,-1.04386,-0.692912,-0.159067,-0.185952,-0.66677,-0.292217,-0.463983,0.342568
26,60,-1.0472,-0.698132,-0.174533,-0.174533,-1.04386,-0.692912,-0.159067,-0.185952,-0.66677,-0.292217,-0.463971,0.342564
26,60,-1.0472,-0.698132,-0.174533,-0.174533,-1.04386,-0.692912,-0.159067,-0.185952,-0.66677,-0.292279,-0.463971,0.342564
26,60,-1.0472,-0.698132,-0.174533,-0.174533,-1.04386,-0.692912,-0.159067,-0.185952,-0.66677,-0.292279,-0.463971,0.342564
26,60,-1.0472,-0.698132,-0.174533,-0.174533,-1.04386,-0.692912,-0.159067,-0.185952,-0.66677,-0.292279,-0.463971,0.342564
26,60,-1.0472,-0.698132,-0.174533,-0.174533,-1.04386,-0.692912,-0.159067,-0.185952,-0.66677,-0.292279,-0.463971,0.342564
26,60,-1.0472,-0.698132,-0.174533,-0.174533,-1.04386,-0.692912,-0.159067,-0.185952,-0.66677,-0.292279,-0.463971,0.342564
26,60,-1.0472,-0.698132,-0.174533,-0.174533,-1.04386,-0.692912,-0.159067,-0.185952,-0.66677,-0.292279,-0.463971,0.342564
26,60,-1.0472,-0.698132,-0.174533,-0.174533,-1.04386,-0.692912,-0.159067,-0.185952,-0.66677,-0.292279,-0.463971,0.342564
26,60,-1.0472,-0.698132,-0.174533,-0.174533,-1.04386,-0.692912,-0.159067,-0.185952,-0.66677,-0.292279,-0.463971,0.342564
26,60,-1.0472,-0.698132,-0.174533,-0.174533,-1.04386,-0.692912,-0.159067,-0.185952,-0.66677,-0.292279,-0.463971,0.342564
26,60,-1.0472,-0.698132,-0.174533,-0.174533,-1.04386,-0.692912,-0.159067,-0.185952,-0.66677,-0.292279,-0.463971,0.342564
26,60,-1.0472,-0.698132,-0.174533,-0.174533,-1.04386,-0.692912,-0.159067,-0.185952,-0.66677,-0.292279,-0.463971,0.342564
26,60,-1.0472,-0.698132,-0.174533,-0.174533,-1.04386,-0.692912,-0.159067,-0.185952,-0.66677,-0.292279,-0.463971,0.342564
26,60,-1.0472,-0.698132,-0.174533,-0.174533,-1.04386,-0.692912,-0.159067,-0.185952,-0.66677,-0.292279,-0.463971,0.342564
26,60,-1.0472,-0.698132,-0.174533,-0.174533,-1.04386,-0.692912,-0.159067,-0.185952,-0.66677,-0.292279,-0.463971,0.342564
26,60,-1.0472,-0.698132,-0.174533,-0.174533,-1.04386,-0.692912,-0.159067,-0.185952,-0.66677,-0.292279,-0.463971,0.342564
26,60,-1.0472,-0.698132,-0.174533,-0.174533,-1.04386,-0.692912,-0.159067,-0.185952,-0.66677,-0.292279,-0.463971,0.342564
26,60,-1.0472,-0.698132,-0.174533,-0.174533,-1.04386,-0.692912,-0.159067,-0.185952,-0.66677,-0.292279,-0.463971,0.342564
26,60,-1.0472,-0.698132,-0.174533,-0.174533,-1.04386,-0.692912,-0.159067,-0.185952,-0.66677,-0.292279,-0.463971,0.342564
26,60,-1.0472,-0.698132,-0.174533,-0.174533,-1.04386,-0.692912,-0.159067,-0.185952,-0.66677,-0.292279,-0.463971,0.342564
26,60,-1.0472,-0.698132,-0.174533,-0.174533,-1.04386,-0.692912,-0.159067,-0.185952,-0.66677,-0.292279,-0.463971,0.342564
26,60,-1.0472,-0.698132,-0.174533,-0.174533,-1.04386,-0.692912,-0.159067,-0.185952,-0.66677,-0.292279,-0.463971,0.342564
26,60,-1.0472,-0.698132,-0.174533,-0.174533,-1.04386,-0.692912,-0.159067,-0.185952,-0.66677,-0.292279,-0.463971,0.342564
26,60,-1.0472,-0.698132,-0.174533,-0.174533,-1.04386,-0.692912,-0.159067,-0.185952,-0.66677,-0.292279,-0.463971,0.342564
26,60,-1.0472,-0.698132,-0.174533,-0.174533,-1.04386,-0.692912,-0.159067,-0.185952,-0.66677,-0.292279,-0.463971,0.342564
26,60,-1.0472,-0.698132,-0.174533,-0.174533,-1.04386,-0.692912,-0.159067,-0.185952,-0.66677,-0.292279,-0.463971,0.342564
26,60,-1.0472,-0.698132,-0.174533,-0.174533,-1.04386,-0.692912,-0.159067,-0.185952,-0.66677,-0.292279,-0.463971,0.342564
26,60,-1.0472,-0.698132,-0.174533,-0.174533,-1.04386,-0.692912,-0.159067,-0.185952,-0.66677,-0.292279,-0.463971,0.342564
26,60,-1.0472,-0.698132,-0.174533,-0.174533,-1.04386,-0.692912,-0.159067,-0.185952,-0.66677,-0.292279,-0.463971,0.342564
26,60,-1.0472,-0.698132,-0.174533,-0.174533,-1.04386,-0.692912,-0.159067,-0.185952,-0.66677,-0.292279,-0.463971,0.342564
26,60,-1.0472,-0.698132,-0.174533,-0.174533,-1.04386,-0.692912,-0.159067,-0.185952,-0.66677,-0.292279,-0.463971,0.342564
26,60,-1.0472,-0.698132,-0.174533,-0.174533,-1.04386,-0.692912,-0.159067,-0.185952,-0.66677,-0.292279,-0.463971,0.342564
26,60,-1.0472,-0.698132,-0.174533,-0.174533,-1.04386,-0.692912,-0.159067,-0.185952,-0.66677,-0.292279,-0.463971,0.342564
26,60,-1.0472,-0.698132,-0.174533,-0.174533,-1.04386,-0.692912,-0.159067,-0.185952,-0.66677,-0.292279,-0.463971,0.342564
26,60,-1.0472,-0.698132,-0.174533,-0.174533,-1.04386,-0.692912,-0.159067,-0.185952,-0.66677,-0.292279,-0.463971,0.342564
26,60,-1.0472,-0.698132,-0.174533,-0.174533,-1.04386,-0.692912,-0.159067,-0.185952,-0.66677,-0.292279,-0.463971,0.342564
26,60,-1.0472,-0.698132,-0.174533,-0.174533,-1.04386,-0.692912,-0.159067,-0.185952,-0.66677,-0.292279,-0.463971,0.342564
26,60,-1.0472,-0.698132,-0.174533,-0.174533,-1.04386,-0.692912,-0.159067,-0.185952,-0.66677,-0.292279,-0.463971,0.342564
26,60,-1.0472,-0.698132,-0.174533,-0.174533,-1.04386,-0.692912,-0.159067,-0.185952,-0.66677,-0.292279,-0.463971,0.342564
26,60,-1.0472,-0.698132,-0.174533,-0.174533,-1.04386,-0.692912,-0.159067,-0.185952,-0.66677,-0.292279,-0.463971,0.342564
26,60,-1.0472,-0.698132,-0.174533,-0.174533,-1.04386,-0.692912,-0.159067,-0.185952,-0.66677,-0.292279,-0.463971,0.342564
26,60,-1.0472,-0.698132,-0.174533,-0.174533,-1.04386,-0.692912,-0.159067,-0.185952,-0.66677,-0.292279,-0.463971,0.342564
26,60,-1.0472,-0.698132,-0.174533,-0.174533,-1.04386,-0.692912,-0.159067,-0.185952,-0.66677,-0.292279,-0.463971,0.342564
26,60,-1.0472,-0.698132,-0.174533,-0.174533,-1.04386,-0.692912,-0.159067,-0.185952,-0.66677,-0.292279,-0.463971,0.342564
26,60,-1.0472,-0.698132,-0.174533,-0.174533,-1.04386,-0.692912,-0.159067,-0.185952,-0.66677,-0.292279,-0.463971,0.342564
26,60,-1.0472,-0.698132,-0.174533,-0.174533,-1.04386,-0.692912,-0.159067,-0.185952,-0.66677,-0.292279,-0.463971,0.342564
26,60,-1.0472,-0.698132,-0.174533,-0.174533,-1.04386,-0.692912,-0.159067,-0.185952,-0.66677,-0.292279,-0.463971,0.342564
26,60,-1.0472,-0.698132,-0.174533,-0.174533,-1.04386,-0.692912,-0.159067,-0.185952,-0.66677,-0.292279,-0.463971,0.342564
26,60,-1.0472,-0.698132,-0.174533,-0.174533,-1.04386,-0.692912,-0.159067,-0.185952,-0.66677,-0.292279,-0.463971,0.342564
26,60,-1.0472,-0.698132,-0.174533,-0.174533,-1.04386,-0.692912,-0.159067,-0.185952,-0.66677,-0.292279,-0.463971,0.342564
26,60,-1.0472,-0.698132,-0.174533,-0.174533,-1.04386,-0.692912,-0.159067,-0.185952,-0.66677,-0.292279,-0.463971,0.342564
26,60,-1.0472,-0.698132,-0.174533,-0.174533,-1.04386,-0.692912,-0.159067,-0.185952,-0.66677,-0.292279,-0.463971,0.342564
26,60,-1.0472,-0.698132,-0.174533,-0.174533,-1.04386,-0.692912,-0.159067,-0.185952,-0.66677,-0.292279,-0.463971,0.342564
26,60,-1.0472,-0.698132,-0.174533,-0.174533,-1.04386,-0.692912,-0.159067,-0.185952,-0.66677,-0.292279,-0.463971,0.342564
26,60,-1.0472,-0.698132,-0.174533,-0.174533,-1.04386,-0.692912,-0.159067,-0.185952,-0.66677,-0.292279,-0.463971,0.342564
26,60,-1.0472,-0.698132,-0.174533,-0.174533,-1.04386,-0.692912,-0.159067,-0.185952,-0.66677,-0.292279,-0.463971,0.342564
26,60,-1.0472,-0.698132,-0.174533,-0.174533,-1.04386,-0.692912,-0.159067,-0.185952,-0.66677,-0.292279,-0.463971,0.342564
26,60,-1.0472,-0.698132,-0.174533,-0.174533,-1.04386,-0.692912,-0.159067,-0.185952,-0.66677,-0.292279,-0.463971,0.342564
26,60,-1.0472,-0.698132,-0.174533,-0.174533,-1.04386,-0.692912,-0.159067,-0.185952,-0.66677,-0.292279,-0.463971,0.342564
26,60,-1.0472,-0.698132,-0.174533,-0.174533,-1.04386,-0.692912,-0.159067,-0.185952,-0.66677,-0.292279,-0.463971,0.342564
26,60,-1.0472,-0.698132,-0.174533,-0.174533,-1.04386,-0.692912,-0.159067,-0.185952,-0.66677,-0.292279,-0.463971,0.342564
26,60,-1.0472,-0.698132,-0.174533,-0.174533,-1.04386,-0.692912,-0.159067,-0.185952,-0.66677,-0.292279,-0.463971,0.342564
26,60,-1.0472,-0.698132,-0.174533,-0.174533,-1.04386,-0.692912,-0.159067,-0.185952,-0.66677,-0.292279,-0.463971,0.342564
26,60,-1.0472,-0.698132,-0.174533,-0.174533,-1.04386,-0.692912,-0.159067,-0.185952,-0.66677,-0.292279,-0.463971,0.342564
26,60,-1.0472,-0.698132,-0.174533,-0.174533,-1.04386,-0.692912,-0.159067,-0.185952,-0.66677,-0.292279,-0.463971,0.342564
26,60,-1.0472,-0.698132,-0.174533,-0.174533,-1.04386,-0.692912,-0.159067,-0.185952,-0.66677,-0.292279,-0.463971,0.342564
26,60,-1.0472,-0.698132,-0.174533,-0.174533,-1.04386,-0.692912,-0.159067,-0.185952,-0.66677,-0.292279,-0.463971,0.342564
26,60,-1.0472,-0.698132,-0.174533,-0.174533,-1.04386,-0.692912,-0.159067,-0.185952,-0.66677,-0.292279,-0.463971,0.342564
26,60,-1.0472,-0.698132,-0.174533,-0.174533,-1.04386,-0.692912,-0.159067,-0.185952,-0.66677,-0.292279,-0.463971,0.342564
26,60,-1.0472,-0.698132,-0.174533,-0.174533,-1.04386,-0.692912,-0.159067,-0.185952,-0.66677,-0.292279,-0.463971,0.342564
26,60,-1.0472,-0.698132,-0.174533,-0.174533,-1.04386,-0.692912,-0.159067,-0.185952,-0.66677,-0.292279,-0.463971,0.342564
26,60,-1.0472,-0.698132,-0.174533,-0.174533,-1.04386,-0.692912,-0.159067,-0.185952,-0.66677,-0.292279,-0.463971,0.342564
26,60,-1.0472,-0.698132,-0.174533,-0.174533,-1.04386,-0.692912,-0.159067,-0.185952,-0.66677,-0.292279,-0.463971,0.342564
26,60,-1.0472,-0.698132,-0.174533,-0.174533,-1.04386,-0.692912,-0.159067,-0.185952,-0.66677,-0.292279,-0.463971,0.342564
26,60,-1.0472,-0.698132,-0.174533,-0.174533,-1.04386,-0.692912,-0.159067,-0.185952,-0.66677,-0.292279,-0.463971,0.342564
26,60,-1.0472,-0.698132,-0.174533,-0.174533,-1.04386,-0.692912,-0.159067,-0.185952,-0.66677,-0.292279,-0.463971,0.342564
26,60,-1.0472,-0.698132,-0.174533,-0.174533,-1.04386,-0.692912,-0.159067,-0.185952,-0.66677,-0.292279,-0.463971,0.342564
26,60,-1.0472,-0.698132,-0.174533,-0.174533,-1.04386,-0.692912,-0.159067,-0.185952,-0.66677,-0.292279,-0.463971,0.342564
26,60,-1.0472,-0.698132,-0.174533,-0.174533,-1.04386,-0.692912,-0.159067,-0.185952,-0.66677,-0.292279,-0.463971,0.342564
26,60,-1.0472,-0.698132,-0.174533,-0.174533,-1.04386,-0.692912,-0.159067,-0.185952,-0.66677,-0.292279,-0.463971,0.342564
26,60,-1.0472,-0.698132,-0.174533,-0.174533,-1.04386,-0.692912,-0.159067,-0.185952,-0.66677,-0.292279,-0.463971,0.342564
26,60,-1.0472,-0.698132,-0.174533,-0.174533,-1.04386,-0.692912,-0.159067,-0.185952,-0.66677,-0.292279,-0.463971,0.342564
26,60,-1.0472,-0.698132,-0.174533,-0.174533,-1.04386,-0.692912,-0.159067,-0.185952,-0.66677,-0.292279,-0.463971,0.342564
26,60,-1.0472,-0.698132,-0.174533,-0.174533,-1.04386,-0.692912,-0.159067,-0.185952,-0.66677,-0.292279,-0.463971,0.342564
26,60,-1.0472,-0.698132,-0.174533,-0.174533,-1.04386,-0.692912,-0.159067,-0.185952,-0.66677,-0.292279,-0.463971,0.342564
26,60,-1.0472,-0.698132,-0.174533,-0.174533,-1.04386,-0.692912,-0.159067,-0.185952,-0.66677,-0.292279,-0.463971,0.342564
26,60,-1.0472,-0.698132,-0.174533,-0.174533,-1.04386,-0.692912,-0.15907,-0.186011,-0.66677,-0.292279,-0.463896,0.344353
26,60,-1.0472,-0.698132,-0.174533,-0.174533,-1.04386,-0.692912,-0.15907,-0.186011,-0.66677,-0.292279,-0.463896,0.344353
26,60,-1.0472,-0.698132,-0.174533,-0.174533,-1.04386,-0.692912,-0.15907,-0.186011,-0.66677,-0.292279,-0.463896,0.344353
26,60,-1.0472,-0.698132,-0.174533,-0.174533,-1.04386,-0.692912,-0.15907,-0.186011,-0.66677,-0.292279,-0.463896,0.344353
26,60,-1.0472,-0.698132,-0.174533,-0.174533,-1.04386,-0.692912,-0.15907,-0.186011,-0.66677,-0.292279,-0.463896,0.344353
26,60,-1.0472,-0.698132,-0.174533,-0.174533,-1.04386,-0.692912,-0.15907,-0.186011,-0.66677,-0.292279,-0.463896,0.344353
26,60,-1.0472,-0.698132,-0.174533,-0.174533,-1.04386,-0.692912,-0.15907,-0.186011,-0.66677,-0.292279,-0.463896,0.344353
26,60,-1.0472,-0.698132,-0.174533,-0.174533,-1.04386,-0.692912,-0.15907,-0.186011,-0.66677,-0.292279,-0.463896,0.344353
26,60,-1.0472,-0.698132,-0.174533,-0.174533,-1.04386,-0.692912,-0.15907,-0.186011,-0.66677,-0.292279,-0.463896,0.344353
26,60,-1.0472,-0.698132,-0.174533,-0.174533,-1.04386,-0.692912,-0.15907,-0.186011,-0.66677,-0.292279,-0.463896,0.344353
26,60,-1.0472,-0.698132,-0.174533,-0.174533,-1.04386,-0.692912,-0.15907,-0.186011,-0.66677,-0.292279,-0.463896,0.344353
26,60,-1.0472,-0.698132,-0.174533,-0.174533,-1.04386,-0.692912,-0.15907,-0.186011,-0.66677,-0.292279,-0.463896,0.344353
26,60,-1.0472,-0.698132,-0.174533,-0.174533,-1.04386,-0.692912,-0.15907,-0.186011,-0.66677,-0.292279,-0.463896,0.344353
26,60,-1.0472,-0.698132,-0.174533,-0.174533,-1.04386,-0.692912,-0.15907,-0.186011,-0.66677,-0.292279,-0.463896,0.344353
26,60,-1.0472,-0.698132,-0.174533,-0.174533,-1.04386,-0.692912,-0.15907,-0.186011,-0.66677,-0.292279,-0.463896,0.344353
26,60,-1.0472,-0.698132,-0.174533,-0.174533,-1.04386,-0.692912,-0.15907,-0.186011,-0.66677,-0.292279,-0.463896,0.344353
26,60,-1.0472,-0.698132,-0.174533,-0.174533,-1.04386,-0.692912,-0.15907,-0.186011,-0.66677,-0.292279,-0.463896,0.344353
26,60,-1.0472,-0.698132,-0.174533,-0.174533,-1.04386,-0.692912,-0.15907,-0.186011,-0.66677,-0.292279,-0.463896,0.344353
26,60,-1.0472,-0.698132,-0.174533,-0.174533,-1.04386,-0.692912,-0.15907,-0.186011,-0.66677,-0.292279,-0.463896,0.344353
26,60,-1.0472,-0.698132,-0.174533,-0.174533,-1.04386,-0.692912,-0.15907,-0.186011,-0.66677,-0.292279,-0.463896,0.344353
26,60,-1.0472,-0.698132,-0.174533,-0.174533,-1.04386,-0.692912,-0.15907,-0.186011,-0.66677,-0.292279,-0.463896,0.344353
26,60,-1.0472,-0.698132,-0.174533,-0.174533,-1.04386,-0.692912,-0.15907,-0.186011,-0.66677,-0.292279,-0.463896,0.344353
26,60,-1.0472,-0.698132,-0.174533,-0.174533,-1.04386,-0.692912,-0.15907,-0.186011,-0.66677,-0.292279,-0.463896,0.344353
26,60,-1.0472,-0.698132,-0.174533,-0.174533,-1.04386,-0.692912,-0.15907,-0.186011,-0.66677,-0.292279,-0.463896,0.344353
26,60,-1.0472,-0.698132,-0.174533,-0.174533,-1.04386,-0.692912,-0.15907,-0.186011,-0.66677,-0.292279,-0.463896,0.344353
26,60,-1.0472,-0.698132,-0.174533,-0.174533,-1.04386,-0.692912,-0.15907,-0.186011,-0.66677,-0.292279,-0.463896,0.344353
26,60,-1.0472,-0.698132,-0.174533,-0.174533,-1.04386,-0.692912,-0.15907,-0.186011,-0.66677,-0.292279,-0.463896,0.344353
26,60,-1.0472,-0.698132,-0.174533,-0.174533,-1.04386,-0.692912,-0.15907,-0.186011,-0.66677,-0.292279,-0.463896,0.344353
26,60,-1.0472,-0.698132,-0.174533,-0.174533,-1.04386,-0.692912,-0.15907,-0.186011,-0.66677,-0.292279,-0.463896,0.344353
26,60,-1.0472,-0.698132,-0.174533,-0.174533,-1.04386,-0.692912,-0.15907,-0.186011,-0.66677,-0.292279,-0.463896,0.344353
26,60,-1.0472,-0.698132,-0.174533,-0.174533,-1.04386,-0.692912,-0.15907,-0.186011,-0.66677,-0.292279,-0.463896,0.344353
26,60,-1.0472,-0.698132,-0.174533,-0.174533,-1.04386,-0.692912,-0.15907,-0.186011,-0.66677,-0.292279,-0.463896,0.344353
26,60,-1.0472,-0.698132,-0.174533,-0.174533,-1.04386,-0.692912,-0.15907,-0.186011,-0.66677,-0.292279,-0.463896,0.344353
26,60,-1.0472,-0.698132,-0.174533,-0.174533,-1.04386,-0.692912,-0.15907,-0.186011,-0.66677,-0.292279,-0.463896,0.344353
26,60,-1.0472,-0.698132,-0.174533,-0.174533,-1.04386,-0.692912,-0.15907,-0.186011,-0.66677,-0.292279,-0.463896,0.344353
26,60,-1.0472,-0.698132,-0.174533,-0.174533,-1.04386,-0.692912,-0.15907,-0.186011,-0.66677,-0.292279,-0.463896,0.344353
26,60,-1.0472,-0.698132,-0.174533,-0.174533,-1.04386,-0.692912,-0.15907,-0.186011,-0.66677,-0.292279,-0.463896,0.344353
26,60,-1.0472,-0.698132,-0.174533,-0.174533,-1.04386,-0.692912,-0.15907,-0.186011,-0.66677,-0.292279,-0.463896,0.344353
26,60,-1.0472,-0.698132,-0.174533,-0.174533,-1.04386,-0.692912,-0.15907,-0.186011,-0.66677,-0.292279,-0.463896,0.344353
26,60,-1.0472,-0.698132,-0.174533,-0.174533,-1.04386,-0.692912,-0.15907,-0.186011,-0.66677,-0.292279,-0.463896,0.344353
26,60,-1.0472,-0.698132,-0.174533,-0.174533,-1.04386,-0.692912,-0.15907,-0.186011,-0.66677,-0.292279,-0.463896,0.344353
26,60,-1.0472,-0.698132,-0.174533,-0.174533,-1.04386,-0.692912,-0.15907,-0.186011,-0.66677,-0.292279,-0.463896,0.344353
26,60,-1.0472,-0.698132,-0.174533,-0.174533,-1.04386,-0.692912,-0.15907,-0.186011,-0.66677,-0.292279,-0.463896,0.344353
26,60,-1.0472,-0.698132,-0.174533,-0.174533,-1.04386,-0.692912,-0.15907,-0.186011,-0.66677,-0.292279,-0.463896,0.344353
26,60,-1.0472,-0.698132,-0.174533,-0.174533,-1.04386,-0.692912,-0.15907,-0.186011,-0.66677,-0.292279,-0.463896,0.344353
26,60,-1.0472,-0.698132,-0.174533,-0.174533,-1.04386,-0.692912,-0.15907,-0.186011,-0.66677,-0.292279,-0.463896,0.344353
26,60,-1.0472,-0.698132,-0.174533,-0.174533,-1.04386,-0.692912,-0.15907,-0.186011,-0.66677,-0.292279,-0.463896,0.344353
26,60,-1.0472,-0.698132,-0.174533,-0.174533,-1.04386,-0.692912,-0.15907,-0.186011,-0.66677,-0.292279,-0.463896,0.344353
26,60,-1.0472,-0.698132,-0.174533,-0.174533,-1.04386,-0.692912,-0.15907,-0.186011,-0.66677,-0.292279,-0.463896,0.344353
26,60,-1.0472,-0.698132,-0.174533,-0.174533,-1.04386,-0.692912,-0.15907,-0.186011,-0.66677,-0.292279,-0.463896,0.344353
26,60,-1.0472,-0.698132,-0.174533,-0.174533,-1.04386,-0.692912,-0.15907,-0.186011,-0.66677,-0.292279,-0.463896,0.344353
26,60,-1.0472,-0.698132,-0.174533,-0.174533,-1.04386,-0.692912,-0.15907,-0.186011,-0.66677,-0.292279,-0.463896,0.344353
26,60,-1.0472,-0.698132,-0.174533,-0.174533,-1.04386,-0.692912,-0.15907,-0.186011,-0.66677,-0.292279,-0.463896,0.344353
26,60,-1.0472,-0.698132,-0.174533,-0.174533,-1.04386,-0.692912,-0.15907,-0.186011,-0.66677,-0.292279,-0.463896,0.344353
26,60,-1.0472,-0.698132,-0.174533,-0.174533,-1.04386,-0.692912,-0.15907,-0.186011,-0.66677,-0.292279,-0.463896,0.344353
26,60,-1.0472,-0.698132,-0.174533,-0.174533,-1.04386,-0.692912,-0.15907,-0.186011,-0.66677,-0.292279,-0.463896,0.344353
26,60,-1.0472,-0.698132,-0.174533,-0.174533,-1.04386,-0.692912,-0.15907,-0.186011,-0.66677,-0.292279,-0.463896,0.344353
26,60,-1.0472,-0.698132,-0.174533,-0.174533,-1.04386,-0.692912,-0.15907,-0.186011,-0.66677,-0.292279,-0.463896,0.344353
26,60,-1.0472,-0.698132,-0.174533,-0.174533,-1.04386,-0.692912,-0.15907,-0.186011,-0.66677,-0.292279,-0.463896,0.344353
26,60,-1.0472,-0.698132,-0.174533,-0.174533,-1.04386,-0.692912,-0.15907,-0.186011,-0.66677,-0.292279,-0.463896,0.344353
26,60,-1.0472,-0.698132,-0.174533,-0.174533,-1.04386,-0.692912,-0.15907,-0.186011,-0.66677,-0.292279,-0.463896,0.344353
26,60,-1.0472,-0.698132,-0.174533,-0.174533,-1.04386,-0.692912,-0.15907,-0.186011,-0.66677,-0.292279,-0.463896,0.344353
26,60,-1.0472,-0.698132,-0.174533,-0.174533,-1.04386,-0.692912,-0.15907,-0.186011,-0.66677,-0.292279,-0.463896,0.344353
26,60,-1.0472,-0.698132,-0.174533,-0.174533,-1.04386,-0.692912,-0.15907,-0.186011,-0.66677,-0.292279,-0.463896,0.344353
26,60,-1.0472,-0.698132,-0.174533,-0.174533,-1.04386,-0.692912,-0.15907,-0.186011,-0.66677,-0.292279,-0.463896,0.344353
26,60,-1.0472,-0.698132,-0.174533,-0.174533,-1.04386,-0.692912,-0.15907,-0.186011,-0.66677,-0.292279,-0.463896,0.344353
26,60,-1.0472,-0.698132,-0.174533,-0.174533,-1.04386,-0.692912,-0.15907,-0.186011,-0.66677,-0.292279,-0.463896,0.344353
26,60,-1.0472,-0.698132,-0.174533,-0.174533,-1.04386,-0.692912,-0.15907,-0.186011,-0.66677,-0.292279,-0.463896,0.344353
26,60,-1.0472,-0.698132,-0.174533,-0.174533,-1.04386,-0.692912,-0.15907,-0.186011,-0.66677,-0.292279,-0.463896,0.344353
26,60,-1.0472,-0.698132,-0.174533,-0.174533,-1.04386,-0.692912,-0.15907,-0.186011,-0.66677,-0.292279,-0.463896,0.344353
26,60,-1.0472,-0.698132,-0.174533,-0.174533,-1.04386,-0.692912,-0.15907,-0.186011,-0.66677,-0.292279,-0.463896,0.344353
26,60,-1.0472,-0.698132,-0.174533,-0.174533,-1.04386,-0.692912,-0.15907,-0.186011,-0.66677,-0.292279,-0.463896,0.344353
26,60,-1.0472,-0.698132,-0.174533,-0.174533,-1.04386,-0.692912,-0.15907,-0.186011,-0.66677,-0.292279,-0.463896,0.344353
26,60,-1.0472,-0.698132,-0.174533,-0.174533,-1.04386,-0.692912,-0.15907,-0.186011,-0.66677,-0.292279,-0.463896,0.344353
26,60,-1.0472,-0.698132,-0.174533,-0.174533,-1.04386,-0.692912,-0.15907,-0.186011,-0.66677,-0.292279,-0.463896,0.344353
26,60,-1.0472,-0.698132,-0.174533,-0.174533,-1.04386,-0.692912,-0.15907,-0.186011,-0.66677,-0.292279,-0.463896,0.344353
26,60,-1.0472,-0.698132,-0.174533,-0.174533,-1.04386,-0.692912,-0.15907,-0.186011,-0.66677,-0.292279,-0.463896,0.344353
26,60,-1.0472,-0.698132,-0.174533,-0.174533,-1.04386,-0.692912,-0.15907,-0.186011,-0.66677,-0.292279,-0.463896,0.344353
26,60,-1.0472,-0.698132,-0.174533,-0.174533,-1.04386,-0.692912,-0.15907,-0.186011,-0.66677,-0.292279,-0.463896,0.344353
26,60,-1.0472,-0.698132,-0.174533,-0.174533,-1.04386,-0.692912,-0.15907,-0.186011,-0.66677,-0.292279,-0.463896,0.344353
26,60,-1.0472,-0.698132,-0.174533,-0.174533,-1.04386,-0.692912,-0.15907,-0.186011,-0.66677,-0.292279,-0.463896,0.344353
26,60,-1.0472,-0.698132,-0.174533,-0.174533,-1.04386,-0.692912,-0.15907,-0.186011,-0.66677,-0.292279,-0.463896,0.344353
26,60,-1.0472,-0.698132,-0.174533,-0.174533,-1.04386,-0.692912,-0.15907,-0.186011,-0.66677,-0.292279,-0.463896,0.344353
26,60,-1.0472,-0.698132,-0.174533,-0.174533,-1.04386,-0.692912,-0.15907,-0.186011,-0.66677,-0.292279,-0.463896,0.344353
26,60,-1.0472,-0.698132,-0.174533,-0.174533,-1.04386,-0.692912,-0.15907,-0.186011,-0.66677,-0.292279,-0.463896,0.344353
26,60,-1.0472,-0.698132,-0.174533,-0.174533,-1.04386,-0.692912,-0.15907,-0.186011,-0.66677,-0.292279,-0.463896,0.344353
26,60,-1.0472,-0.698132,-0.174533,-0.174533,-1.04386,-0.692912,-0.15907,-0.186011,-0.66677,-0.292279,-0.463896,0.344353
26,60,-1.0472,-0.698132,-0.174533,-0.174533,-1.04386,-0.692912,-0.15907,-0.186011,-0.66677,-0.292279,-0.463896,0.344353
26,60,-1.0472,-0.698132,-0.174533,-0.174533,-1.04386,-0.692912,-0.15907,-0.186011,-0.66677,-0.292279,-0.463896,0.344353
26,60,-1.0472,-0.698132,-0.174533,-0.174533,-1.04386,-0.692912,-0.15907,-0.186011,-0.66677,-0.292279,-0.463896,0.344353
26,60,-1.0472,-0.698132,-0.174533,-0.174533,-1.04386,-0.692912,-0.15907,-0.186011,-0.66677,-0.292279,-0.463896,0.344353
26,60,-1.0472,-0.698132,-0.174533,-0.174533,-1.04386,-0.692912,-0.15907,-0.186011,-0.66677,-0.292279,-0.463896,0.344353
26,60,-1.0472,-0.698132,-0.174533,-0.174533,-1.04386,-0.692912,-0.15907,-0.186011,-0.66677,-0.292279,-0.463896,0.344353
26,60,-1.0472,-0.698132,-0.174533,-0.174533,-1.04386,-0.692912,-0.15907,-0.186011,-0.66677,-0.292279,-0.463896,0.344353
26,60,-1.0472,-0.698132,-0.174533,-0.174533,-1.04386,-0.692912,-0.15907,-0.186011,-0.66677,-0.292279,-0.463896,0.344353
26,60,-1.0472,-0.698132,-0.174533,-0.174533,-1.04386,-0.692912,-0.15907,-0.186011,-0.66677,-0.292279,-0.463896,0.344353
26,60,-1.0472,-0.698132,-0.174533,-0.174533,-1.04386,-0.692912,-0.15907,-0.186011,-0.66677,-0.292279,-0.463896,0.344353
26,60,-1.0472,-0.698132,-0.174533,-0.174533,-1.04386,-0.692912,-0.15907,-0.186011,-0.66677,-0.292279,-0.463896,0.344353
26,60,-1.0472,-0.698132,-0.174533,-0.174533,-1.04386,-0.692912,-0.15907,-0.186011,-0.66677,-0.292279,-0.463896,0.344353
26,60,-1.0472,-0.698132,-0.174533,-0.174533,-1.04386,-0.692912,-0.15907,-0.186011,-0.66677,-0.292279,-0.463896,0.344353
26,60,-1.0472,-0.698132,-0.174533,-0.174533,-1.04386,-0.692912,-0.15907,-0.186011,-0.66677,-0.292279,-0.463896,0.344353
26,60,-1.0472,-0.698132,-0.174533,-0.174533,-1.04386,-0.692912,-0.15907,-0.186011,-0.66677,-0.292279,-0.463896,0.344353
26,60,-1.0472,-0.698132,-0.174533,-0.174533,-1.04386,-0.692912,-0.15907,-0.186011,-0.66677,-0.292279,-0.463896,0.344353
26,60,-1.0472,-0.698132,-0.174533,-0.174533,-1.04386,-0.692912,-0.15907,-0.186011,-0.66677,-0.292279,-0.463896,0.344353
26,60,-1.0472,-0.698132,-0.174533,-0.174533,-1.04386,-0.692912,-0.15907,-0.186011,-0.66677,-0.292279,-0.463896,0.344353
26,60,-1.0472,-0.698132,-0.174533,-0.174533,-1.04386,-0.692912,-0.15907,-0.186011,-0.66677,-0.292279,-0.463896,0.344353
26,60,-1.0472,-0.698132,-0.174533,-0.174533,-1.04386,-0.692912,-0.15907,-0.186011,-0.66677,-0.292279,-0.463896,0.344353
26,60,-1.0472,-0.698132,-0.174533,-0.174533,-1.04386,-0.692912,-0.15907,-0.186011,-0.66677,-0.292279,-0.463896,0.344353
26,60,-1.0472,-0.698132,-0.174533,-0.174533,-1.04386,-0.692912,-0.15907,-0.186011,-0.66677,-0.292279,-0.463896,0.344353
26,60,-1.0472,-0.698132,-0.174533,-0.174533,-1.04386,-0.692912,-0.15907,-0.186011,-0.66677,-0.292279,-0.463896,0.344353
26,60,-1.0472,-0.698132,-0.174533,-0.174533,-1.04386,-0.692912,-0.15907,-0.186011,-0.66677,-0.292279,-0.463896,0.344353
26,60,-1.0472,-0.698132,-0.174533,-0.174533,-1.04386,-0.692912,-0.15907,-0.186011,-0.66677,-0.292279,-0.463896,0.344353
26,60,-1.0472,-0.698132,-0.174533,-0.174533,-1.04386,-0.692912,-0.15907,-0.186011,-0.66677,-0.292279,-0.463896,0.344353
26,60,-1.0472,-0.698132,-0.174533,-0.174533,-1.04386,-0.692912,-0.15907,-0.186011,-0.66677,-0.292279,-0.463896,0.344353
26,60,-1.0472,-0.698132,-0.174533,-0.174533,-1.04386,-0.692912,-0.15907,-0.186011,-0.66677,-0.292279,-0.463896,0.344353
26,60,-1.0472,-0.698132,-0.174533,-0.174533,-1.04386,-0.692912,-0.15907,-0.186011,-0.66677,-0.292279,-0.463896,0.344353
26,60,-1.0472,-0.698132,-0.174533,-0.174533,-1.04386,-0.692912,-0.15907,-0.186011,-0.66677,-0.292279,-0.463896,0.344353
26,60,-1.0472,-0.698132,-0.174533,-0.174533,-1.04386,-0.692912,-0.15907,-0.186011,-0.66677,-0.292279,-0.463896,0.344353
26,60,-1.0472,-0.698132,-0.174533,-0.174533,-1.04386,-0.692912,-0.15907,-0.186011,-0.66677,-0.292279,-0.463896,0.344353
26,60,-1.0472,-0.698132,-0.174533,-0.174533,-1.04386,-0.692912,-0.15907,-0.186011,-0.66677,-0.292279,-0.463896,0.344353
26,60,-1.0472,-0.698132,-0.174533,-0.174533,-1.04386,-0.692912,-0.15907,-0.186011,-0.66677,-0.292279,-0.463896,0.344353
26,60,-1.0472,-0.698132,-0.174533,-0.174533,-1.04386,-0.692912,-0.15907,-0.186011,-0.66677,-0.292279,-0.463896,0.344353
26,60,-1.0472,-0.698132,-0.174533,-0.174533,-1.04386,-0.692912,-0.15907,-0.186011,-0.66677,-0.292279,-0.463896,0.344353
26,60,-1.0472,-0.698132,-0.174533,-0.174533,-1.04386,-0.692912,-0.15907,-0.186011,-0.66677,-0.292279,-0.463896,0.344353
26,60,-1.0472,-0.698132,-0.174533,-0.174533,-1.04386,-0.692912,-0.15907,-0.186011,-0.66677,-0.292279,-0.463896,0.344353
26,60,-1.0472,-0.698132,-0.174533,-0.174533,-1.04386,-0.692912,-0.15907,-0.186011,-0.66677,-0.292279,-0.463896,0.344353
26,60,-1.0472,-0.698132,-0.174533,-0.174533,-1.04386,-0.692912,-0.15907,-0.186011,-0.66677,-0.292279,-0.463896,0.344353
26,60,-1.0472,-0.698132,-0.174533,-0.174533,-1.04386,-0.692912,-0.15907,-0.186011,-0.66677,-0.292279,-0.463896,0.344353
26,60,-1.0472,-0.698132,-0.174533,-0.174533,-1.04386,-0.692912,-0.15907,-0.186011,-0.66677,-0.292279,-0.463896,0.344353
26,60,-1.0472,-0.698132,-0.174533,-0.174533,-1.04386,-0.692912,-0.15907,-0.186011,-0.66677,-0.292279,-0.463896,0.344353
26,60,-1.0472,-0.698132,-0.174533,-0.174533,-1.04386,-0.692912,-0.15907,-0.186011,-0.66677,-0.292279,-0.463896,0.344353
26,60,-1.0472,-0.698132,-0.174533,-0.174533,-1.04386,-0.692912,-0.15907,-0.186011,-0.66677,-0.292279,-0.463896,0.344353
26,60,-1.0472,-0.698132,-0.174533,-0.174533,-1.04386,-0.692912,-0.15907,-0.186011,-0.66677,-0.292279,-0.463896,0.344353
26,60,-1.0472,-0.698132,-0.174533,-0.174533,-1.04386,-0.692912,-0.15907,-0.186011,-0.66677,-0.292279,-0.463896,0.344353
26,60,-1.0472,-0.698132,-0.174533,-0.174533,-1.04386,-0.692912,-0.15907,-0.186011,-0.66677,-0.292279,-0.463896,0.344353
26,60,-1.0472,-0.698132,-0.174533,-0.174533,-1.04386,-0.692912,-0.15907,-0.186011,-0.66677,-0.292279,-0.463896,0.344353
26,60,-1.0472,-0.698132,-0.174533,-0.174533,-1.04386,-0.692912,-0.15907,-0.186011,-0.66677,-0.292279,-0.463896,0.344353
26,60,-1.0472,-0.698132,-0.174533,-0.174533,-1.04386,-0.692912,-0.15907,-0.186011,-0.66677,-0.292279,-0.463896,0.344353
26,60,-1.0472,-0.698132,-0.174533,-0.174533,-1.04386,-0.692912,-0.15907,-0.186011,-0.66677,-0.292279,-0.463896,0.344353
26,60,-1.0472,-0.698132,-0.174533,-0.174533,-1.04386,-0.692912,-0.15907,-0.186011,-0.66677,-0.292279,-0.463896,0.344353
26,60,-1.0472,-0.698132,-0.174533,-0.174533,-1.04386,-0.692912,-0.15907,-0.186011,-0.66677,-0.292279,-0.463896,0.344353
26,60,-1.0472,-0.698132,-0.174533,-0.174533,-1.04386,-0.692912,-0.15907,-0.186011,-0.66677,-0.292279,-0.463896,0.344353
26,60,-1.0472,-0.698132,-0.174533,-0.174533,-1.04386,-0.692912,-0.15907,-0.186011,-0.66677,-0.292279,-0.463896,0.344353
26,60,-1.0472,-0.698132,-0.174533,-0.174533,-1.04386,-0.692912,-0.15907,-0.186011,-0.66677,-0.292279,-0.463896,0.344353
26,60,-1.0472,-0.698132,-0.174533,-0.174533,-1.04386,-0.692912,-0.15907,-0.186011,-0.66677,-0.292279,-0.463896,0.344353
26,60,-1.0472,-0.698132,-0.174533,-0.174533,-1.04386,-0.692912,-0.15907,-0.186011,-0.66677,-0.292279,-0.463896,0.344353
26,60,-1.0472,-0.698132,-0.174533,-0.174533,-1.04386,-0.692912,-0.15907,-0.186011,-0.66677,-0.292279,-0.463896,0.344353
26,60,-1.0472,-0.698132,-0.174533,-0.174533,-1.04386,-0.692912,-0.15907,-0.186011,-0.66677,-0.292279,-0.463896,0.344353
26,60,-1.0472,-0.698132,-0.174533,-0.174533,-1.04386,-0.692912,-0.15907,-0.186011,-0.66677,-0.292279,-0.463896,0.344353
26,60,-1.0472,-0.698132,-0.174533,-0.174533,-1.04386,-0.692912,-0.15907,-0.186011,-0.66677,-0.292279,-0.463896,0.344353
26,60,-1.0472,-0.698132,-0.174533,-0.174533,-1.04386,-0.692912,-0.15907,-0.186011,-0.66677,-0.292279,-0.463896,0.344353
26,60,-1.0472,-0.698132,-0.174533,-0.174533,-1.04386,-0.692912,-0.15907,-0.186011,-0.66677,-0.292279,-0.463896,0.344353
26,60,-1.0472,-0.698132,-0.174533,-0.174533,-1.04386,-0.692912,-0.15907,-0.186011,-0.66677,-0.292279,-0.463896,0.344353
26,60,-1.0472,-0.698132,-0.174533,-0.174533,-1.04386,-0.692912,-0.15907,-0.186011,-0.66677,-0.292279,-0.463896,0.344353
26,60,-1.0472,-0.698132,-0.174533,-0.174533,-1.04386,-0.692912,-0.15907,-0.186011,-0.66677,-0.292279,-0.463896,0.344353
26,60,-1.0472,-0.698132,-0.174533,-0.174533,-1.04386,-0.692912,-0.15907,-0.186011,-0.66677,-0.292279,-0.463896,0.344353
26,60,-1.0472,-0.698132,-0.174533,-0.174533,-1.04386,-0.692912,-0.15907,-0.186011,-0.66677,-0.292279,-0.463896,0.344353
26,60,-1.0472,-0.698132,-0.174533,-0.174533,-1.04386,-0.692912,-0.15907,-0.186011,-0.66677,-0.292279,-0.463896,0.344353
26,60,-1.0472,-0.698132,-0.174533,-0.174533,-1.04386,-0.692912,-0.15907,-0.186011,-0.66677,-0.292279,-0.463896,0.344353
26,60,-1.0472,-0.698132,-0.174533,-0.174533,-1.04386,-0.692912,-0.15907,-0.186011,-0.66677,-0.292279,-0.463896,0.344353
26,60,-1.0472,-0.698132,-0.174533,-0.174533,-1.04386,-0.692912,-0.15907,-0.186011,-0.66677,-0.292279,-0.463896,0.344353
26,60,-1.0472,-0.698132,-0.174533,-0.174533,-1.04386,-0.692912,-0.15907,-0.186011,-0.66677,-0.292279,-0.463896,0.344353
26,60,-1.0472,-0.698132,-0.174533,-0.174533,-1.04386,-0.692912,-0.15907,-0.186011,-0.66677,-0.292279,-0.463896,0.344353
26,60,-1.0472,-0.698132,-0.174533,-0.174533,-1.04386,-0.692912,-0.15907,-0.186011,-0.66677,-0.292279,-0.463896,0.344353
26,60,-1.0472,-0.698132,-0.174533,-0.174533,-1.04386,-0.692912,-0.15907,-0.186011,-0.66677,-0.292279,-0.463896,0.344353
26,60,-1.0472,-0.698132,-0.174533,-0.174533,-1.04386,-0.692912,-0.15907,-0.186011,-0.66677,-0.292279,-0.463896,0.344353
26,60,-1.0472,-0.698132,-0.174533,-0.174533,-1.04386,-0.692912,-0.15907,-0.186011,-0.66677,-0.292279,-0.463896,0.344353
26,60,-1.0472,-0.698132,-0.174533,-0.174533,-1.04386,-0.692912,-0.15907,-0.186011,-0.66677,-0.292279,-0.463896,0.344353
26,60,-1.0472,-0.698132,-0.174533,-0.174533,-1.04386,-0.692912,-0.15907,-0.186011,-0.66677,-0.292279,-0.463896,0.344353
26,60,-1.0472,-0.698132,-0.174533,-0.174533,-1.04386,-0.692912,-0.15907,-0.186011,-0.66677,-0.292279,-0.463896,0.344353
26,60,-1.0472,-0.698132,-0.174533,-0.174533,-1.04386,-0.692912,-0.15907,-0.186011,-0.66677,-0.292279,-0.463896,0.344353
26,60,-1.0472,-0.698132,-0.174533,-0.174533,-1.04386,-0.692912,-0.15907,-0.186011,-0.66677,-0.292279,-0.463896,0.344353
26,60,-1.0472,-0.698132,-0.174533,-0.174533,-1.04386,-0.692912,-0.15907,-0.186011,-0.66677,-0.292279,-0.463896,0.344353
26,60,-1.0472,-0.698132,-0.174533,-0.174533,-1.04386,-0.692912,-0.15907,-0.186011,-0.66677,-0.292279,-0.463896,0.344353
26,60,-1.0472,-0.698132,-0.174533,-0.174533,-1.04386,-0.692912,-0.15907,-0.186011,-0.66677,-0.292279,-0.463896,0.344353
26,60,-1.0472,-0.698132,-0.174533,-0.174533,-1.04386,-0.692912,-0.15907,-0.186011,-0.66677,-0.292279,-0.463896,0.344353
26,60,-1.0472,-0.698132,-0.174533,-0.174533,-1.04386,-0.692912,-0.15907,-0.186011,-0.66677,-0.292279,-0.463896,0.344353
26,60,-1.0472,-0.698132,-0.174533,-0.174533,-1.04386,-0.692912,-0.15907,-0.186011,-0.66677,-0.292279,-0.463896,0.344353
26,60,-1.0472,-0.698132,-0.174533,-0.174533,-1.04386,-0.692912,-0.15907,-0.186011,-0.66677,-0.292279,-0.463896,0.344353
26,60,-1.0472,-0.698132,-0.174533,-0.174533,-1.04386,-0.692912,-0.15907,-0.186011,-0.66677,-0.292279,-0.463896,0.344353
26,60,-1.0472,-0.698132,-0.174533,-0.174533,-1.04386,-0.692912,-0.15907,-0.186011,-0.66677,-0.292279,-0.463896,0.344353
26,60,-1.0472,-0.698132,-0.174533,-0.174533,-1.04386,-0.692912,-0.15907,-0.186011,-0.66677,-0.292279,-0.463896,0.344353
26,60,-1.0472,-0.698132,-0.174533,-0.174533,-1.04386,-0.692912,-0.15907,-0.186011,-0.66677,-0.292279,-0.463896,0.344353
26,60,-1.0472,-0.698132,-0.174533,-0.174533,-1.04386,-0.692912,-0.15907,-0.186011,-0.66677,-0.292279,-0.463896,0.344353
26,60,-1.0472,-0.698132,-0.174533,-0.174533,-1.04386,-0.692912,-0.15907,-0.186011,-0.66677,-0.292279,-0.463896,0.344353
26,60,-1.0472,-0.698132,-0.174533,-0.174533,-1.04386,-0.692912,-0.15907,-0.186011,-0.66677,-0.292279,-0.463896,0.344353
26,60,-1.0472,-0.698132,-0.174533,-0.174533,-1.04386,-0.692912,-0.15907,-0.186011,-0.66677,-0.292279,-0.463896,0.344353
26,60,-1.0472,-0.698132,-0.174533,-0.174533,-1.04386,-0.692912,-0.15907,-0.186011,-0.66677,-0.292279,-0.463896,0.344353
26,60,-1.0472,-0.698132,-0.174533,-0.174533,-1.04386,-0.692912,-0.15907,-0.186011,-0.66677,-0.292279,-0.463896,0.344353
26,60,-1.0472,-0.698132,-0.174533,-0.174533,-1.04386,-0.692912,-0.15907,-0.186011,-0.66677,-0.292279,-0.463896,0.344353
26,60,-1.0472,-0.698132,-0.174533,-0.174533,-1.04386,-0.692912,-0.15907,-0.186011,-0.66677,-0.292279,-0.463896,0.344353
26,60,-1.0472,-0.698132,-0.174533,-0.174533,-1.04386,-0.692912,-0.15907,-0.186011,-0.66677,-0.292279,-0.463896,0.344353
26,60,-1.0472,-0.698132,-0.174533,-0.174533,-1.04386,-0.692912,-0.15907,-0.186011,-0.66677,-0.292279,-0.463896,0.344353
26,60,-1.0472,-0.698132,-0.174533,-0.174533,-1.04386,-0.692912,-0.15907,-0.186011,-0.66677,-0.292279,-0.463896,0.344353
26,60,-1.0472,-0.698132,-0.174533,-0.174533,-1.04386,-0.692912,-0.15907,-0.186011,-0.66677,-0.292279,-0.463896,0.344353
26,60,-1.0472,-0.698132,-0.174533,-0.174533,-1.04386,-0.692912,-0.15907,-0.186011,-0.66677,-0.292279,-0.463896,0.344353
26,60,-1.0472,-0.698132,-0.174533,-0.174533,-1.04386,-0.692912,-0.15907,-0.186011,-0.66677,-0.292279,-0.463896,0.344353
26,60,-1.0472,-0.698132,-0.174533,-0.174533,-1.04386,-0.692912,-0.15907,-0.186011,-0.66677,-0.292279,-0.463896,0.344353
26,60,-1.0472,-0.698132,-0.174533,-0.174533,-1.04386,-0.692912,-0.15907,-0.186011,-0.66677,-0.292279,-0.463896,0.344353
26,60,-1.0472,-0.698132,-0.174533,-0.174533,-1.04386,-0.692912,-0.15907,-0.186011,-0.66677,-0.292279,-0.463896,0.344353
26,60,-1.0472,-0.698132,-0.174533,-0.174533,-1.04386,-0.692912,-0.15907,-0.186011,-0.66677,-0.292279,-0.463896,0.344353
26,60,-1.0472,-0.698132,-0.174533,-0.174533,-1.04386,-0.692912,-0.15907,-0.186011,-0.66677,-0.292279,-0.463896,0.344353
26,60,-1.0472,-0.698132,-0.174533,-0.174533,-1.04386,-0.692912,-0.15907,-0.186011,-0.66677,-0.292279,-0.463896,0.344353
26,60,-1.0472,-0.698132,-0.174533,-0.174533,-1.04386,-0.692912,-0.15907,-0.186011,-0.66677,-0.292279,-0.463896,0.344353
26,60,-1.0472,-0.698132,-0.174533,-0.174533,-1.04386,-0.692912,-0.15907,-0.186011,-0.66677,-0.292279,-0.463896,0.344353
26,60,-1.0472,-0.698132,-0.174533,-0.174533,-1.04386,-0.692912,-0.15907,-0.186011,-0.66677,-0.292279,-0.463896,0.344353
26,60,-1.0472,-0.698132,-0.174533,-0.174533,-1.04386,-0.692912,-0.15907,-0.186011,-0.66677,-0.292279,-0.463896,0.344353
26,60,-1.0472,-0.698132,-0.174533,-0.174533,-1.04386,-0.692912,-0.15907,-0.186011,-0.66677,-0.292279,-0.463896,0.344353
26,60,-1.0472,-0.698132,-0.174533,-0.174533,-1.04386,-0.692912,-0.15907,-0.186011,-0.66677,-0.292279,-0.463896,0.344353
26,60,-1.0472,-0.698132,-0.174533,-0.174533,-1.04386,-0.692912,-0.15907,-0.186011,-0.66677,-0.292279,-0.463896,0.344353
26,60,-1.0472,-0.698132,-0.174533,-0.174533,-1.04386,-0.692912,-0.15907,-0.186011,-0.66677,-0.292279,-0.463896,0.344347
26,60,-1.0472,-0.698132,-0.174533,-0.174533,-1.04386,-0.692912,-0.15907,-0.186011,-0.66677,-0.292279,-0.463896,0.344347
26,60,-1.0472,-0.698132,-0.174533,-0.174533,-1.04386,-0.692912,-0.15907,-0.186011,-0.66677,-0.292279,-0.463896,0.344347
26,60,-1.0472,-0.698132,-0.174533,-0.174533,-1.04386,-0.692912,-0.15907,-0.186011,-0.66677,-0.292279,-0.463896,0.344347
26,60,-1.0472,-0.698132,-0.174533,-0.174533,-1.04386,-0.692912,-0.15907,-0.186011,-0.66677,-0.292279,-0.463896,0.344347
26,60,-1.0472,-0.698132,-0.174533,-0.174533,-1.04386,-0.692912,-0.15907,-0.186011,-0.66677,-0.292279,-0.463896,0.344347
26,60,-1.0472,-0.698132,-0.174533,-0.174533,-1.04386,-0.692912,-0.15907,-0.186011,-0.66677,-0.292279,-0.463896,0.344347
26,60,-1.0472,-0.698132,-0.174533,-0.174533,-1.04386,-0.692912,-0.15907,-0.186011,-0.66677,-0.292279,-0.463896,0.344347
26,60,-1.0472,-0.698132,-0.174533,-0.174533,-1.04386,-0.692912,-0.15907,-0.186011,-0.66677,-0.292279,-0.463896,0.344347
26,60,-1.0472,-0.698132,-0.174533,-0.174533,-1.04386,-0.692912,-0.15907,-0.186011,-0.66677,-0.292279,-0.463896,0.344347
26,60,-1.0472,-0.698132,-0.174533,-0.174533,-1.04386,-0.692912,-0.15907,-0.186011,-0.66677,-0.292279,-0.463896,0.344347
26,60,-1.0472,-0.698132,-0.174533,-0.174533,-1.04386,-0.692912,-0.15907,-0.186011,-0.66677,-0.292279,-0.463896,0.344347
26,60,-1.0472,-0.698132,-0.174533,-0.174533,-1.04386,-0.692912,-0.15907,-0.186011,-0.66677,-0.292279,-0.463896,0.344347
26,60,-1.0472,-0.698132,-0.174533,-0.174533,-1.04386,-0.692912,-0.15907,-0.186011,-0.66677,-0.292279,-0.463896,0.344347
26,60,-1.0472,-0.698132,-0.174533,-0.174533,-1.04386,-0.692912,-0.15907,-0.186011,-0.66677,-0.292279,-0.463896,0.344347
26,60,-1.0472,-0.698132,-0.174533,-0.174533,-1.04386,-0.692912,-0.15907,-0.186011,-0.66677,-0.292279,-0.463896,0.344347
26,60,-1.0472,-0.698132,-0.174533,-0.174533,-1.04386,-0.692912,-0.15907,-0.186011,-0.66677,-0.292279,-0.463896,0.344347
26,60,-1.0472,-0.698132,-0.174533,-0.174533,-1.04386,-0.692912,-0.15907,-0.186011,-0.66677,-0.292279,-0.463896,0.344347
26,60,-1.0472,-0.698132,-0.174533,-0.174533,-1.04386,-0.692912,-0.15907,-0.186011,-0.66677,-0.292279,-0.463896,0.344347
26,60,-1.0472,-0.698132,-0.174533,-0.174533,-1.04386,-0.692912,-0.15907,-0.186011,-0.66677,-0.292279,-0.463896,0.344347
26,60,-1.0472,-0.698132,-0.174533,-0.174533,-1.04386,-0.692912,-0.15907,-0.186011,-0.66677,-0.292279,-0.463896,0.344347
26,60,-1.0472,-0.698132,-0.174533,-0.174533,-1.04386,-0.692912,-0.15907,-0.186011,-0.66677,-0.292279,-0.463896,0.344347
26,60,-1.0472,-0.698132,-0.174533,-0.174533,-1.04386,-0.692912,-0.15907,-0.186011,-0.66677,-0.292279,-0.463896,0.344347
26,60,-1.0472,-0.698132,-0.174533,-0.174533,-1.04386,-0.692912,-0.15907,-0.186011,-0.66677,-0.292279,-0.463896,0.344347
26,60,-1.0472,-0.698132,-0.174533,-0.174533,-1.04386,-0.692912,-0.15907,-0.186011,-0.66677,-0.292279,-0.463896,0.344347
26,60,-1.0472,-0.698132,-0.174533,-0.174533,-1.04386,-0.692912,-0.15907,-0.186011,-0.66677,-0.292279,-0.463896,0.344347
26,60,-1.0472,-0.698132,-0.174533,-0.174533,-1.04386,-0.692912,-0.15907,-0.186011,-0.66677,-0.292279,-0.463896,0.344347
26,60,-1.0472,-0.698132,-0.174533,-0.174533,-1.04386,-0.692912,-0.15907,-0.186011,-0.66677,-0.292279,-0.463896,0.344347
26,60,-1.0472,-0.698132,-0.174533,-0.174533,-1.04386,-0.692912,-0.15907,-0.186011,-0.66677,-0.292279,-0.463896,0.344347
26,60,-1.0472,-0.698132,-0.174533,-0.174533,-1.04386,-0.692912,-0.15907,-0.186011,-0.66677,-0.292279,-0.463896,0.344347
26,60,-1.0472,-0.698132,-0.174533,-0.174533,-1.04386,-0.692912,-0.15907,-0.186011,-0.66677,-0.292279,-0.463896,0.344347
26,60,-1.0472,-0.698132,-0.174533,-0.174533,-1.04386,-0.692912,-0.15907,-0.186011,-0.66677,-0.292279,-0.463896,0.344347
26,60,-1.0472,-0.698132,-0.174533,-0.174533,-1.04386,-0.692912,-0.15907,-0.186011,-0.66677,-0.292279,-0.463896,0.344347
26,60,-1.0472,-0.698132,-0.174533,-0.174533,-1.04386,-0.692912,-0.15907,-0.186011,-0.66677,-0.292279,-0.463896,0.344347
26,60,-1.0472,-0.698132,-0.174533,-0.174533,-1.04386,-0.692912,-0.15907,-0.186011,-0.66677,-0.292279,-0.463896,0.344347
26,60,-1.0472,-0.698132,-0.174533,-0.174533,-1.04386,-0.692912,-0.15907,-0.186011,-0.66677,-0.292279,-0.463896,0.344347
26,60,-1.0472,-0.698132,-0.174533,-0.174533,-1.04386,-0.692912,-0.15907,-0.186011,-0.66677,-0.292279,-0.463896,0.344347
26,60,-1.0472,-0.698132,-0.174533,-0.174533,-1.04386,-0.692912,-0.15907,-0.186011,-0.66677,-0.292279,-0.463896,0.344347
26,60,-1.0472,-0.698132,-0.174533,-0.174533,-1.04386,-0.692912,-0.15907,-0.186011,-0.66677,-0.292279,-0.463896,0.344347
26,60,-1.0472,-0.698132,-0.174533,-0.174533,-1.04386,-0.692912,-0.15907,-0.186011,-0.66677,-0.292279,-0.463896,0.344347
26,60,-1.0472,-0.698132,-0.174533,-0.174533,-1.04386,-0.692912,-0.15907,-0.186011,-0.66677,-0.292279,-0.463896,0.344347
26,60,-1.0472,-0.698132,-0.174533,-0.174533,-1.04386,-0.692912,-0.15907,-0.186011,-0.66677,-0.292279,-0.463896,0.344347
26,60,-1.0472,-0.698132,-0.174533,-0.174533,-1.04386,-0.692912,-0.15907,-0.186011,-0.66677,-0.292279,-0.463896,0.344347
26,60,-1.0472,-0.698132,-0.174533,-0.174533,-1.04386,-0.692912,-0.15907,-0.186011,-0.66677,-0.292279,-0.463896,0.344347
26,60,-1.0472,-0.698132,-0.174533,-0.174533,-1.04386,-0.692912,-0.15907,-0.186011,-0.66677,-0.292279,-0.463896,0.344347
26,60,-1.0472,-0.698132,-0.174533,-0.174533,-1.04386,-0.692912,-0.15907,-0.186011,-0.66677,-0.292279,-0.463896,0.344347
26,60,-1.0472,-0.698132,-0.174533,-0.174533,-1.04386,-0.692912,-0.15907,-0.186011,-0.66677,-0.292279,-0.463896,0.344347
26,60,-1.0472,-0.698132,-0.174533,-0.174533,-1.04386,-0.692912,-0.15907,-0.186011,-0.66677,-0.292279,-0.463896,0.344347
26,60,-1.0472,-0.698132,-0.174533,-0.174533,-1.04386,-0.692912,-0.15907,-0.186011,-0.66677,-0.292279,-0.463896,0.344347
26,60,-1.0472,-0.698132,-0.174533,-0.174533,-1.04386,-0.692912,-0.15907,-0.186011,-0.66677,-0.292279,-0.463896,0.344347
26,60,-1.0472,-0.698132,-0.174533,-0.174533,-1.04386,-0.692912,-0.15907,-0.186011,-0.66677,-0.292279,-0.463896,0.344347
26,60,-1.0472,-0.698132,-0.174533,-0.174533,-1.04386,-0.692912,-0.15907,-0.186011,-0.66677,-0.292279,-0.463896,0.344347
26,60,-1.0472,-0.698132,-0.174533,-0.174533,-1.04386,-0.692912,-0.15907,-0.186011,-0.66677,-0.292279,-0.463896,0.344347
26,60,-1.0472,-0.698132,-0.174533,-0.174533,-1.04386,-0.692912,-0.15907,-0.186011,-0.66677,-0.292279,-0.463896,0.344347
26,60,-1.0472,-0.698132,-0.174533,-0.174533,-1.04386,-0.692912,-0.15907,-0.186011,-0.66677,-0.292279,-0.463896,0.344347
26,60,-1.0472,-0.698132,-0.174533,-0.174533,-1.04386,-0.692912,-0.15907,-0.186011,-0.66677,-0.292279,-0.463896,0.344347
26,60,-1.0472,-0.698132,-0.174533,-0.174533,-1.04386,-0.692912,-0.15907,-0.186011,-0.66677,-0.292279,-0.463896,0.344347
26,60,-1.0472,-0.698132,-0.174533,-0.174533,-1.04386,-0.692912,-0.15907,-0.186011,-0.66677,-0.292279,-0.463896,0.344347
26,60,-1.0472,-0.698132,-0.174533,-0.174533,-1.04386,-0.692912,-0.15907,-0.186011,-0.66677,-0.292279,-0.463896,0.344347
26,60,-1.0472,-0.698132,-0.174533,-0.174533,-1.04386,-0.692912,-0.15907,-0.186011,-0.66677,-0.292279,-0.463896,0.344347
26,60,-1.0472,-0.698132,-0.174533,-0.174533,-1.04386,-0.692912,-0.15907,-0.186011,-0.66677,-0.292279,-0.463896,0.344347
26,60,-1.0472,-0.698132,-0.174533,-0.174533,-1.04386,-0.692912,-0.15907,-0.186011,-0.66677,-0.292279,-0.463896,0.344347
26,60,-1.0472,-0.698132,-0.174533,-0.174533,-1.04386,-0.692912,-0.15907,-0.186011,-0.66677,-0.292279,-0.463896,0.344347
26,60,-1.0472,-0.698132,-0.174533,-0.174533,-1.04386,-0.692912,-0.15907,-0.186011,-0.66677,-0.292279,-0.463896,0.344347
26,60,-1.0472,-0.698132,-0.174533,-0.174533,-1.04386,-0.692912,-0.15907,-0.186011,-0.66677,-0.292279,-0.463896,0.344347
26,60,-1.0472,-0.698132,-0.174533,-0.174533,-1.04386,-0.692912,-0.15907,-0.186011,-0.66677,-0.292279,-0.463896,0.344347
26,60,-1.0472,-0.698132,-0.174533,-0.174533,-1.04386,-0.692912,-0.15907,-0.186011,-0.66677,-0.292279,-0.463896,0.344347
26,60,-1.0472,-0.698132,-0.174533,-0.174533,-1.04386,-0.692912,-0.15907,-0.186011,-0.66677,-0.292279,-0.463896,0.344347
26,60,-1.0472,-0.698132,-0.174533,-0.174533,-1.04386,-0.692912,-0.15907,-0.186011,-0.66677,-0.292279,-0.463896,0.344347
26,60,-1.0472,-0.698132,-0.174533,-0.174533,-1.04386,-0.692912,-0.15907,-0.186011,-0.66677,-0.292279,-0.463896,0.344347
26,60,-1.0472,-0.698132,-0.174533,-0.174533,-1.04386,-0.692912,-0.15907,-0.186011,-0.66677,-0.292279,-0.463896,0.344347
26,60,-1.0472,-0.698132,-0.174533,-0.174533,-1.04386,-0.692912,-0.15907,-0.186011,-0.66677,-0.292279,-0.463896,0.344347
26,60,-1.0472,-0.698132,-0.174533,-0.174533,-1.04386,-0.692912,-0.15907,-0.186011,-0.66677,-0.292279,-0.463896,0.344347
26,60,-1.0472,-0.698132,-0.174533,-0.174533,-1.04386,-0.692912,-0.15907,-0.186011,-0.66677,-0.292279,-0.463896,0.344347
