stim_pw [us],stim_amp [mA],com_elbow_fe [rad],com_forearm_ps [rad],com_wrist_fe [rad],com_wrist_ru [rad],act_elbow_fe [rad],act_forearm_ps [rad],act_wrist_fe [rad],act_wrist_ru [rad],elbow_fe_trq [Nm],forearm_ps_trq [Nm],wrist_fe_trq [Nm],wrist_ru_trq [Nm]
26,60,-1.0472,-0.698132,-0.174533,-0.174533,-1.04365,-0.692658,-0.160831,-0.186507,-0.709722,-0.306515,-0.41106,0.359223
26,60,-1.0472,-0.698132,-0.174533,-0.174533,-1.04365,-0.692658,-0.160831,-0.186507,-0.709722,-0.306515,-0.41106,0.359223
26,60,-1.0472,-0.698132,-0.174533,-0.174533,-1.04365,-0.692658,-0.160831,-0.186507,-0.709722,-0.306515,-0.41106,0.359223
26,60,-1.0472,-0.698132,-0.174533,-0.174533,-1.04365,-0.692658,-0.160831,-0.186507,-0.709722,-0.306515,-0.41106,0.359223
26,60,-1.0472,-0.698132,-0.174533,-0.174533,-1.04365,-0.692658,-0.160831,-0.186507,-0.709722,-0.306515,-0.41106,0.359223
26,60,-1.0472,-0.698132,-0.174533,-0.174533,-1.04365,-0.692658,-0.160831,-0.186507,-0.709722,-0.306515,-0.41106,0.359223
26,60,-1.0472,-0.698132,-0.174533,-0.174533,-1.04365,-0.692658,-0.160831,-0.186507,-0.709722,-0.306515,-0.41106,0.359223
26,60,-1.0472,-0.698132,-0.174533,-0.174533,-1.04365,-0.692658,-0.160831,-0.186507,-0.709722,-0.306515,-0.41106,0.359223
26,60,-1.0472,-0.698132,-0.174533,-0.174533,-1.04365,-0.692658,-0.160831,-0.186507,-0.709722,-0.306515,-0.41106,0.359223
26,60,-1.0472,-0.698132,-0.174533,-0.174533,-1.04365,-0.692658,-0.160831,-0.186507,-0.709722,-0.306515,-0.41106,0.359223
26,60,-1.0472,-0.698132,-0.174533,-0.174533,-1.04365,-0.692658,-0.160831,-0.186507,-0.709722,-0.306515,-0.41106,0.359223
26,60,-1.0472,-0.698132,-0.174533,-0.174533,-1.04365,-0.692658,-0.160831,-0.186507,-0.709722,-0.306515,-0.41106,0.359223
26,60,-1.0472,-0.698132,-0.174533,-0.174533,-1.04365,-0.692658,-0.160831,-0.186507,-0.709722,-0.306515,-0.41106,0.359223
26,60,-1.0472,-0.698132,-0.174533,-0.174533,-1.04365,-0.692658,-0.160831,-0.186507,-0.709722,-0.306515,-0.41106,0.359223
26,60,-1.0472,-0.698132,-0.174533,-0.174533,-1.04365,-0.692658,-0.160831,-0.186507,-0.709722,-0.306515,-0.41106,0.359223
26,60,-1.0472,-0.698132,-0.174533,-0.174533,-1.04365,-0.692658,-0.160831,-0.186507,-0.709722,-0.306515,-0.41106,0.359223
26,60,-1.0472,-0.698132,-0.174533,-0.174533,-1.04365,-0.692658,-0.160831,-0.186507,-0.709722,-0.306515,-0.41106,0.359223
26,60,-1.0472,-0.698132,-0.174533,-0.174533,-1.04365,-0.692658,-0.160831,-0.186507,-0.709722,-0.306515,-0.41106,0.359223
26,60,-1.0472,-0.698132,-0.174533,-0.174533,-1.04365,-0.692658,-0.160831,-0.186507,-0.709722,-0.306515,-0.41106,0.359223
26,60,-1.0472,-0.698132,-0.174533,-0.174533,-1.04365,-0.692658,-0.160831,-0.186507,-0.709722,-0.306515,-0.41106,0.359223
26,60,-1.0472,-0.698132,-0.174533,-0.174533,-1.04365,-0.692658,-0.160831,-0.186507,-0.709722,-0.306515,-0.41106,0.359223
26,60,-1.0472,-0.698132,-0.174533,-0.174533,-1.04365,-0.692658,-0.160831,-0.186507,-0.709722,-0.306515,-0.41106,0.359223
26,60,-1.0472,-0.698132,-0.174533,-0.174533,-1.04365,-0.692658,-0.160831,-0.186507,-0.709722,-0.306515,-0.41106,0.359223
26,60,-1.0472,-0.698132,-0.174533,-0.174533,-1.04365,-0.692658,-0.160831,-0.186507,-0.709722,-0.306515,-0.41106,0.359223
26,60,-1.0472,-0.698132,-0.174533,-0.174533,-1.04365,-0.692658,-0.160831,-0.186507,-0.709722,-0.306515,-0.41106,0.359223
26,60,-1.0472,-0.698132,-0.174533,-0.174533,-1.04365,-0.692658,-0.160831,-0.186507,-0.709722,-0.306515,-0.41106,0.359223
26,60,-1.0472,-0.698132,-0.174533,-0.174533,-1.04365,-0.692658,-0.160831,-0.186507,-0.709722,-0.306515,-0.41106,0.359223
26,60,-1.0472,-0.698132,-0.174533,-0.174533,-1.04365,-0.692658,-0.160834,-0.186566,-0.709722,-0.306515,-0.410982,0.361007
26,60,-1.0472,-0.698132,-0.174533,-0.174533,-1.04365,-0.692658,-0.160834,-0.186566,-0.709722,-0.306515,-0.410982,0.361007
26,60,-1.0472,-0.698132,-0.174533,-0.174533,-1.04365,-0.692658,-0.160834,-0.186566,-0.709722,-0.306515,-0.410982,0.361007
26,60,-1.0472,-0.698132,-0.174533,-0.174533,-1.04365,-0.692658,-0.160834,-0.186566,-0.709722,-0.306515,-0.410982,0.361007
26,60,-1.0472,-0.698132,-0.174533,-0.174533,-1.04365,-0.692658,-0.160834,-0.186566,-0.709722,-0.306515,-0.410982,0.361007
26,60,-1.0472,-0.698132,-0.174533,-0.174533,-1.04365,-0.692658,-0.160834,-0.186566,-0.709722,-0.306515,-0.410982,0.361007
26,60,-1.0472,-0.698132,-0.174533,-0.174533,-1.04365,-0.692658,-0.160834,-0.186566,-0.709722,-0.306515,-0.410982,0.361007
26,60,-1.0472,-0.698132,-0.174533,-0.174533,-1.04365,-0.692658,-0.160834,-0.186566,-0.709722,-0.306515,-0.410982,0.361007
26,60,-1.0472,-0.698132,-0.174533,-0.174533,-1.04365,-0.692658,-0.160834,-0.186566,-0.709722,-0.306515,-0.410982,0.361007
26,60,-1.0472,-0.698132,-0.174533,-0.174533,-1.04365,-0.692658,-0.160834,-0.186566,-0.709722,-0.306515,-0.410982,0.361007
26,60,-1.0472,-0.698132,-0.174533,-0.174533,-1.04365,-0.692658,-0.160834,-0.186566,-0.709722,-0.306515,-0.410982,0.361007
26,60,-1.0472,-0.698132,-0.174533,-0.174533,-1.04365,-0.692658,-0.160834,-0.186566,-0.709722,-0.306515,-0.410982,0.361007
26,60,-1.0472,-0.698132,-0.174533,-0.174533,-1.04365,-0.692658,-0.160834,-0.186566,-0.709722,-0.306515,-0.410982,0.361007
26,60,-1.0472,-0.698132,-0.174533,-0.174533,-1.04365,-0.692658,-0.160834,-0.186566,-0.709722,-0.306515,-0.410982,0.361007
26,60,-1.0472,-0.698132,-0.174533,-0.174533,-1.04365,-0.692658,-0.160834,-0.186566,-0.709722,-0.306515,-0.410982,0.361007
26,60,-1.0472,-0.698132,-0.174533,-0.174533,-1.04365,-0.692658,-0.160834,-0.186566,-0.709722,-0.306515,-0.410982,0.361007
26,60,-1.0472,-0.698132,-0.174533,-0.174533,-1.04365,-0.692658,-0.160834,-0.186566,-0.709722,-0.306515,-0.410982,0.361007
26,60,-1.0472,-0.698132,-0.174533,-0.174533,-1.04365,-0.692658,-0.160834,-0.186566,-0.709722,-0.306515,-0.410982,0.361007
26,60,-1.0472,-0.698132,-0.174533,-0.174533,-1.04365,-0.692658,-0.160834,-0.186566,-0.709722,-0.306515,-0.410982,0.361007
26,60,-1.0472,-0.698132,-0.174533,-0.174533,-1.04365,-0.692658,-0.160834,-0.186566,-0.709722,-0.306515,-0.410982,0.361007
26,60,-1.0472,-0.698132,-0.174533,-0.174533,-1.04365,-0.692658,-0.160834,-0.186566,-0.709722,-0.306515,-0.410982,0.361007
26,60,-1.0472,-0.698132,-0.174533,-0.174533,-1.04365,-0.692658,-0.160834,-0.186566,-0.709722,-0.306515,-0.410982,0.361007
26,60,-1.0472,-0.698132,-0.174533,-0.174533,-1.04365,-0.692658,-0.160834,-0.186566,-0.709722,-0.306515,-0.410982,0.361007
26,60,-1.0472,-0.698132,-0.174533,-0.174533,-1.04365,-0.692658,-0.160834,-0.186566,-0.709722,-0.306515,-0.410982,0.361007
26,60,-1.0472,-0.698132,-0.174533,-0.174533,-1.04365,-0.692658,-0.160834,-0.186566,-0.709722,-0.306515,-0.410982,0.361007
26,60,-1.0472,-0.698132,-0.174533,-0.174533,-1.04365,-0.692658,-0.160834,-0.186566,-0.709722,-0.306515,-0.410982,0.361007
26,60,-1.0472,-0.698132,-0.174533,-0.174533,-1.04365,-0.692658,-0.160834,-0.186566,-0.709722,-0.306515,-0.410982,0.361007
26,60,-1.0472,-0.698132,-0.174533,-0.174533,-1.04365,-0.692658,-0.160834,-0.186566,-0.709722,-0.306515,-0.410982,0.361007
26,60,-1.0472,-0.698132,-0.174533,-0.174533,-1.04365,-0.692658,-0.160834,-0.186566,-0.709722,-0.306515,-0.410982,0.361007
26,60,-1.0472,-0.698132,-0.174533,-0.174533,-1.04365,-0.692658,-0.160834,-0.186566,-0.709722,-0.306515,-0.410982,0.361007
26,60,-1.0472,-0.698132,-0.174533,-0.174533,-1.04365,-0.692658,-0.160834,-0.186566,-0.709722,-0.306515,-0.410982,0.361007
26,60,-1.0472,-0.698132,-0.174533,-0.174533,-1.04365,-0.692658,-0.160834,-0.186566,-0.709722,-0.306515,-0.410982,0.361007
26,60,-1.0472,-0.698132,-0.174533,-0.174533,-1.04365,-0.692658,-0.160834,-0.186566,-0.709722,-0.306515,-0.410982,0.361007
26,60,-1.0472,-0.698132,-0.174533,-0.174533,-1.04365,-0.692658,-0.160834,-0.186566,-0.709722,-0.306515,-0.410982,0.361007
26,60,-1.0472,-0.698132,-0.174533,-0.174533,-1.04365,-0.692658,-0.160834,-0.186566,-0.709722,-0.306515,-0.410982,0.361007
26,60,-1.0472,-0.698132,-0.174533,-0.174533,-1.04365,-0.692658,-0.160834,-0.186566,-0.709722,-0.306515,-0.410982,0.361007
26,60,-1.0472,-0.698132,-0.174533,-0.174533,-1.04365,-0.692658,-0.160834,-0.186566,-0.709722,-0.306515,-0.410982,0.361007
26,60,-1.0472,-0.698132,-0.174533,-0.174533,-1.04365,-0.692658,-0.160834,-0.186566,-0.709722,-0.306515,-0.410982,0.361007
26,60,-1.0472,-0.698132,-0.174533,-0.174533,-1.04365,-0.692658,-0.160834,-0.186566,-0.709722,-0.306515,-0.410982,0.361007
26,60,-1.0472,-0.698132,-0.174533,-0.174533,-1.04365,-0.692658,-0.160834,-0.186566,-0.709722,-0.306515,-0.410982,0.361007
26,60,-1.0472,-0.698132,-0.174533,-0.174533,-1.04365,-0.692658,-0.160834,-0.186566,-0.709722,-0.306515,-0.410982,0.361007
26,60,-1.0472,-0.698132,-0.174533,-0.174533,-1.04365,-0.692658,-0.160834,-0.186566,-0.709722,-0.306515,-0.410982,0.361007
26,60,-1.0472,-0.698132,-0.174533,-0.174533,-1.04365,-0.692658,-0.160834,-0.186566,-0.709722,-0.306515,-0.410982,0.361007
26,60,-1.0472,-0.698132,-0.174533,-0.174533,-1.04365,-0.692658,-0.160834,-0.186566,-0.709722,-0.306515,-0.410982,0.361007
26,60,-1.0472,-0.698132,-0.174533,-0.174533,-1.04365,-0.692658,-0.160834,-0.186566,-0.709722,-0.306515,-0.410982,0.361007
26,60,-1.0472,-0.698132,-0.174533,-0.174533,-1.04365,-0.692658,-0.160834,-0.186566,-0.709722,-0.306515,-0.410982,0.361007
26,60,-1.0472,-0.698132,-0.174533,-0.174533,-1.04365,-0.692658,-0.160834,-0.186566,-0.709722,-0.306515,-0.410982,0.361007
26,60,-1.0472,-0.698132,-0.174533,-0.174533,-1.04365,-0.692658,-0.160834,-0.186566,-0.709722,-0.306515,-0.410982,0.361007
26,60,-1.0472,-0.698132,-0.174533,-0.174533,-1.04365,-0.692658,-0.160834,-0.186566,-0.709722,-0.306515,-0.410982,0.361007
26,60,-1.0472,-0.698132,-0.174533,-0.174533,-1.04365,-0.692658,-0.160834,-0.186566,-0.709722,-0.306515,-0.410982,0.361007
26,60,-1.0472,-0.698132,-0.174533,-0.174533,-1.04365,-0.692709,-0.160834,-0.186566,-0.709722,-0.303409,-0.410982,0.361007
26,60,-1.0472,-0.698132,-0.174533,-0.174533,-1.04365,-0.692709,-0.160834,-0.186566,-0.709722,-0.303409,-0.410982,0.361007
26,60,-1.0472,-0.698132,-0.174533,-0.174533,-1.04365,-0.692709,-0.160834,-0.186566,-0.709722,-0.303409,-0.410982,0.361007
26,60,-1.0472,-0.698132,-0.174533,-0.174533,-1.04365,-0.692709,-0.160834,-0.186566,-0.709722,-0.303409,-0.410982,0.361007
26,60,-1.0472,-0.698132,-0.174533,-0.174533,-1.04365,-0.692709,-0.160834,-0.186566,-0.709722,-0.303409,-0.410982,0.361007
26,60,-1.0472,-0.698132,-0.174533,-0.174533,-1.04365,-0.692709,-0.160834,-0.186566,-0.709722,-0.303409,-0.410982,0.361007
26,60,-1.0472,-0.698132,-0.174533,-0.174533,-1.04365,-0.692709,-0.160834,-0.186566,-0.709722,-0.303409,-0.410982,0.361007
26,60,-1.0472,-0.698132,-0.174533,-0.174533,-1.04365,-0.692709,-0.160834,-0.186566,-0.709722,-0.303409,-0.410982,0.361007
26,60,-1.0472,-0.698132,-0.174533,-0.174533,-1.04365,-0.692709,-0.160834,-0.186566,-0.709722,-0.303409,-0.410982,0.361007
26,60,-1.0472,-0.698132,-0.174533,-0.174533,-1.04365,-0.692709,-0.160834,-0.186566,-0.709722,-0.303409,-0.410982,0.361007
26,60,-1.0472,-0.698132,-0.174533,-0.174533,-1.04365,-0.692709,-0.160834,-0.186566,-0.709722,-0.303409,-0.410982,0.361007
26,60,-1.0472,-0.698132,-0.174533,-0.174533,-1.04365,-0.692709,-0.160834,-0.186566,-0.709722,-0.303409,-0.410982,0.361007
26,60,-1.0472,-0.698132,-0.174533,-0.174533,-1.04365,-0.692709,-0.160834,-0.186566,-0.709722,-0.303409,-0.410982,0.361007
26,60,-1.0472,-0.698132,-0.174533,-0.174533,-1.04365,-0.692709,-0.160834,-0.186566,-0.709722,-0.303409,-0.410982,0.361007
26,60,-1.0472,-0.698132,-0.174533,-0.174533,-1.04365,-0.692709,-0.160834,-0.186566,-0.709722,-0.303409,-0.410982,0.361007
26,60,-1.0472,-0.698132,-0.174533,-0.174533,-1.04365,-0.692709,-0.160834,-0.186566,-0.709722,-0.303409,-0.410982,0.361007
26,60,-1.0472,-0.698132,-0.174533,-0.174533,-1.04365,-0.692709,-0.160834,-0.186566,-0.709722,-0.303409,-0.410982,0.361007
26,60,-1.0472,-0.698132,-0.174533,-0.174533,-1.04365,-0.692709,-0.160834,-0.186566,-0.709722,-0.303409,-0.410982,0.361007
26,60,-1.0472,-0.698132,-0.174533,-0.174533,-1.04365,-0.692709,-0.160834,-0.186566,-0.709722,-0.303409,-0.410982,0.361007
26,60,-1.0472,-0.698132,-0.174533,-0.174533,-1.04365,-0.692709,-0.160834,-0.186566,-0.709722,-0.303409,-0.410982,0.361007
26,60,-1.0472,-0.698132,-0.174533,-0.174533,-1.04365,-0.692709,-0.160834,-0.186566,-0.709722,-0.303409,-0.410982,0.361007
26,60,-1.0472,-0.698132,-0.174533,-0.174533,-1.04365,-0.692709,-0.160834,-0.186566,-0.709722,-0.303409,-0.410982,0.361007
26,60,-1.0472,-0.698132,-0.174533,-0.174533,-1.04365,-0.692709,-0.160834,-0.186566,-0.709722,-0.303409,-0.410982,0.361007
26,60,-1.0472,-0.698132,-0.174533,-0.174533,-1.04365,-0.692709,-0.160834,-0.186566,-0.709722,-0.303409,-0.410982,0.361007
26,60,-1.0472,-0.698132,-0.174533,-0.174533,-1.04365,-0.692709,-0.160834,-0.186566,-0.709722,-0.303409,-0.410982,0.361007
26,60,-1.0472,-0.698132,-0.174533,-0.174533,-1.04365,-0.692709,-0.160834,-0.186566,-0.709722,-0.303409,-0.410982,0.361007
26,60,-1.0472,-0.698132,-0.174533,-0.174533,-1.04365,-0.692709,-0.160834,-0.186566,-0.709722,-0.303409,-0.410982,0.361007
26,60,-1.0472,-0.698132,-0.174533,-0.174533,-1.04365,-0.692709,-0.160834,-0.186566,-0.709722,-0.303409,-0.410982,0.361007
26,60,-1.0472,-0.698132,-0.174533,-0.174533,-1.04365,-0.692709,-0.160834,-0.186566,-0.709722,-0.303409,-0.410982,0.361007
26,60,-1.0472,-0.698132,-0.174533,-0.174533,-1.04365,-0.692709,-0.160834,-0.186566,-0.709722,-0.303409,-0.410982,0.361007
26,60,-1.0472,-0.698132,-0.174533,-0.174533,-1.04365,-0.692709,-0.160834,-0.186566,-0.709722,-0.303409,-0.410982,0.361007
26,60,-1.0472,-0.698132,-0.174533,-0.174533,-1.04365,-0.692709,-0.160834,-0.186566,-0.709722,-0.303409,-0.410982,0.361007
26,60,-1.0472,-0.698132,-0.174533,-0.174533,-1.04365,-0.692709,-0.160834,-0.186566,-0.709722,-0.303409,-0.410982,0.361007
26,60,-1.0472,-0.698132,-0.174533,-0.174533,-1.04365,-0.692709,-0.160834,-0.186566,-0.709722,-0.303409,-0.410982,0.361007
26,60,-1.0472,-0.698132,-0.174533,-0.174533,-1.04365,-0.692709,-0.160834,-0.186566,-0.709722,-0.303409,-0.410982,0.361007
26,60,-1.0472,-0.698132,-0.174533,-0.174533,-1.04365,-0.692709,-0.160834,-0.186566,-0.709722,-0.303409,-0.410982,0.361007
26,60,-1.0472,-0.698132,-0.174533,-0.174533,-1.04365,-0.692709,-0.160834,-0.186566,-0.709722,-0.303409,-0.410982,0.361007
26,60,-1.0472,-0.698132,-0.174533,-0.174533,-1.04365,-0.692709,-0.160834,-0.186566,-0.709722,-0.303409,-0.410982,0.361007
26,60,-1.0472,-0.698132,-0.174533,-0.174533,-1.04365,-0.692709,-0.160834,-0.186566,-0.709722,-0.303409,-0.410982,0.361007
26,60,-1.0472,-0.698132,-0.174533,-0.174533,-1.04365,-0.692709,-0.160834,-0.186566,-0.709722,-0.303409,-0.410982,0.361007
26,60,-1.0472,-0.698132,-0.174533,-0.174533,-1.04365,-0.692709,-0.160834,-0.186566,-0.709722,-0.303409,-0.410982,0.361007
26,60,-1.0472,-0.698132,-0.174533,-0.174533,-1.04365,-0.692709,-0.160834,-0.186566,-0.709722,-0.303409,-0.410982,0.361007
26,60,-1.0472,-0.698132,-0.174533,-0.174533,-1.04365,-0.692709,-0.160834,-0.186566,-0.709722,-0.303409,-0.410982,0.361007
26,60,-1.0472,-0.698132,-0.174533,-0.174533,-1.04365,-0.692709,-0.160834,-0.186566,-0.709722,-0.303409,-0.410982,0.361007
26,60,-1.0472,-0.698132,-0.174533,-0.174533,-1.04365,-0.692709,-0.160834,-0.186566,-0.709722,-0.303409,-0.410982,0.361007
26,60,-1.0472,-0.698132,-0.174533,-0.174533,-1.04365,-0.692709,-0.160834,-0.186566,-0.709722,-0.303409,-0.410982,0.361007
26,60,-1.0472,-0.698132,-0.174533,-0.174533,-1.04365,-0.692709,-0.160834,-0.186566,-0.709722,-0.303409,-0.410982,0.361007
26,60,-1.0472,-0.698132,-0.174533,-0.174533,-1.04365,-0.692709,-0.160834,-0.186566,-0.709722,-0.303409,-0.410982,0.361007
26,60,-1.0472,-0.698132,-0.174533,-0.174533,-1.04365,-0.692709,-0.160834,-0.186566,-0.709722,-0.303409,-0.410982,0.361007
26,60,-1.0472,-0.698132,-0.174533,-0.174533,-1.04365,-0.692709,-0.160834,-0.186566,-0.709722,-0.303409,-0.410982,0.361007
26,60,-1.0472,-0.698132,-0.174533,-0.174533,-1.04365,-0.692709,-0.160834,-0.186566,-0.709722,-0.303409,-0.410982,0.361007
26,60,-1.0472,-0.698132,-0.174533,-0.174533,-1.04365,-0.692709,-0.160834,-0.186566,-0.709722,-0.303409,-0.410982,0.361007
26,60,-1.0472,-0.698132,-0.174533,-0.174533,-1.04365,-0.692709,-0.160834,-0.186566,-0.709722,-0.303409,-0.410982,0.361007
26,60,-1.0472,-0.698132,-0.174533,-0.174533,-1.04365,-0.692709,-0.160834,-0.186566,-0.709722,-0.303409,-0.410982,0.361007
26,60,-1.0472,-0.698132,-0.174533,-0.174533,-1.04365,-0.692709,-0.160834,-0.186566,-0.709722,-0.303409,-0.410982,0.361007
26,60,-1.0472,-0.698132,-0.174533,-0.174533,-1.04365,-0.692709,-0.160834,-0.186566,-0.709722,-0.303409,-0.410982,0.361007
26,60,-1.0472,-0.698132,-0.174533,-0.174533,-1.04365,-0.692709,-0.160834,-0.186566,-0.709722,-0.303409,-0.410982,0.361007
26,60,-1.0472,-0.698132,-0.174533,-0.174533,-1.04365,-0.692709,-0.160836,-0.186626,-0.709722,-0.303409,-0.410904,0.362795
26,60,-1.0472,-0.698132,-0.174533,-0.174533,-1.04365,-0.692709,-0.160836,-0.186626,-0.709722,-0.303409,-0.410904,0.362795
26,60,-1.0472,-0.698132,-0.174533,-0.174533,-1.04365,-0.692709,-0.160836,-0.186626,-0.709722,-0.303409,-0.410904,0.362795
26,60,-1.0472,-0.698132,-0.174533,-0.174533,-1.04365,-0.692709,-0.160836,-0.186626,-0.709722,-0.303409,-0.410904,0.362795
26,60,-1.0472,-0.698132,-0.174533,-0.174533,-1.04365,-0.692709,-0.160836,-0.186626,-0.709722,-0.303409,-0.410904,0.362795
26,60,-1.0472,-0.698132,-0.174533,-0.174533,-1.04365,-0.692709,-0.160836,-0.186626,-0.709722,-0.303409,-0.410904,0.362795
26,60,-1.0472,-0.698132,-0.174533,-0.174533,-1.04365,-0.692709,-0.160836,-0.186626,-0.709722,-0.303409,-0.410904,0.362795
26,60,-1.0472,-0.698132,-0.174533,-0.174533,-1.04365,-0.692709,-0.160836,-0.186626,-0.709722,-0.303409,-0.410904,0.362795
26,60,-1.0472,-0.698132,-0.174533,-0.174533,-1.04365,-0.692709,-0.160836,-0.186626,-0.709722,-0.303409,-0.410904,0.362795
26,60,-1.0472,-0.698132,-0.174533,-0.174533,-1.04365,-0.692709,-0.160836,-0.186626,-0.709722,-0.303409,-0.410904,0.362795
26,60,-1.0472,-0.698132,-0.174533,-0.174533,-1.04365,-0.692709,-0.160836,-0.186626,-0.709722,-0.303409,-0.410904,0.362795
26,60,-1.0472,-0.698132,-0.174533,-0.174533,-1.04365,-0.692709,-0.160836,-0.186626,-0.709722,-0.303409,-0.410904,0.362795
26,60,-1.0472,-0.698132,-0.174533,-0.174533,-1.04365,-0.692709,-0.160836,-0.186626,-0.709722,-0.303409,-0.410904,0.362795
26,60,-1.0472,-0.698132,-0.174533,-0.174533,-1.04365,-0.692709,-0.160836,-0.186626,-0.709722,-0.303409,-0.410904,0.362795
26,60,-1.0472,-0.698132,-0.174533,-0.174533,-1.04365,-0.692709,-0.160836,-0.186626,-0.709722,-0.303409,-0.410904,0.362795
26,60,-1.0472,-0.698132,-0.174533,-0.174533,-1.04365,-0.692709,-0.160836,-0.186626,-0.709722,-0.303409,-0.410904,0.362795
26,60,-1.0472,-0.698132,-0.174533,-0.174533,-1.04365,-0.692709,-0.160836,-0.186626,-0.709722,-0.303409,-0.410904,0.362795
26,60,-1.0472,-0.698132,-0.174533,-0.174533,-1.04365,-0.692709,-0.160836,-0.186626,-0.709722,-0.303409,-0.410904,0.362795
26,60,-1.0472,-0.698132,-0.174533,-0.174533,-1.04365,-0.692709,-0.160836,-0.186626,-0.709722,-0.303409,-0.410904,0.362795
26,60,-1.0472,-0.698132,-0.174533,-0.174533,-1.04365,-0.692709,-0.160836,-0.186626,-0.709722,-0.303409,-0.410904,0.362795
26,60,-1.0472,-0.698132,-0.174533,-0.174533,-1.04365,-0.692709,-0.160836,-0.186626,-0.709722,-0.303409,-0.410904,0.362795
26,60,-1.0472,-0.698132,-0.174533,-0.174533,-1.04365,-0.692709,-0.160836,-0.186626,-0.709722,-0.303409,-0.410904,0.362795
26,60,-1.0472,-0.698132,-0.174533,-0.174533,-1.04365,-0.692709,-0.160836,-0.186626,-0.709722,-0.303409,-0.410904,0.362795
26,60,-1.0472,-0.698132,-0.174533,-0.174533,-1.04365,-0.692709,-0.160836,-0.186626,-0.709722,-0.303409,-0.410904,0.362795
26,60,-1.0472,-0.698132,-0.174533,-0.174533,-1.04365,-0.692709,-0.160836,-0.186626,-0.709722,-0.303409,-0.410904,0.362795
26,60,-1.0472,-0.698132,-0.174533,-0.174533,-1.04365,-0.692709,-0.160836,-0.186626,-0.709722,-0.303409,-0.410904,0.362795
26,60,-1.0472,-0.698132,-0.174533,-0.174533,-1.04365,-0.692709,-0.160836,-0.186626,-0.709722,-0.303409,-0.410904,0.362795
26,60,-1.0472,-0.698132,-0.174533,-0.174533,-1.04365,-0.692709,-0.160836,-0.186626,-0.709722,-0.303409,-0.410904,0.362795
26,60,-1.0472,-0.698132,-0.174533,-0.174533,-1.04365,-0.692709,-0.160836,-0.186626,-0.709722,-0.303409,-0.410904,0.362795
26,60,-1.0472,-0.698132,-0.174533,-0.174533,-1.04365,-0.692709,-0.160836,-0.186626,-0.709722,-0.303409,-0.410904,0.362795
26,60,-1.0472,-0.698132,-0.174533,-0.174533,-1.04365,-0.692709,-0.160836,-0.186626,-0.709722,-0.303409,-0.410904,0.362795
26,60,-1.0472,-0.698132,-0.174533,-0.174533,-1.04365,-0.692709,-0.160836,-0.186626,-0.709722,-0.303409,-0.410904,0.362795
26,60,-1.0472,-0.698132,-0.174533,-0.174533,-1.04365,-0.692709,-0.160836,-0.186626,-0.709722,-0.303409,-0.410904,0.362795
26,60,-1.0472,-0.698132,-0.174533,-0.174533,-1.04365,-0.692709,-0.160836,-0.186626,-0.709722,-0.303409,-0.410904,0.362795
26,60,-1.0472,-0.698132,-0.174533,-0.174533,-1.04365,-0.692709,-0.160836,-0.186626,-0.709722,-0.303409,-0.410904,0.362795
26,60,-1.0472,-0.698132,-0.174533,-0.174533,-1.04365,-0.692709,-0.160836,-0.186626,-0.709722,-0.303409,-0.410904,0.362795
26,60,-1.0472,-0.698132,-0.174533,-0.174533,-1.04365,-0.692709,-0.160836,-0.186626,-0.709722,-0.303409,-0.410904,0.362795
26,60,-1.0472,-0.698132,-0.174533,-0.174533,-1.04365,-0.692709,-0.160836,-0.186626,-0.709722,-0.303409,-0.410904,0.362795
26,60,-1.0472,-0.698132,-0.174533,-0.174533,-1.04365,-0.692709,-0.160836,-0.186626,-0.709722,-0.303409,-0.410904,0.362795
26,60,-1.0472,-0.698132,-0.174533,-0.174533,-1.04365,-0.692709,-0.160836,-0.186626,-0.709722,-0.303409,-0.410904,0.362795
26,60,-1.0472,-0.698132,-0.174533,-0.174533,-1.04365,-0.692709,-0.160836,-0.186626,-0.709722,-0.303409,-0.410904,0.362795
26,60,-1.0472,-0.698132,-0.174533,-0.174533,-1.04365,-0.692709,-0.160836,-0.186626,-0.709722,-0.303409,-0.410904,0.362795
26,60,-1.0472,-0.698132,-0.174533,-0.174533,-1.04365,-0.692709,-0.160836,-0.186626,-0.709722,-0.303409,-0.410904,0.362795
26,60,-1.0472,-0.698132,-0.174533,-0.174533,-1.04365,-0.692709,-0.160836,-0.186626,-0.709722,-0.303409,-0.410904,0.362795
26,60,-1.0472,-0.698132,-0.174533,-0.174533,-1.04365,-0.692709,-0.160836,-0.186626,-0.709722,-0.303409,-0.410904,0.362795
26,60,-1.0472,-0.698132,-0.174533,-0.174533,-1.04365,-0.692709,-0.160836,-0.186626,-0.709722,-0.303409,-0.410904,0.362795
26,60,-1.0472,-0.698132,-0.174533,-0.174533,-1.04365,-0.692709,-0.160836,-0.186626,-0.709722,-0.303409,-0.410904,0.362795
26,60,-1.0472,-0.698132,-0.174533,-0.174533,-1.04365,-0.692709,-0.160836,-0.186626,-0.709722,-0.303409,-0.410904,0.362795
26,60,-1.0472,-0.698132,-0.174533,-0.174533,-1.04365,-0.692709,-0.160836,-0.186626,-0.709722,-0.303409,-0.410904,0.362795
26,60,-1.0472,-0.698132,-0.174533,-0.174533,-1.04365,-0.692709,-0.160836,-0.186626,-0.709722,-0.303409,-0.410904,0.362795
26,60,-1.0472,-0.698132,-0.174533,-0.174533,-1.04365,-0.692709,-0.160836,-0.186626,-0.709722,-0.303409,-0.410904,0.362795
26,60,-1.0472,-0.698132,-0.174533,-0.174533,-1.04365,-0.692709,-0.160836,-0.186626,-0.709722,-0.303409,-0.410904,0.362795
26,60,-1.0472,-0.698132,-0.174533,-0.174533,-1.04365,-0.692709,-0.160836,-0.186626,-0.709722,-0.303409,-0.410904,0.362795
26,60,-1.0472,-0.698132,-0.174533,-0.174533,-1.04365,-0.692709,-0.160836,-0.186626,-0.709722,-0.303409,-0.410904,0.362795
26,60,-1.0472,-0.698132,-0.174533,-0.174533,-1.04365,-0.692709,-0.160836,-0.186626,-0.709722,-0.303409,-0.410904,0.362795
26,60,-1.0472,-0.698132,-0.174533,-0.174533,-1.04365,-0.692709,-0.160836,-0.186626,-0.709722,-0.303409,-0.410904,0.362795
26,60,-1.0472,-0.698132,-0.174533,-0.174533,-1.04365,-0.692709,-0.160836,-0.186626,-0.709722,-0.303409,-0.410904,0.362795
26,60,-1.0472,-0.698132,-0.174533,-0.174533,-1.04365,-0.692709,-0.160836,-0.186626,-0.709722,-0.303409,-0.410904,0.362795
26,60,-1.0472,-0.698132,-0.174533,-0.174533,-1.04365,-0.692709,-0.160836,-0.186626,-0.709722,-0.303409,-0.410904,0.362795
26,60,-1.0472,-0.698132,-0.174533,-0.174533,-1.04365,-0.692709,-0.160836,-0.186626,-0.709722,-0.303409,-0.410904,0.362795
26,60,-1.0472,-0.698132,-0.174533,-0.174533,-1.04365,-0.692709,-0.160836,-0.186626,-0.709722,-0.303409,-0.410904,0.362795
26,60,-1.0472,-0.698132,-0.174533,-0.174533,-1.04365,-0.692709,-0.160836,-0.186626,-0.709722,-0.303409,-0.410904,0.362795
26,60,-1.0472,-0.698132,-0.174533,-0.174533,-1.04365,-0.692709,-0.160836,-0.186626,-0.709722,-0.303409,-0.410904,0.362795
26,60,-1.0472,-0.698132,-0.174533,-0.174533,-1.04365,-0.692709,-0.160836,-0.186626,-0.709722,-0.303409,-0.410904,0.362795
26,60,-1.0472,-0.698132,-0.174533,-0.174533,-1.04365,-0.692709,-0.160836,-0.186626,-0.709722,-0.303409,-0.410904,0.362795
26,60,-1.0472,-0.698132,-0.174533,-0.174533,-1.04365,-0.692709,-0.160836,-0.186626,-0.709722,-0.303409,-0.410904,0.362795
26,60,-1.0472,-0.698132,-0.174533,-0.174533,-1.04365,-0.692709,-0.160836,-0.186626,-0.709722,-0.303409,-0.410904,0.362795
26,60,-1.0472,-0.698132,-0.174533,-0.174533,-1.04365,-0.692709,-0.160836,-0.186626,-0.709722,-0.303409,-0.410904,0.362795
26,60,-1.0472,-0.698132,-0.174533,-0.174533,-1.04365,-0.692709,-0.160836,-0.186626,-0.709722,-0.303409,-0.410904,0.362795
26,60,-1.0472,-0.698132,-0.174533,-0.174533,-1.04365,-0.692709,-0.160836,-0.186626,-0.709722,-0.303409,-0.410904,0.362795
26,60,-1.0472,-0.698132,-0.174533,-0.174533,-1.04365,-0.692709,-0.160836,-0.186626,-0.709722,-0.303409,-0.410904,0.362795
26,60,-1.0472,-0.698132,-0.174533,-0.174533,-1.04365,-0.692709,-0.160836,-0.186626,-0.709722,-0.303409,-0.410904,0.362795
26,60,-1.0472,-0.698132,-0.174533,-0.174533,-1.04365,-0.692709,-0.160836,-0.186626,-0.709722,-0.303409,-0.410904,0.362795
26,60,-1.0472,-0.698132,-0.174533,-0.174533,-1.04365,-0.692709,-0.160836,-0.186626,-0.709722,-0.303409,-0.410904,0.362795
26,60,-1.0472,-0.698132,-0.174533,-0.174533,-1.04365,-0.692709,-0.160836,-0.186626,-0.709722,-0.303409,-0.410904,0.362795
26,60,-1.0472,-0.698132,-0.174533,-0.174533,-1.04365,-0.692709,-0.160836,-0.186626,-0.709722,-0.303409,-0.410904,0.362795
26,60,-1.0472,-0.698132,-0.174533,-0.174533,-1.04365,-0.692709,-0.160836,-0.186626,-0.709722,-0.303409,-0.410904,0.362795
26,60,-1.0472,-0.698132,-0.174533,-0.174533,-1.04365,-0.692709,-0.160836,-0.186626,-0.709722,-0.303409,-0.410904,0.362795
26,60,-1.0472,-0.698132,-0.174533,-0.174533,-1.04365,-0.692709,-0.160836,-0.186626,-0.709722,-0.303409,-0.410904,0.362795
26,60,-1.0472,-0.698132,-0.174533,-0.174533,-1.04365,-0.692709,-0.160836,-0.186626,-0.709722,-0.303409,-0.410904,0.362795
26,60,-1.0472,-0.698132,-0.174533,-0.174533,-1.04365,-0.692709,-0.160836,-0.186626,-0.709722,-0.303409,-0.410904,0.362795
26,60,-1.0472,-0.698132,-0.174533,-0.174533,-1.04365,-0.692709,-0.160839,-0.186685,-0.709722,-0.303409,-0.410826,0.364581
26,60,-1.0472,-0.698132,-0.174533,-0.174533,-1.04365,-0.692709,-0.160839,-0.186685,-0.709722,-0.303409,-0.410826,0.364581
26,60,-1.0472,-0.698132,-0.174533,-0.174533,-1.04365,-0.692709,-0.160839,-0.186685,-0.709722,-0.303409,-0.410826,0.364581
26,60,-1.0472,-0.698132,-0.174533,-0.174533,-1.04365,-0.692709,-0.160839,-0.186685,-0.709722,-0.303409,-0.410826,0.364581
26,60,-1.0472,-0.698132,-0.174533,-0.174533,-1.04365,-0.692709,-0.160839,-0.186685,-0.709722,-0.303409,-0.410826,0.364581
26,60,-1.0472,-0.698132,-0.174533,-0.174533,-1.04365,-0.692709,-0.160839,-0.186685,-0.709722,-0.303409,-0.410826,0.364581
26,60,-1.0472,-0.698132,-0.174533,-0.174533,-1.04365,-0.692709,-0.160839,-0.186685,-0.709722,-0.303409,-0.410826,0.364581
26,60,-1.0472,-0.698132,-0.174533,-0.174533,-1.04365,-0.692709,-0.160839,-0.186685,-0.709722,-0.303409,-0.410826,0.364581
26,60,-1.0472,-0.698132,-0.174533,-0.174533,-1.04365,-0.692709,-0.160839,-0.186685,-0.709722,-0.303409,-0.410826,0.364581
26,60,-1.0472,-0.698132,-0.174533,-0.174533,-1.04365,-0.692709,-0.160839,-0.186685,-0.709722,-0.303409,-0.410826,0.364581
26,60,-1.0472,-0.698132,-0.174533,-0.174533,-1.04365,-0.692709,-0.160839,-0.186685,-0.709722,-0.303409,-0.410826,0.364581
26,60,-1.0472,-0.698132,-0.174533,-0.174533,-1.04365,-0.692709,-0.160839,-0.186685,-0.709722,-0.303409,-0.410826,0.364581
26,60,-1.0472,-0.698132,-0.174533,-0.174533,-1.04365,-0.692709,-0.160839,-0.186685,-0.709722,-0.303409,-0.410826,0.364581
26,60,-1.0472,-0.698132,-0.174533,-0.174533,-1.04365,-0.692709,-0.160839,-0.186685,-0.709722,-0.303409,-0.410826,0.364581
26,60,-1.0472,-0.698132,-0.174533,-0.174533,-1.04365,-0.692709,-0.160839,-0.186685,-0.709722,-0.303409,-0.410826,0.364581
26,60,-1.0472,-0.698132,-0.174533,-0.174533,-1.04365,-0.692709,-0.160839,-0.186685,-0.709722,-0.303409,-0.410826,0.364581
26,60,-1.0472,-0.698132,-0.174533,-0.174533,-1.04365,-0.692709,-0.160839,-0.186685,-0.709722,-0.303409,-0.410826,0.364581
26,60,-1.0472,-0.698132,-0.174533,-0.174533,-1.04365,-0.692709,-0.160839,-0.186685,-0.709722,-0.303409,-0.410826,0.364581
26,60,-1.0472,-0.698132,-0.174533,-0.174533,-1.04365,-0.692709,-0.160839,-0.186685,-0.709722,-0.303409,-0.410826,0.364581
26,60,-1.0472,-0.698132,-0.174533,-0.174533,-1.04365,-0.692709,-0.160839,-0.186685,-0.709722,-0.303409,-0.410826,0.364581
26,60,-1.0472,-0.698132,-0.174533,-0.174533,-1.04365,-0.692709,-0.160839,-0.186685,-0.709722,-0.303409,-0.410826,0.364581
26,60,-1.0472,-0.698132,-0.174533,-0.174533,-1.04365,-0.692709,-0.160839,-0.186685,-0.709722,-0.303409,-0.410826,0.364581
26,60,-1.0472,-0.698132,-0.174533,-0.174533,-1.04365,-0.692709,-0.160839,-0.186685,-0.709722,-0.303409,-0.410826,0.364581
26,60,-1.0472,-0.698132,-0.174533,-0.174533,-1.04365,-0.692709,-0.160839,-0.186685,-0.709722,-0.303409,-0.410826,0.364581
26,60,-1.0472,-0.698132,-0.174533,-0.174533,-1.04365,-0.692709,-0.160839,-0.186685,-0.709722,-0.303409,-0.410826,0.364581
26,60,-1.0472,-0.698132,-0.174533,-0.174533,-1.04365,-0.692709,-0.160839,-0.186685,-0.709722,-0.303409,-0.410826,0.364581
26,60,-1.0472,-0.698132,-0.174533,-0.174533,-1.04365,-0.692709,-0.160839,-0.186685,-0.709722,-0.303409,-0.410826,0.364581
26,60,-1.0472,-0.698132,-0.174533,-0.174533,-1.04365,-0.692709,-0.160839,-0.186685,-0.709722,-0.303409,-0.410826,0.364581
26,60,-1.0472,-0.698132,-0.174533,-0.174533,-1.04365,-0.692709,-0.160839,-0.186685,-0.709722,-0.303409,-0.410826,0.364581
26,60,-1.0472,-0.698132,-0.174533,-0.174533,-1.04365,-0.692709,-0.160839,-0.186685,-0.709722,-0.303409,-0.410826,0.364581
26,60,-1.0472,-0.698132,-0.174533,-0.174533,-1.04365,-0.692709,-0.160839,-0.186685,-0.709722,-0.303409,-0.410826,0.364581
26,60,-1.0472,-0.698132,-0.174533,-0.174533,-1.04365,-0.692709,-0.160839,-0.186685,-0.709722,-0.303409,-0.410826,0.364581
26,60,-1.0472,-0.698132,-0.174533,-0.174533,-1.04365,-0.692709,-0.160839,-0.186685,-0.709722,-0.303409,-0.410826,0.364581
26,60,-1.0472,-0.698132,-0.174533,-0.174533,-1.04365,-0.692709,-0.160839,-0.186685,-0.709722,-0.303409,-0.410826,0.364581
26,60,-1.0472,-0.698132,-0.174533,-0.174533,-1.04365,-0.692709,-0.160839,-0.186685,-0.709722,-0.303409,-0.410826,0.364581
26,60,-1.0472,-0.698132,-0.174533,-0.174533,-1.04365,-0.692709,-0.160839,-0.186685,-0.709722,-0.303409,-0.410826,0.364581
26,60,-1.0472,-0.698132,-0.174533,-0.174533,-1.04365,-0.692709,-0.160839,-0.186685,-0.709722,-0.303409,-0.410826,0.364581
26,60,-1.0472,-0.698132,-0.174533,-0.174533,-1.04365,-0.692709,-0.160839,-0.186685,-0.709722,-0.303409,-0.410826,0.364581
26,60,-1.0472,-0.698132,-0.174533,-0.174533,-1.04365,-0.692709,-0.160839,-0.186685,-0.709722,-0.303409,-0.410826,0.364581
26,60,-1.0472,-0.698132,-0.174533,-0.174533,-1.04365,-0.692709,-0.160839,-0.186685,-0.709722,-0.303409,-0.410826,0.364581
26,60,-1.0472,-0.698132,-0.174533,-0.174533,-1.04365,-0.692709,-0.160839,-0.186685,-0.709722,-0.303409,-0.410826,0.364581
26,60,-1.0472,-0.698132,-0.174533,-0.174533,-1.04365,-0.692709,-0.160839,-0.186685,-0.709722,-0.303409,-0.410826,0.364581
26,60,-1.0472,-0.698132,-0.174533,-0.174533,-1.04365,-0.692709,-0.160839,-0.186685,-0.709722,-0.303409,-0.410826,0.364581
26,60,-1.0472,-0.698132,-0.174533,-0.174533,-1.04365,-0.692709,-0.160839,-0.186685,-0.709722,-0.303409,-0.410826,0.364581
26,60,-1.0472,-0.698132,-0.174533,-0.174533,-1.04365,-0.692709,-0.160839,-0.186685,-0.709722,-0.303409,-0.410826,0.364581
26,60,-1.0472,-0.698132,-0.174533,-0.174533,-1.04365,-0.692709,-0.160839,-0.186685,-0.709722,-0.303409,-0.410826,0.364581
26,60,-1.0472,-0.698132,-0.174533,-0.174533,-1.04365,-0.692709,-0.160839,-0.186685,-0.709722,-0.303409,-0.410826,0.364581
26,60,-1.0472,-0.698132,-0.174533,-0.174533,-1.04365,-0.692709,-0.160839,-0.186685,-0.709722,-0.303409,-0.410826,0.364581
26,60,-1.0472,-0.698132,-0.174533,-0.174533,-1.04365,-0.692709,-0.160839,-0.186685,-0.709722,-0.303409,-0.410826,0.364581
26,60,-1.0472,-0.698132,-0.174533,-0.174533,-1.04365,-0.692709,-0.160839,-0.186685,-0.709722,-0.303409,-0.410826,0.364581
26,60,-1.0472,-0.698132,-0.174533,-0.174533,-1.04365,-0.692709,-0.160839,-0.186685,-0.709722,-0.303409,-0.410826,0.364581
26,60,-1.0472,-0.698132,-0.174533,-0.174533,-1.04365,-0.692709,-0.160839,-0.186685,-0.709722,-0.303409,-0.410826,0.364581
26,60,-1.0472,-0.698132,-0.174533,-0.174533,-1.04365,-0.692709,-0.160839,-0.186685,-0.709722,-0.303409,-0.410826,0.364581
26,60,-1.0472,-0.698132,-0.174533,-0.174533,-1.04365,-0.692709,-0.160839,-0.186685,-0.709722,-0.303409,-0.410826,0.364581
26,60,-1.0472,-0.698132,-0.174533,-0.174533,-1.04365,-0.692709,-0.160839,-0.186685,-0.709722,-0.303409,-0.410826,0.364581
26,60,-1.0472,-0.698132,-0.174533,-0.174533,-1.04365,-0.692709,-0.160839,-0.186685,-0.709722,-0.303409,-0.410826,0.364581
26,60,-1.0472,-0.698132,-0.174533,-0.174533,-1.04365,-0.692709,-0.160839,-0.186685,-0.709722,-0.303409,-0.410826,0.364581
26,60,-1.0472,-0.698132,-0.174533,-0.174533,-1.04365,-0.692709,-0.160839,-0.186685,-0.709722,-0.303409,-0.410826,0.364581
26,60,-1.0472,-0.698132,-0.174533,-0.174533,-1.04365,-0.692709,-0.160839,-0.186685,-0.709722,-0.303409,-0.410826,0.364581
26,60,-1.0472,-0.698132,-0.174533,-0.174533,-1.04365,-0.692709,-0.160839,-0.186685,-0.709722,-0.303409,-0.410826,0.364581
26,60,-1.0472,-0.698132,-0.174533,-0.174533,-1.04365,-0.692709,-0.160839,-0.186685,-0.709722,-0.303409,-0.410826,0.364581
26,60,-1.0472,-0.698132,-0.174533,-0.174533,-1.04365,-0.692709,-0.160839,-0.186685,-0.709722,-0.303409,-0.410826,0.364581
26,60,-1.0472,-0.698132,-0.174533,-0.174533,-1.04365,-0.692709,-0.160839,-0.186685,-0.709722,-0.303409,-0.410826,0.364581
26,60,-1.0472,-0.698132,-0.174533,-0.174533,-1.04365,-0.692709,-0.160839,-0.186685,-0.709722,-0.303409,-0.410826,0.364581
26,60,-1.0472,-0.698132,-0.174533,-0.174533,-1.04365,-0.692709,-0.160839,-0.186685,-0.709722,-0.303409,-0.410826,0.364581
26,60,-1.0472,-0.698132,-0.174533,-0.174533,-1.04365,-0.692709,-0.160839,-0.186685,-0.709722,-0.303409,-0.410826,0.364581
26,60,-1.0472,-0.698132,-0.174533,-0.174533,-1.04365,-0.692709,-0.160839,-0.186685,-0.709722,-0.303409,-0.410826,0.364581
26,60,-1.0472,-0.698132,-0.174533,-0.174533,-1.04365,-0.692709,-0.160839,-0.186685,-0.709722,-0.303409,-0.410826,0.364581
26,60,-1.0472,-0.698132,-0.174533,-0.174533,-1.04365,-0.692709,-0.160839,-0.186685,-0.709722,-0.303409,-0.410826,0.364581
26,60,-1.0472,-0.698132,-0.174533,-0.174533,-1.04365,-0.692709,-0.160839,-0.186685,-0.709722,-0.303409,-0.410826,0.364581
26,60,-1.0472,-0.698132,-0.174533,-0.174533,-1.04365,-0.692709,-0.160839,-0.186685,-0.709722,-0.303409,-0.410826,0.364581
26,60,-1.0472,-0.698132,-0.174533,-0.174533,-1.04365,-0.692709,-0.160839,-0.186685,-0.709722,-0.303409,-0.410826,0.364581
26,60,-1.0472,-0.698132,-0.174533,-0.174533,-1.04365,-0.692709,-0.160839,-0.186685,-0.709722,-0.303668,-0.410826,0.364581
26,60,-1.0472,-0.698132,-0.174533,-0.174533,-1.04365,-0.692709,-0.160839,-0.186685,-0.709722,-0.303668,-0.410826,0.364581
26,60,-1.0472,-0.698132,-0.174533,-0.174533,-1.04365,-0.692709,-0.160839,-0.186685,-0.709722,-0.303668,-0.410826,0.364581
26,60,-1.0472,-0.698132,-0.174533,-0.174533,-1.04365,-0.692709,-0.160839,-0.186685,-0.709722,-0.303668,-0.410826,0.364581
26,60,-1.0472,-0.698132,-0.174533,-0.174533,-1.04365,-0.692709,-0.160839,-0.186685,-0.709722,-0.303668,-0.410826,0.364581
26,60,-1.0472,-0.698132,-0.174533,-0.174533,-1.04365,-0.692709,-0.160839,-0.186685,-0.709722,-0.303668,-0.410826,0.364581
26,60,-1.0472,-0.698132,-0.174533,-0.174533,-1.04365,-0.692709,-0.160839,-0.186685,-0.709722,-0.303668,-0.410826,0.364581
26,60,-1.0472,-0.698132,-0.174533,-0.174533,-1.04365,-0.692709,-0.160839,-0.186685,-0.709722,-0.303668,-0.410826,0.364581
26,60,-1.0472,-0.698132,-0.174533,-0.174533,-1.04365,-0.692709,-0.160839,-0.186685,-0.709722,-0.303668,-0.410826,0.364581
26,60,-1.0472,-0.698132,-0.174533,-0.174533,-1.04365,-0.692709,-0.160839,-0.186685,-0.709722,-0.303668,-0.410826,0.364581
26,60,-1.0472,-0.698132,-0.174533,-0.174533,-1.04365,-0.692709,-0.160839,-0.186685,-0.709722,-0.303668,-0.410826,0.364581
26,60,-1.0472,-0.698132,-0.174533,-0.174533,-1.04365,-0.692709,-0.160839,-0.186685,-0.709722,-0.303668,-0.410826,0.364581
26,60,-1.0472,-0.698132,-0.174533,-0.174533,-1.04365,-0.692709,-0.160839,-0.186685,-0.709722,-0.303668,-0.410826,0.364581
26,60,-1.0472,-0.698132,-0.174533,-0.174533,-1.04365,-0.692709,-0.160839,-0.186685,-0.709722,-0.303668,-0.410826,0.364581
26,60,-1.0472,-0.698132,-0.174533,-0.174533,-1.04365,-0.692709,-0.160839,-0.186685,-0.709722,-0.303668,-0.410826,0.364581
26,60,-1.0472,-0.698132,-0.174533,-0.174533,-1.04365,-0.692709,-0.160839,-0.186685,-0.709722,-0.303668,-0.410826,0.364581
26,60,-1.0472,-0.698132,-0.174533,-0.174533,-1.04365,-0.692709,-0.160839,-0.186685,-0.709722,-0.303668,-0.410826,0.364581
26,60,-1.0472,-0.698132,-0.174533,-0.174533,-1.04365,-0.692709,-0.160839,-0.186685,-0.709722,-0.303668,-0.410826,0.364581
26,60,-1.0472,-0.698132,-0.174533,-0.174533,-1.04365,-0.692709,-0.160839,-0.186685,-0.709722,-0.303668,-0.410826,0.364581
26,60,-1.0472,-0.698132,-0.174533,-0.174533,-1.04365,-0.692709,-0.160839,-0.186685,-0.709722,-0.303668,-0.410826,0.364581
26,60,-1.0472,-0.698132,-0.174533,-0.174533,-1.04365,-0.692709,-0.160839,-0.186685,-0.709722,-0.303668,-0.410826,0.364581
26,60,-1.0472,-0.698132,-0.174533,-0.174533,-1.04365,-0.692709,-0.160839,-0.186685,-0.709722,-0.303668,-0.410826,0.364581
26,60,-1.0472,-0.698132,-0.174533,-0.174533,-1.04365,-0.692709,-0.160839,-0.186685,-0.709722,-0.303668,-0.410826,0.364581
26,60,-1.0472,-0.698132,-0.174533,-0.174533,-1.04365,-0.692709,-0.160839,-0.186685,-0.709722,-0.303668,-0.410826,0.364581
26,60,-1.0472,-0.698132,-0.174533,-0.174533,-1.04365,-0.692709,-0.160839,-0.186685,-0.709722,-0.303668,-0.410826,0.364581
26,60,-1.0472,-0.698132,-0.174533,-0.174533,-1.04365,-0.692709,-0.160839,-0.186685,-0.709722,-0.303668,-0.410826,0.364581
26,60,-1.0472,-0.698132,-0.174533,-0.174533,-1.04365,-0.692709,-0.160839,-0.186685,-0.709722,-0.303668,-0.410826,0.364581
26,60,-1.0472,-0.698132,-0.174533,-0.174533,-1.04365,-0.692709,-0.160839,-0.186685,-0.709722,-0.303668,-0.410826,0.364581
26,60,-1.0472,-0.698132,-0.174533,-0.174533,-1.04365,-0.692709,-0.160839,-0.186685,-0.709722,-0.303668,-0.410826,0.364581
26,60,-1.0472,-0.698132,-0.174533,-0.174533,-1.04365,-0.692709,-0.160839,-0.186685,-0.709722,-0.303668,-0.410826,0.364581
26,60,-1.0472,-0.698132,-0.174533,-0.174533,-1.04365,-0.692709,-0.160839,-0.186685,-0.709722,-0.303668,-0.410826,0.364581
26,60,-1.0472,-0.698132,-0.174533,-0.174533,-1.04365,-0.692709,-0.160839,-0.186685,-0.709722,-0.303668,-0.410826,0.364581
26,60,-1.0472,-0.698132,-0.174533,-0.174533,-1.04365,-0.692709,-0.160839,-0.186685,-0.709722,-0.303668,-0.410826,0.364581
26,60,-1.0472,-0.698132,-0.174533,-0.174533,-1.04365,-0.692709,-0.160839,-0.186685,-0.709722,-0.303668,-0.410826,0.364581
26,60,-1.0472,-0.698132,-0.174533,-0.174533,-1.04365,-0.692709,-0.160839,-0.186685,-0.709722,-0.303668,-0.410826,0.364581
26,60,-1.0472,-0.698132,-0.174533,-0.174533,-1.04365,-0.692709,-0.160839,-0.186685,-0.709722,-0.303668,-0.410826,0.364581
26,60,-1.0472,-0.698132,-0.174533,-0.174533,-1.04365,-0.692709,-0.160839,-0.186685,-0.709722,-0.303668,-0.410826,0.364581
26,60,-1.0472,-0.698132,-0.174533,-0.174533,-1.04365,-0.692709,-0.160839,-0.186685,-0.709722,-0.303668,-0.410826,0.364581
26,60,-1.0472,-0.698132,-0.174533,-0.174533,-1.04365,-0.692709,-0.160839,-0.186685,-0.709722,-0.303668,-0.410826,0.364581
26,60,-1.0472,-0.698132,-0.174533,-0.174533,-1.04365,-0.692709,-0.160839,-0.186685,-0.709722,-0.303668,-0.410826,0.364581
26,60,-1.0472,-0.698132,-0.174533,-0.174533,-1.04365,-0.692709,-0.160839,-0.186685,-0.709722,-0.303668,-0.410826,0.364581
26,60,-1.0472,-0.698132,-0.174533,-0.174533,-1.04365,-0.692709,-0.160839,-0.186685,-0.709722,-0.303668,-0.410826,0.364581
26,60,-1.0472,-0.698132,-0.174533,-0.174533,-1.04365,-0.692709,-0.160839,-0.186685,-0.709722,-0.303668,-0.410826,0.364581
26,60,-1.0472,-0.698132,-0.174533,-0.174533,-1.04365,-0.692709,-0.160839,-0.186685,-0.709722,-0.303668,-0.410826,0.364581
26,60,-1.0472,-0.698132,-0.174533,-0.174533,-1.04365,-0.692709,-0.160839,-0.186685,-0.709722,-0.303668,-0.410826,0.364581
26,60,-1.0472,-0.698132,-0.174533,-0.174533,-1.04365,-0.692709,-0.160839,-0.186685,-0.709722,-0.303668,-0.410826,0.364581
26,60,-1.0472,-0.698132,-0.174533,-0.174533,-1.04365,-0.692709,-0.160839,-0.186685,-0.709722,-0.303668,-0.410826,0.364581
26,60,-1.0472,-0.698132,-0.174533,-0.174533,-1.04365,-0.692709,-0.160839,-0.186685,-0.709722,-0.303668,-0.410826,0.364581
26,60,-1.0472,-0.698132,-0.174533,-0.174533,-1.04365,-0.692709,-0.160839,-0.186685,-0.709722,-0.303668,-0.410826,0.364581
26,60,-1.0472,-0.698132,-0.174533,-0.174533,-1.04365,-0.692709,-0.160839,-0.186685,-0.709722,-0.303668,-0.410826,0.364581
26,60,-1.0472,-0.698132,-0.174533,-0.174533,-1.04365,-0.692709,-0.160839,-0.186685,-0.709722,-0.303668,-0.410826,0.364581
26,60,-1.0472,-0.698132,-0.174533,-0.174533,-1.04365,-0.692709,-0.160839,-0.186685,-0.709722,-0.303668,-0.410826,0.364581
26,60,-1.0472,-0.698132,-0.174533,-0.174533,-1.04365,-0.692709,-0.160839,-0.186685,-0.709722,-0.303668,-0.410826,0.364581
26,60,-1.0472,-0.698132,-0.174533,-0.174533,-1.04365,-0.692709,-0.160839,-0.186685,-0.709722,-0.303668,-0.410826,0.364581
26,60,-1.0472,-0.698132,-0.174533,-0.174533,-1.04365,-0.692709,-0.160839,-0.186685,-0.709722,-0.303668,-0.410826,0.364581
26,60,-1.0472,-0.698132,-0.174533,-0.174533,-1.04365,-0.692709,-0.160839,-0.186685,-0.709722,-0.303668,-0.410826,0.364581
26,60,-1.0472,-0.698132,-0.174533,-0.174533,-1.04365,-0.692709,-0.160839,-0.186685,-0.709722,-0.303668,-0.410826,0.364581
26,60,-1.0472,-0.698132,-0.174533,-0.174533,-1.04365,-0.692709,-0.160839,-0.186685,-0.709722,-0.303668,-0.410826,0.364581
26,60,-1.0472,-0.698132,-0.174533,-0.174533,-1.04365,-0.692709,-0.160839,-0.186685,-0.709722,-0.303668,-0.410826,0.364581
26,60,-1.0472,-0.698132,-0.174533,-0.174533,-1.04365,-0.692709,-0.160839,-0.186685,-0.709722,-0.303668,-0.410826,0.364581
26,60,-1.0472,-0.698132,-0.174533,-0.174533,-1.04365,-0.692709,-0.160839,-0.186685,-0.709722,-0.303668,-0.410826,0.364581
26,60,-1.0472,-0.698132,-0.174533,-0.174533,-1.04365,-0.692709,-0.160839,-0.186685,-0.709722,-0.303668,-0.410826,0.364581
26,60,-1.0472,-0.698132,-0.174533,-0.174533,-1.04365,-0.692709,-0.160839,-0.186685,-0.709722,-0.303668,-0.410826,0.364581
26,60,-1.0472,-0.698132,-0.174533,-0.174533,-1.04365,-0.692709,-0.160839,-0.186685,-0.709722,-0.303668,-0.410826,0.364581
26,60,-1.0472,-0.698132,-0.174533,-0.174533,-1.04365,-0.692709,-0.160839,-0.186685,-0.709722,-0.303668,-0.410826,0.364581
26,60,-1.0472,-0.698132,-0.174533,-0.174533,-1.04365,-0.692709,-0.160839,-0.186685,-0.709722,-0.303668,-0.410826,0.364581
26,60,-1.0472,-0.698132,-0.174533,-0.174533,-1.04365,-0.692709,-0.160839,-0.186685,-0.709722,-0.303668,-0.410826,0.364581
26,60,-1.0472,-0.698132,-0.174533,-0.174533,-1.04365,-0.692709,-0.160839,-0.186685,-0.709722,-0.303668,-0.410826,0.364581
26,60,-1.0472,-0.698132,-0.174533,-0.174533,-1.04365,-0.692709,-0.160839,-0.186685,-0.709722,-0.303668,-0.410826,0.364581
26,60,-1.0472,-0.698132,-0.174533,-0.174533,-1.04365,-0.692709,-0.160839,-0.186685,-0.709722,-0.303668,-0.410826,0.364581
26,60,-1.0472,-0.698132,-0.174533,-0.174533,-1.04365,-0.692709,-0.160839,-0.186685,-0.709722,-0.303668,-0.410826,0.364581
26,60,-1.0472,-0.698132,-0.174533,-0.174533,-1.04365,-0.692709,-0.160839,-0.186685,-0.709722,-0.303668,-0.410826,0.364581
26,60,-1.0472,-0.698132,-0.174533,-0.174533,-1.04365,-0.692709,-0.160839,-0.186685,-0.709722,-0.303668,-0.410826,0.364581
26,60,-1.0472,-0.698132,-0.174533,-0.174533,-1.04365,-0.692709,-0.160839,-0.186685,-0.709722,-0.303668,-0.410826,0.364581
26,60,-1.0472,-0.698132,-0.174533,-0.174533,-1.04365,-0.692709,-0.160839,-0.186685,-0.709722,-0.303668,-0.410826,0.364581
26,60,-1.0472,-0.698132,-0.174533,-0.174533,-1.04365,-0.692709,-0.160839,-0.186685,-0.709722,-0.303668,-0.410826,0.364581
26,60,-1.0472,-0.698132,-0.174533,-0.174533,-1.04365,-0.692709,-0.160839,-0.186685,-0.709722,-0.303668,-0.410826,0.364581
26,60,-1.0472,-0.698132,-0.174533,-0.174533,-1.04365,-0.692709,-0.160839,-0.186685,-0.709722,-0.303668,-0.410826,0.364581
26,60,-1.0472,-0.698132,-0.174533,-0.174533,-1.04365,-0.692709,-0.160839,-0.186685,-0.709722,-0.303668,-0.410826,0.364581
26,60,-1.0472,-0.698132,-0.174533,-0.174533,-1.04365,-0.692709,-0.160839,-0.186685,-0.709722,-0.303668,-0.410826,0.364581
26,60,-1.0472,-0.698132,-0.174533,-0.174533,-1.04365,-0.692709,-0.160839,-0.186685,-0.709722,-0.303668,-0.410826,0.364581
26,60,-1.0472,-0.698132,-0.174533,-0.174533,-1.04365,-0.692709,-0.160839,-0.186685,-0.709722,-0.303668,-0.410826,0.364581
26,60,-1.0472,-0.698132,-0.174533,-0.174533,-1.04365,-0.692709,-0.160839,-0.186685,-0.709722,-0.303668,-0.410826,0.364581
26,60,-1.0472,-0.698132,-0.174533,-0.174533,-1.04365,-0.692709,-0.160839,-0.186685,-0.709722,-0.303668,-0.410826,0.364581
26,60,-1.0472,-0.698132,-0.174533,-0.174533,-1.04365,-0.692709,-0.160839,-0.186685,-0.709722,-0.303668,-0.410826,0.364581
26,60,-1.0472,-0.698132,-0.174533,-0.174533,-1.04365,-0.692709,-0.160839,-0.186685,-0.709722,-0.303668,-0.410826,0.364581
26,60,-1.0472,-0.698132,-0.174533,-0.174533,-1.04365,-0.692709,-0.160839,-0.186685,-0.709722,-0.303668,-0.410826,0.364581
26,60,-1.0472,-0.698132,-0.174533,-0.174533,-1.04365,-0.692709,-0.160839,-0.186685,-0.709722,-0.303668,-0.410826,0.364581
26,60,-1.0472,-0.698132,-0.174533,-0.174533,-1.04365,-0.692709,-0.160839,-0.186685,-0.709722,-0.303668,-0.410826,0.364581
26,60,-1.0472,-0.698132,-0.174533,-0.174533,-1.04365,-0.692709,-0.160839,-0.186685,-0.709722,-0.303668,-0.410826,0.364581
26,60,-1.0472,-0.698132,-0.174533,-0.174533,-1.04365,-0.692709,-0.160839,-0.186685,-0.709722,-0.303668,-0.410826,0.364581
26,60,-1.0472,-0.698132,-0.174533,-0.174533,-1.04365,-0.692709,-0.160839,-0.186685,-0.709722,-0.303668,-0.410826,0.364581
26,60,-1.0472,-0.698132,-0.174533,-0.174533,-1.04365,-0.692709,-0.160839,-0.186685,-0.709722,-0.303668,-0.410826,0.364581
26,60,-1.0472,-0.698132,-0.174533,-0.174533,-1.04365,-0.692709,-0.160839,-0.186685,-0.709722,-0.303668,-0.410826,0.364581
26,60,-1.0472,-0.698132,-0.174533,-0.174533,-1.04365,-0.692709,-0.160839,-0.186685,-0.709722,-0.303668,-0.410826,0.364581
26,60,-1.0472,-0.698132,-0.174533,-0.174533,-1.04365,-0.692709,-0.160839,-0.186685,-0.709722,-0.303668,-0.410826,0.364581
26,60,-1.0472,-0.698132,-0.174533,-0.174533,-1.04365,-0.692709,-0.160839,-0.186685,-0.709722,-0.303668,-0.410826,0.364581
26,60,-1.0472,-0.698132,-0.174533,-0.174533,-1.04365,-0.692709,-0.160839,-0.186685,-0.709722,-0.303668,-0.410826,0.364581
26,60,-1.0472,-0.698132,-0.174533,-0.174533,-1.04365,-0.692709,-0.160839,-0.186685,-0.709722,-0.303668,-0.410826,0.364581
26,60,-1.0472,-0.698132,-0.174533,-0.174533,-1.04365,-0.692709,-0.160839,-0.186685,-0.709722,-0.303668,-0.410826,0.364581
26,60,-1.0472,-0.698132,-0.174533,-0.174533,-1.04365,-0.692709,-0.160839,-0.186685,-0.709722,-0.303668,-0.410826,0.364581
26,60,-1.0472,-0.698132,-0.174533,-0.174533,-1.04365,-0.692709,-0.160839,-0.186685,-0.709722,-0.303668,-0.410826,0.364581
26,60,-1.0472,-0.698132,-0.174533,-0.174533,-1.04365,-0.692709,-0.160839,-0.186685,-0.709722,-0.303668,-0.410826,0.364581
26,60,-1.0472,-0.698132,-0.174533,-0.174533,-1.04365,-0.692709,-0.160839,-0.186685,-0.709722,-0.303668,-0.410826,0.364581
26,60,-1.0472,-0.698132,-0.174533,-0.174533,-1.04365,-0.692709,-0.160839,-0.186685,-0.709722,-0.303668,-0.410826,0.364581
26,60,-1.0472,-0.698132,-0.174533,-0.174533,-1.04365,-0.692709,-0.160839,-0.186685,-0.709722,-0.303668,-0.410826,0.364581
26,60,-1.0472,-0.698132,-0.174533,-0.174533,-1.04365,-0.692709,-0.160839,-0.186685,-0.709722,-0.303668,-0.410826,0.364581
26,60,-1.0472,-0.698132,-0.174533,-0.174533,-1.04365,-0.692709,-0.160839,-0.186685,-0.709722,-0.303668,-0.410826,0.364581
26,60,-1.0472,-0.698132,-0.174533,-0.174533,-1.04365,-0.692709,-0.160839,-0.186685,-0.709722,-0.303668,-0.410826,0.364581
26,60,-1.0472,-0.698132,-0.174533,-0.174533,-1.04365,-0.692709,-0.160839,-0.186685,-0.709722,-0.303668,-0.410826,0.364581
26,60,-1.0472,-0.698132,-0.174533,-0.174533,-1.04365,-0.692709,-0.160839,-0.186685,-0.709722,-0.303668,-0.410826,0.364581
26,60,-1.0472,-0.698132,-0.174533,-0.174533,-1.04365,-0.692709,-0.160839,-0.186685,-0.709722,-0.303668,-0.410826,0.364581
26,60,-1.0472,-0.698132,-0.174533,-0.174533,-1.04365,-0.692709,-0.160839,-0.186685,-0.709722,-0.303668,-0.410826,0.364581
26,60,-1.0472,-0.698132,-0.174533,-0.174533,-1.04365,-0.692709,-0.160839,-0.186685,-0.709722,-0.303668,-0.410826,0.364581
26,60,-1.0472,-0.698132,-0.174533,-0.174533,-1.04365,-0.692709,-0.160839,-0.186685,-0.709722,-0.303668,-0.410826,0.364581
26,60,-1.0472,-0.698132,-0.174533,-0.174533,-1.04365,-0.692709,-0.160839,-0.186685,-0.709722,-0.303668,-0.410826,0.364581
26,60,-1.0472,-0.698132,-0.174533,-0.174533,-1.04365,-0.692709,-0.160839,-0.186685,-0.709722,-0.303668,-0.410826,0.364581
26,60,-1.0472,-0.698132,-0.174533,-0.174533,-1.04365,-0.692709,-0.160841,-0.186745,-0.709722,-0.303668,-0.410748,0.366364
26,60,-1.0472,-0.698132,-0.174533,-0.174533,-1.04365,-0.692709,-0.160841,-0.186745,-0.709722,-0.303668,-0.410748,0.366364
26,60,-1.0472,-0.698132,-0.174533,-0.174533,-1.04365,-0.692709,-0.160841,-0.186745,-0.709722,-0.303668,-0.410748,0.366364
26,60,-1.0472,-0.698132,-0.174533,-0.174533,-1.04365,-0.692709,-0.160841,-0.186745,-0.709722,-0.303668,-0.410748,0.366364
26,60,-1.0472,-0.698132,-0.174533,-0.174533,-1.04365,-0.692709,-0.160841,-0.186745,-0.709722,-0.303668,-0.410748,0.366364
26,60,-1.0472,-0.698132,-0.174533,-0.174533,-1.04365,-0.692709,-0.160841,-0.186745,-0.709722,-0.303668,-0.410748,0.366364
26,60,-1.0472,-0.698132,-0.174533,-0.174533,-1.04365,-0.692709,-0.160841,-0.186745,-0.709722,-0.303668,-0.410748,0.366364
26,60,-1.0472,-0.698132,-0.174533,-0.174533,-1.04365,-0.692709,-0.160841,-0.186745,-0.709722,-0.303668,-0.410748,0.366364
26,60,-1.0472,-0.698132,-0.174533,-0.174533,-1.04365,-0.692709,-0.160841,-0.186745,-0.709722,-0.303668,-0.410748,0.366364
26,60,-1.0472,-0.698132,-0.174533,-0.174533,-1.04365,-0.692709,-0.160841,-0.186745,-0.709722,-0.303668,-0.410748,0.366364
26,60,-1.0472,-0.698132,-0.174533,-0.174533,-1.04365,-0.692709,-0.160841,-0.186745,-0.709722,-0.303668,-0.410748,0.366364
26,60,-1.0472,-0.698132,-0.174533,-0.174533,-1.04365,-0.692709,-0.160841,-0.186745,-0.709722,-0.303668,-0.410748,0.366364
26,60,-1.0472,-0.698132,-0.174533,-0.174533,-1.04365,-0.692709,-0.160841,-0.186745,-0.709722,-0.303668,-0.410748,0.366364
26,60,-1.0472,-0.698132,-0.174533,-0.174533,-1.04365,-0.692709,-0.160841,-0.186745,-0.709722,-0.303668,-0.410748,0.366364
26,60,-1.0472,-0.698132,-0.174533,-0.174533,-1.04365,-0.692709,-0.160841,-0.186745,-0.709722,-0.303668,-0.410748,0.366364
26,60,-1.0472,-0.698132,-0.174533,-0.174533,-1.04365,-0.692709,-0.160841,-0.186745,-0.709722,-0.303668,-0.410748,0.366364
26,60,-1.0472,-0.698132,-0.174533,-0.174533,-1.04365,-0.692709,-0.160841,-0.186745,-0.709722,-0.303668,-0.410748,0.366364
26,60,-1.0472,-0.698132,-0.174533,-0.174533,-1.04365,-0.692709,-0.160841,-0.186745,-0.709722,-0.303668,-0.410748,0.366364
26,60,-1.0472,-0.698132,-0.174533,-0.174533,-1.04365,-0.692709,-0.160841,-0.186745,-0.709722,-0.303668,-0.410748,0.366364
26,60,-1.0472,-0.698132,-0.174533,-0.174533,-1.04365,-0.692709,-0.160841,-0.186745,-0.709722,-0.303668,-0.410748,0.366364
26,60,-1.0472,-0.698132,-0.174533,-0.174533,-1.04365,-0.692709,-0.160841,-0.186745,-0.709722,-0.303668,-0.410748,0.366364
26,60,-1.0472,-0.698132,-0.174533,-0.174533,-1.04365,-0.692709,-0.160841,-0.186745,-0.709722,-0.303668,-0.410748,0.366364
26,60,-1.0472,-0.698132,-0.174533,-0.174533,-1.04365,-0.692709,-0.160841,-0.186745,-0.709722,-0.303668,-0.410748,0.366364
26,60,-1.0472,-0.698132,-0.174533,-0.174533,-1.04365,-0.692709,-0.160841,-0.186745,-0.709722,-0.303668,-0.410748,0.366364
26,60,-1.0472,-0.698132,-0.174533,-0.174533,-1.04365,-0.692709,-0.160841,-0.186745,-0.709722,-0.303668,-0.410748,0.366364
26,60,-1.0472,-0.698132,-0.174533,-0.174533,-1.04365,-0.692709,-0.160841,-0.186745,-0.709722,-0.303668,-0.410748,0.366364
26,60,-1.0472,-0.698132,-0.174533,-0.174533,-1.04365,-0.692709,-0.160841,-0.186745,-0.709722,-0.303668,-0.410748,0.366364
26,60,-1.0472,-0.698132,-0.174533,-0.174533,-1.04365,-0.692709,-0.160841,-0.186745,-0.709722,-0.303668,-0.410748,0.366364
26,60,-1.0472,-0.698132,-0.174533,-0.174533,-1.04365,-0.692709,-0.160841,-0.186745,-0.709722,-0.303668,-0.410748,0.366364
26,60,-1.0472,-0.698132,-0.174533,-0.174533,-1.04365,-0.692709,-0.160841,-0.186745,-0.709722,-0.303668,-0.410748,0.366364
26,60,-1.0472,-0.698132,-0.174533,-0.174533,-1.04365,-0.692709,-0.160841,-0.186745,-0.709722,-0.303668,-0.410748,0.366364
26,60,-1.0472,-0.698132,-0.174533,-0.174533,-1.04365,-0.692709,-0.160841,-0.186745,-0.709722,-0.303668,-0.410748,0.366364
26,60,-1.0472,-0.698132,-0.174533,-0.174533,-1.04365,-0.692709,-0.160841,-0.186745,-0.709722,-0.303668,-0.410748,0.366364
26,60,-1.0472,-0.698132,-0.174533,-0.174533,-1.04365,-0.692709,-0.160841,-0.186745,-0.709722,-0.303668,-0.410748,0.366364
26,60,-1.0472,-0.698132,-0.174533,-0.174533,-1.04365,-0.692709,-0.160841,-0.186745,-0.709722,-0.303668,-0.410748,0.366364
26,60,-1.0472,-0.698132,-0.174533,-0.174533,-1.04365,-0.692709,-0.160841,-0.186745,-0.709722,-0.303668,-0.410748,0.366364
26,60,-1.0472,-0.698132,-0.174533,-0.174533,-1.04365,-0.692709,-0.160841,-0.186745,-0.709722,-0.303668,-0.410748,0.366364
26,60,-1.0472,-0.698132,-0.174533,-0.174533,-1.04365,-0.692709,-0.160841,-0.186745,-0.709722,-0.303668,-0.410748,0.366364
26,60,-1.0472,-0.698132,-0.174533,-0.174533,-1.04365,-0.692709,-0.160841,-0.186745,-0.709722,-0.303668,-0.410748,0.366364
26,60,-1.0472,-0.698132,-0.174533,-0.174533,-1.04365,-0.692709,-0.160841,-0.186745,-0.709722,-0.303668,-0.410748,0.366364
26,60,-1.0472,-0.698132,-0.174533,-0.174533,-1.04365,-0.692709,-0.160841,-0.186745,-0.709722,-0.303668,-0.410748,0.366364
26,60,-1.0472,-0.698132,-0.174533,-0.174533,-1.04365,-0.692709,-0.160841,-0.186745,-0.709722,-0.303668,-0.410748,0.366364
26,60,-1.0472,-0.698132,-0.174533,-0.174533,-1.04365,-0.692709,-0.160841,-0.186745,-0.709722,-0.303668,-0.410748,0.366364
26,60,-1.0472,-0.698132,-0.174533,-0.174533,-1.04365,-0.692709,-0.160841,-0.186745,-0.709722,-0.303668,-0.410748,0.366364
26,60,-1.0472,-0.698132,-0.174533,-0.174533,-1.04365,-0.692709,-0.160841,-0.186745,-0.709722,-0.303668,-0.410748,0.366364
26,60,-1.0472,-0.698132,-0.174533,-0.174533,-1.04365,-0.692709,-0.160841,-0.186745,-0.709722,-0.303668,-0.410748,0.366364
26,60,-1.0472,-0.698132,-0.174533,-0.174533,-1.04365,-0.692709,-0.160841,-0.186745,-0.709722,-0.303668,-0.410748,0.366364
26,60,-1.0472,-0.698132,-0.174533,-0.174533,-1.04365,-0.692709,-0.160841,-0.186745,-0.709722,-0.303668,-0.410748,0.366364
26,60,-1.0472,-0.698132,-0.174533,-0.174533,-1.04365,-0.692709,-0.160841,-0.186745,-0.709722,-0.303668,-0.410748,0.366364
26,60,-1.0472,-0.698132,-0.174533,-0.174533,-1.04365,-0.692709,-0.160841,-0.186745,-0.709722,-0.303668,-0.410748,0.366364
26,60,-1.0472,-0.698132,-0.174533,-0.174533,-1.04365,-0.692709,-0.160841,-0.186745,-0.709722,-0.303668,-0.410748,0.366364
26,60,-1.0472,-0.698132,-0.174533,-0.174533,-1.04365,-0.692709,-0.160841,-0.186745,-0.709722,-0.303668,-0.410748,0.366364
26,60,-1.0472,-0.698132,-0.174533,-0.174533,-1.04365,-0.692709,-0.160841,-0.186745,-0.709722,-0.303668,-0.410748,0.366364
26,60,-1.0472,-0.698132,-0.174533,-0.174533,-1.04365,-0.692709,-0.160841,-0.186745,-0.709722,-0.303668,-0.410748,0.366364
26,60,-1.0472,-0.698132,-0.174533,-0.174533,-1.04365,-0.692709,-0.160841,-0.186745,-0.709722,-0.303668,-0.410748,0.366364
26,60,-1.0472,-0.698132,-0.174533,-0.174533,-1.04365,-0.692709,-0.160841,-0.186745,-0.709722,-0.303668,-0.410748,0.366364
26,60,-1.0472,-0.698132,-0.174533,-0.174533,-1.04365,-0.692709,-0.160841,-0.186745,-0.709722,-0.303668,-0.410748,0.366364
26,60,-1.0472,-0.698132,-0.174533,-0.174533,-1.04365,-0.692709,-0.160841,-0.186745,-0.709722,-0.303668,-0.410748,0.366364
26,60,-1.0472,-0.698132,-0.174533,-0.174533,-1.04365,-0.692709,-0.160841,-0.186745,-0.709722,-0.303668,-0.410748,0.366364
26,60,-1.0472,-0.698132,-0.174533,-0.174533,-1.04365,-0.692709,-0.160841,-0.186745,-0.709722,-0.303668,-0.410748,0.366364
26,60,-1.0472,-0.698132,-0.174533,-0.174533,-1.04365,-0.692709,-0.160841,-0.186745,-0.709722,-0.303668,-0.410748,0.366364
26,60,-1.0472,-0.698132,-0.174533,-0.174533,-1.04365,-0.692709,-0.160841,-0.186745,-0.709722,-0.303668,-0.410748,0.366364
26,60,-1.0472,-0.698132,-0.174533,-0.174533,-1.04365,-0.692709,-0.160841,-0.186745,-0.709722,-0.303668,-0.410748,0.366364
26,60,-1.0472,-0.698132,-0.174533,-0.174533,-1.04365,-0.692709,-0.160841,-0.186745,-0.709722,-0.303668,-0.410748,0.366364
26,60,-1.0472,-0.698132,-0.174533,-0.174533,-1.04365,-0.692709,-0.160841,-0.186745,-0.709722,-0.303668,-0.410748,0.366364
26,60,-1.0472,-0.698132,-0.174533,-0.174533,-1.04365,-0.692709,-0.160841,-0.186745,-0.709722,-0.303668,-0.410748,0.366364
26,60,-1.0472,-0.698132,-0.174533,-0.174533,-1.04365,-0.692709,-0.160841,-0.186745,-0.709722,-0.303668,-0.410748,0.366364
26,60,-1.0472,-0.698132,-0.174533,-0.174533,-1.04365,-0.692709,-0.160841,-0.186745,-0.709722,-0.303668,-0.410748,0.366364
26,60,-1.0472,-0.698132,-0.174533,-0.174533,-1.04365,-0.692709,-0.160841,-0.186745,-0.709722,-0.303668,-0.410748,0.366364
26,60,-1.0472,-0.698132,-0.174533,-0.174533,-1.04365,-0.692709,-0.160841,-0.186745,-0.709722,-0.303668,-0.410748,0.366364
26,60,-1.0472,-0.698132,-0.174533,-0.174533,-1.04365,-0.692709,-0.160841,-0.186745,-0.709722,-0.303668,-0.410748,0.366364
26,60,-1.0472,-0.698132,-0.174533,-0.174533,-1.04365,-0.692709,-0.160841,-0.186745,-0.709722,-0.303668,-0.410748,0.366364
26,60,-1.0472,-0.698132,-0.174533,-0.174533,-1.04365,-0.692709,-0.160841,-0.186745,-0.709722,-0.303668,-0.410748,0.366364
26,60,-1.0472,-0.698132,-0.174533,-0.174533,-1.04365,-0.692709,-0.160841,-0.186745,-0.709722,-0.303668,-0.410748,0.366364
26,60,-1.0472,-0.698132,-0.174533,-0.174533,-1.04365,-0.692709,-0.160841,-0.186745,-0.709722,-0.303668,-0.410748,0.366364
26,60,-1.0472,-0.698132,-0.174533,-0.174533,-1.04365,-0.692709,-0.160841,-0.186745,-0.709722,-0.303668,-0.410748,0.366364
26,60,-1.0472,-0.698132,-0.174533,-0.174533,-1.04365,-0.692709,-0.160841,-0.186745,-0.709722,-0.303668,-0.410748,0.366364
26,60,-1.0472,-0.698132,-0.174533,-0.174533,-1.04365,-0.692709,-0.160841,-0.186745,-0.709722,-0.303668,-0.410748,0.366364
26,60,-1.0472,-0.698132,-0.174533,-0.174533,-1.04365,-0.692709,-0.160841,-0.186745,-0.709722,-0.303668,-0.410748,0.366364
26,60,-1.0472,-0.698132,-0.174533,-0.174533,-1.04365,-0.692709,-0.160841,-0.186745,-0.709722,-0.303668,-0.410748,0.366364
26,60,-1.0472,-0.698132,-0.174533,-0.174533,-1.04365,-0.692709,-0.160841,-0.186745,-0.709722,-0.303668,-0.410748,0.366364
26,60,-1.0472,-0.698132,-0.174533,-0.174533,-1.04365,-0.692709,-0.160841,-0.186745,-0.709722,-0.303668,-0.410748,0.366364
26,60,-1.0472,-0.698132,-0.174533,-0.174533,-1.04365,-0.692709,-0.160841,-0.186745,-0.709722,-0.303668,-0.410748,0.366364
26,60,-1.0472,-0.698132,-0.174533,-0.174533,-1.04365,-0.692709,-0.160841,-0.186745,-0.709722,-0.303668,-0.410748,0.366364
26,60,-1.0472,-0.698132,-0.174533,-0.174533,-1.04365,-0.692709,-0.160841,-0.186745,-0.709722,-0.303668,-0.410748,0.366364
26,60,-1.0472,-0.698132,-0.174533,-0.174533,-1.04365,-0.692709,-0.160841,-0.186745,-0.709722,-0.303668,-0.410748,0.366364
26,60,-1.0472,-0.698132,-0.174533,-0.174533,-1.04365,-0.692709,-0.160841,-0.186745,-0.709722,-0.303668,-0.410748,0.366364
26,60,-1.0472,-0.698132,-0.174533,-0.174533,-1.04365,-0.692709,-0.160841,-0.186745,-0.709722,-0.303668,-0.410748,0.366364
26,60,-1.0472,-0.698132,-0.174533,-0.174533,-1.04365,-0.692709,-0.160841,-0.186745,-0.709722,-0.303668,-0.410748,0.366364
26,60,-1.0472,-0.698132,-0.174533,-0.174533,-1.04365,-0.692709,-0.160841,-0.186745,-0.709722,-0.303668,-0.410748,0.366364
26,60,-1.0472,-0.698132,-0.174533,-0.174533,-1.04365,-0.692709,-0.160841,-0.186745,-0.709722,-0.303668,-0.410748,0.366364
26,60,-1.0472,-0.698132,-0.174533,-0.174533,-1.04365,-0.692709,-0.160841,-0.186745,-0.709722,-0.303668,-0.410748,0.366364
26,60,-1.0472,-0.698132,-0.174533,-0.174533,-1.04365,-0.692709,-0.160841,-0.186745,-0.709722,-0.303668,-0.410748,0.366364
26,60,-1.0472,-0.698132,-0.174533,-0.174533,-1.04365,-0.692709,-0.160841,-0.186745,-0.709722,-0.303668,-0.410748,0.366364
26,60,-1.0472,-0.698132,-0.174533,-0.174533,-1.04365,-0.692709,-0.160841,-0.186745,-0.709722,-0.303668,-0.410748,0.366364
26,60,-1.0472,-0.698132,-0.174533,-0.174533,-1.04365,-0.692709,-0.160841,-0.186745,-0.709722,-0.303668,-0.410748,0.366364
26,60,-1.0472,-0.698132,-0.174533,-0.174533,-1.04365,-0.692709,-0.160841,-0.186745,-0.709722,-0.303668,-0.410748,0.366364
26,60,-1.0472,-0.698132,-0.174533,-0.174533,-1.04365,-0.692709,-0.160841,-0.186745,-0.709722,-0.303668,-0.410748,0.366364
26,60,-1.0472,-0.698132,-0.174533,-0.174533,-1.04365,-0.692709,-0.160841,-0.186745,-0.709722,-0.303668,-0.410748,0.366364
26,60,-1.0472,-0.698132,-0.174533,-0.174533,-1.04365,-0.692709,-0.160841,-0.186745,-0.709722,-0.303668,-0.410748,0.366364
26,60,-1.0472,-0.698132,-0.174533,-0.174533,-1.04365,-0.692709,-0.160841,-0.186745,-0.709722,-0.303668,-0.410748,0.366364
26,60,-1.0472,-0.698132,-0.174533,-0.174533,-1.04365,-0.692709,-0.160841,-0.186745,-0.709722,-0.303668,-0.410748,0.366364
26,60,-1.0472,-0.698132,-0.174533,-0.174533,-1.04365,-0.692709,-0.160841,-0.186745,-0.709722,-0.303668,-0.410748,0.366364
26,60,-1.0472,-0.698132,-0.174533,-0.174533,-1.04365,-0.692709,-0.160841,-0.186745,-0.709722,-0.303668,-0.410748,0.366364
26,60,-1.0472,-0.698132,-0.174533,-0.174533,-1.04365,-0.692709,-0.160841,-0.186745,-0.709722,-0.303668,-0.410748,0.366364
26,60,-1.0472,-0.698132,-0.174533,-0.174533,-1.04365,-0.692709,-0.160841,-0.186745,-0.709722,-0.303668,-0.410748,0.366364
26,60,-1.0472,-0.698132,-0.174533,-0.174533,-1.04365,-0.692709,-0.160841,-0.186745,-0.709722,-0.303668,-0.410748,0.366364
26,60,-1.0472,-0.698132,-0.174533,-0.174533,-1.04365,-0.692709,-0.160841,-0.186745,-0.709722,-0.303668,-0.410748,0.366364
26,60,-1.0472,-0.698132,-0.174533,-0.174533,-1.04365,-0.692709,-0.160841,-0.186745,-0.709722,-0.303668,-0.410748,0.366364
26,60,-1.0472,-0.698132,-0.174533,-0.174533,-1.04365,-0.692709,-0.160841,-0.186745,-0.709722,-0.303668,-0.410748,0.366364
26,60,-1.0472,-0.698132,-0.174533,-0.174533,-1.04365,-0.692709,-0.160841,-0.186745,-0.709722,-0.303668,-0.410748,0.366364
26,60,-1.0472,-0.698132,-0.174533,-0.174533,-1.04365,-0.692709,-0.160841,-0.186745,-0.709722,-0.303668,-0.410748,0.366364
26,60,-1.0472,-0.698132,-0.174533,-0.174533,-1.04365,-0.692709,-0.160841,-0.186745,-0.709722,-0.303668,-0.410748,0.366364
26,60,-1.0472,-0.698132,-0.174533,-0.174533,-1.04365,-0.692709,-0.160841,-0.186745,-0.709722,-0.303668,-0.410748,0.366364
26,60,-1.0472,-0.698132,-0.174533,-0.174533,-1.04365,-0.692709,-0.160841,-0.186745,-0.709722,-0.303668,-0.410748,0.366364
26,60,-1.0472,-0.698132,-0.174533,-0.174533,-1.04365,-0.692709,-0.160841,-0.186745,-0.709722,-0.303668,-0.410748,0.366364
26,60,-1.0472,-0.698132,-0.174533,-0.174533,-1.04365,-0.692709,-0.160844,-0.186804,-0.709722,-0.303668,-0.41067,0.368143
26,60,-1.0472,-0.698132,-0.174533,-0.174533,-1.04365,-0.692709,-0.160844,-0.186804,-0.709722,-0.303668,-0.41067,0.368143
26,60,-1.0472,-0.698132,-0.174533,-0.174533,-1.04365,-0.692709,-0.160844,-0.186804,-0.709722,-0.303668,-0.41067,0.368143
26,60,-1.0472,-0.698132,-0.174533,-0.174533,-1.04365,-0.692709,-0.160844,-0.186804,-0.709722,-0.303668,-0.41067,0.368143
26,60,-1.0472,-0.698132,-0.174533,-0.174533,-1.04365,-0.692709,-0.160844,-0.186804,-0.709722,-0.303668,-0.41067,0.368143
26,60,-1.0472,-0.698132,-0.174533,-0.174533,-1.04365,-0.692709,-0.160844,-0.186804,-0.709722,-0.303668,-0.41067,0.368143
26,60,-1.0472,-0.698132,-0.174533,-0.174533,-1.04365,-0.692709,-0.160844,-0.186804,-0.709722,-0.303668,-0.41067,0.368143
26,60,-1.0472,-0.698132,-0.174533,-0.174533,-1.04365,-0.692709,-0.160844,-0.186804,-0.709722,-0.303668,-0.41067,0.368143
26,60,-1.0472,-0.698132,-0.174533,-0.174533,-1.04365,-0.692709,-0.160844,-0.186804,-0.709722,-0.303668,-0.41067,0.368143
26,60,-1.0472,-0.698132,-0.174533,-0.174533,-1.04365,-0.692709,-0.160844,-0.186804,-0.709722,-0.303668,-0.41067,0.368143
26,60,-1.0472,-0.698132,-0.174533,-0.174533,-1.04365,-0.692709,-0.160844,-0.186804,-0.709722,-0.303668,-0.41067,0.368143
26,60,-1.0472,-0.698132,-0.174533,-0.174533,-1.04365,-0.69276,-0.160844,-0.186804,-0.709722,-0.300786,-0.41067,0.368143
26,60,-1.0472,-0.698132,-0.174533,-0.174533,-1.04365,-0.69276,-0.160844,-0.186804,-0.709722,-0.300786,-0.41067,0.368143
26,60,-1.0472,-0.698132,-0.174533,-0.174533,-1.04365,-0.69276,-0.160844,-0.186804,-0.709722,-0.300786,-0.41067,0.368143
26,60,-1.0472,-0.698132,-0.174533,-0.174533,-1.04365,-0.69276,-0.160844,-0.186804,-0.709722,-0.300786,-0.41067,0.368143
26,60,-1.0472,-0.698132,-0.174533,-0.174533,-1.04365,-0.69276,-0.160844,-0.186804,-0.709722,-0.300786,-0.41067,0.368143
26,60,-1.0472,-0.698132,-0.174533,-0.174533,-1.04365,-0.69276,-0.160844,-0.186804,-0.709722,-0.300786,-0.41067,0.368143
26,60,-1.0472,-0.698132,-0.174533,-0.174533,-1.04365,-0.69276,-0.160844,-0.186804,-0.709722,-0.300786,-0.41067,0.368143
26,60,-1.0472,-0.698132,-0.174533,-0.174533,-1.04365,-0.69276,-0.160844,-0.186804,-0.709722,-0.300786,-0.41067,0.368143
26,60,-1.0472,-0.698132,-0.174533,-0.174533,-1.04365,-0.69276,-0.160844,-0.186804,-0.709722,-0.300786,-0.41067,0.368143
26,60,-1.0472,-0.698132,-0.174533,-0.174533,-1.04365,-0.69276,-0.160844,-0.186804,-0.709722,-0.300786,-0.41067,0.368143
26,60,-1.0472,-0.698132,-0.174533,-0.174533,-1.04365,-0.69276,-0.160844,-0.186804,-0.709722,-0.300786,-0.41067,0.368143
26,60,-1.0472,-0.698132,-0.174533,-0.174533,-1.04365,-0.69276,-0.160844,-0.186804,-0.709722,-0.300786,-0.41067,0.368143
26,60,-1.0472,-0.698132,-0.174533,-0.174533,-1.04365,-0.69276,-0.160844,-0.186804,-0.709722,-0.300786,-0.41067,0.368143
26,60,-1.0472,-0.698132,-0.174533,-0.174533,-1.04365,-0.69276,-0.160844,-0.186804,-0.709722,-0.300786,-0.41067,0.368143
26,60,-1.0472,-0.698132,-0.174533,-0.174533,-1.04365,-0.69276,-0.160844,-0.186804,-0.709722,-0.300786,-0.41067,0.368143
26,60,-1.0472,-0.698132,-0.174533,-0.174533,-1.04365,-0.69276,-0.160844,-0.186804,-0.709722,-0.300786,-0.41067,0.368143
26,60,-1.0472,-0.698132,-0.174533,-0.174533,-1.04365,-0.69276,-0.160844,-0.186804,-0.709722,-0.300786,-0.41067,0.368143
26,60,-1.0472,-0.698132,-0.174533,-0.174533,-1.04365,-0.69276,-0.160844,-0.186804,-0.709722,-0.300786,-0.41067,0.368143
26,60,-1.0472,-0.698132,-0.174533,-0.174533,-1.04365,-0.69276,-0.160844,-0.186804,-0.709722,-0.300786,-0.41067,0.368143
26,60,-1.0472,-0.698132,-0.174533,-0.174533,-1.04365,-0.69276,-0.160844,-0.186804,-0.709722,-0.300786,-0.41067,0.368143
26,60,-1.0472,-0.698132,-0.174533,-0.174533,-1.04365,-0.69276,-0.160844,-0.186804,-0.709722,-0.300786,-0.41067,0.368143
26,60,-1.0472,-0.698132,-0.174533,-0.174533,-1.04365,-0.69276,-0.160844,-0.186804,-0.709722,-0.300786,-0.41067,0.368143
26,60,-1.0472,-0.698132,-0.174533,-0.174533,-1.04365,-0.69276,-0.160844,-0.186804,-0.709722,-0.300786,-0.41067,0.368143
26,60,-1.0472,-0.698132,-0.174533,-0.174533,-1.04365,-0.69276,-0.160844,-0.186804,-0.709722,-0.300786,-0.41067,0.368143
26,60,-1.0472,-0.698132,-0.174533,-0.174533,-1.04365,-0.69276,-0.160844,-0.186804,-0.709722,-0.300786,-0.41067,0.368143
26,60,-1.0472,-0.698132,-0.174533,-0.174533,-1.04365,-0.69276,-0.160844,-0.186804,-0.709722,-0.300786,-0.41067,0.368143
26,60,-1.0472,-0.698132,-0.174533,-0.174533,-1.04365,-0.69276,-0.160844,-0.186804,-0.709722,-0.300786,-0.41067,0.368143
26,60,-1.0472,-0.698132,-0.174533,-0.174533,-1.04365,-0.69276,-0.160844,-0.186804,-0.709722,-0.300786,-0.41067,0.368143
26,60,-1.0472,-0.698132,-0.174533,-0.174533,-1.04365,-0.69276,-0.160844,-0.186804,-0.709722,-0.300786,-0.41067,0.368143
26,60,-1.0472,-0.698132,-0.174533,-0.174533,-1.04365,-0.69276,-0.160844,-0.186804,-0.709722,-0.300786,-0.41067,0.368143
26,60,-1.0472,-0.698132,-0.174533,-0.174533,-1.04365,-0.69276,-0.160844,-0.186804,-0.709722,-0.300786,-0.41067,0.368143
26,60,-1.0472,-0.698132,-0.174533,-0.174533,-1.04365,-0.69276,-0.160844,-0.186804,-0.709722,-0.300786,-0.41067,0.368143
26,60,-1.0472,-0.698132,-0.174533,-0.174533,-1.04365,-0.69276,-0.160844,-0.186804,-0.709722,-0.300786,-0.41067,0.368143
26,60,-1.0472,-0.698132,-0.174533,-0.174533,-1.04365,-0.69276,-0.160844,-0.186804,-0.709722,-0.300786,-0.41067,0.368143
26,60,-1.0472,-0.698132,-0.174533,-0.174533,-1.04365,-0.69276,-0.160844,-0.186804,-0.709722,-0.300786,-0.41067,0.368143
26,60,-1.0472,-0.698132,-0.174533,-0.174533,-1.04365,-0.69276,-0.160844,-0.186804,-0.709722,-0.300786,-0.41067,0.368143
26,60,-1.0472,-0.698132,-0.174533,-0.174533,-1.04365,-0.69276,-0.160844,-0.186804,-0.709722,-0.300786,-0.41067,0.368143
26,60,-1.0472,-0.698132,-0.174533,-0.174533,-1.04365,-0.69276,-0.160844,-0.186804,-0.709722,-0.300786,-0.41067,0.368143
26,60,-1.0472,-0.698132,-0.174533,-0.174533,-1.04365,-0.69276,-0.160844,-0.186804,-0.709722,-0.300786,-0.41067,0.368143
26,60,-1.0472,-0.698132,-0.174533,-0.174533,-1.04365,-0.69276,-0.160844,-0.186804,-0.709722,-0.300786,-0.41067,0.368143
26,60,-1.0472,-0.698132,-0.174533,-0.174533,-1.04365,-0.69276,-0.160844,-0.186804,-0.709722,-0.300786,-0.41067,0.368143
26,60,-1.0472,-0.698132,-0.174533,-0.174533,-1.04365,-0.69276,-0.160844,-0.186804,-0.709722,-0.300786,-0.41067,0.368143
26,60,-1.0472,-0.698132,-0.174533,-0.174533,-1.04365,-0.69276,-0.160844,-0.186804,-0.709722,-0.300786,-0.41067,0.368143
26,60,-1.0472,-0.698132,-0.174533,-0.174533,-1.04365,-0.69276,-0.160844,-0.186804,-0.709722,-0.300786,-0.41067,0.368143
26,60,-1.0472,-0.698132,-0.174533,-0.174533,-1.04365,-0.69276,-0.160844,-0.186804,-0.709722,-0.300786,-0.41067,0.368143
26,60,-1.0472,-0.698132,-0.174533,-0.174533,-1.04365,-0.69276,-0.160844,-0.186804,-0.709722,-0.300786,-0.41067,0.368143
26,60,-1.0472,-0.698132,-0.174533,-0.174533,-1.04365,-0.69276,-0.160844,-0.186804,-0.709722,-0.300786,-0.41067,0.368143
26,60,-1.0472,-0.698132,-0.174533,-0.174533,-1.04365,-0.69276,-0.160844,-0.186804,-0.709722,-0.300786,-0.41067,0.368143
26,60,-1.0472,-0.698132,-0.174533,-0.174533,-1.04365,-0.69276,-0.160844,-0.186804,-0.709722,-0.300786,-0.41067,0.368143
26,60,-1.0472,-0.698132,-0.174533,-0.174533,-1.04365,-0.69276,-0.160844,-0.186804,-0.709722,-0.300786,-0.41067,0.368143
26,60,-1.0472,-0.698132,-0.174533,-0.174533,-1.04365,-0.69276,-0.160844,-0.186804,-0.709722,-0.300786,-0.41067,0.368143
26,60,-1.0472,-0.698132,-0.174533,-0.174533,-1.04365,-0.69276,-0.160844,-0.186804,-0.709722,-0.300786,-0.41067,0.368143
26,60,-1.0472,-0.698132,-0.174533,-0.174533,-1.04365,-0.69276,-0.160844,-0.186804,-0.709722,-0.300786,-0.41067,0.368143
26,60,-1.0472,-0.698132,-0.174533,-0.174533,-1.04365,-0.69276,-0.160844,-0.186804,-0.709722,-0.300786,-0.41067,0.368143
26,60,-1.0472,-0.698132,-0.174533,-0.174533,-1.04365,-0.69276,-0.160844,-0.186804,-0.709722,-0.300786,-0.41067,0.368143
26,60,-1.0472,-0.698132,-0.174533,-0.174533,-1.04365,-0.69276,-0.160844,-0.186804,-0.709722,-0.300786,-0.41067,0.368143
26,60,-1.0472,-0.698132,-0.174533,-0.174533,-1.04365,-0.69276,-0.160844,-0.186804,-0.709722,-0.300786,-0.41067,0.368143
26,60,-1.0472,-0.698132,-0.174533,-0.174533,-1.04365,-0.69276,-0.160844,-0.186804,-0.709722,-0.300786,-0.41067,0.368143
26,60,-1.0472,-0.698132,-0.174533,-0.174533,-1.04365,-0.69276,-0.160844,-0.186804,-0.709722,-0.300786,-0.41067,0.368143
26,60,-1.0472,-0.698132,-0.174533,-0.174533,-1.04365,-0.69276,-0.160844,-0.186804,-0.709722,-0.300786,-0.41067,0.368143
26,60,-1.0472,-0.698132,-0.174533,-0.174533,-1.04365,-0.69276,-0.160844,-0.186804,-0.709722,-0.300786,-0.41067,0.368143
26,60,-1.0472,-0.698132,-0.174533,-0.174533,-1.04365,-0.69276,-0.160844,-0.186804,-0.709722,-0.300786,-0.41067,0.368143
26,60,-1.0472,-0.698132,-0.174533,-0.174533,-1.04365,-0.69276,-0.160844,-0.186804,-0.709722,-0.300786,-0.41067,0.368143
26,60,-1.0472,-0.698132,-0.174533,-0.174533,-1.04365,-0.69276,-0.160844,-0.186804,-0.709722,-0.300786,-0.41067,0.368143
26,60,-1.0472,-0.698132,-0.174533,-0.174533,-1.04365,-0.69276,-0.160844,-0.186804,-0.709722,-0.300786,-0.41067,0.368143
26,60,-1.0472,-0.698132,-0.174533,-0.174533,-1.04365,-0.69276,-0.160844,-0.186804,-0.709722,-0.300786,-0.41067,0.368143
26,60,-1.0472,-0.698132,-0.174533,-0.174533,-1.04365,-0.69276,-0.160844,-0.186804,-0.709722,-0.300786,-0.41067,0.368143
26,60,-1.0472,-0.698132,-0.174533,-0.174533,-1.04365,-0.69276,-0.160844,-0.186804,-0.709722,-0.300786,-0.41067,0.368143
26,60,-1.0472,-0.698132,-0.174533,-0.174533,-1.04365,-0.69276,-0.160844,-0.186804,-0.709722,-0.300786,-0.41067,0.368143
26,60,-1.0472,-0.698132,-0.174533,-0.174533,-1.04365,-0.69276,-0.160844,-0.186804,-0.709722,-0.300786,-0.41067,0.368143
26,60,-1.0472,-0.698132,-0.174533,-0.174533,-1.04365,-0.69276,-0.160844,-0.186804,-0.709722,-0.300786,-0.41067,0.368143
26,60,-1.0472,-0.698132,-0.174533,-0.174533,-1.04365,-0.69276,-0.160844,-0.186804,-0.709722,-0.300786,-0.41067,0.368143
26,60,-1.0472,-0.698132,-0.174533,-0.174533,-1.04365,-0.69276,-0.160844,-0.186804,-0.709722,-0.300786,-0.41067,0.368143
26,60,-1.0472,-0.698132,-0.174533,-0.174533,-1.04365,-0.69276,-0.160844,-0.186804,-0.709722,-0.300786,-0.41067,0.368143
26,60,-1.0472,-0.698132,-0.174533,-0.174533,-1.04365,-0.69276,-0.160844,-0.186804,-0.709722,-0.300786,-0.41067,0.368143
26,60,-1.0472,-0.698132,-0.174533,-0.174533,-1.04365,-0.69276,-0.160844,-0.186804,-0.709722,-0.300786,-0.41067,0.368143
26,60,-1.0472,-0.698132,-0.174533,-0.174533,-1.04365,-0.69276,-0.160844,-0.186804,-0.709722,-0.300786,-0.41067,0.368143
26,60,-1.0472,-0.698132,-0.174533,-0.174533,-1.04365,-0.69276,-0.160844,-0.186804,-0.709722,-0.300786,-0.41067,0.368143
26,60,-1.0472,-0.698132,-0.174533,-0.174533,-1.04365,-0.69276,-0.160844,-0.186804,-0.709722,-0.300786,-0.41067,0.368143
26,60,-1.0472,-0.698132,-0.174533,-0.174533,-1.04365,-0.69276,-0.160844,-0.186804,-0.709722,-0.300786,-0.41067,0.368143
26,60,-1.0472,-0.698132,-0.174533,-0.174533,-1.04365,-0.69276,-0.160844,-0.186804,-0.709722,-0.300786,-0.41067,0.368143
26,60,-1.0472,-0.698132,-0.174533,-0.174533,-1.04365,-0.69276,-0.160844,-0.186804,-0.709722,-0.300786,-0.41067,0.368143
26,60,-1.0472,-0.698132,-0.174533,-0.174533,-1.04365,-0.69276,-0.160844,-0.186804,-0.709722,-0.300786,-0.41067,0.368143
26,60,-1.0472,-0.698132,-0.174533,-0.174533,-1.04365,-0.69276,-0.160844,-0.186804,-0.709722,-0.300786,-0.41067,0.368143
26,60,-1.0472,-0.698132,-0.174533,-0.174533,-1.04365,-0.69276,-0.160844,-0.186804,-0.709722,-0.300786,-0.41067,0.368143
26,60,-1.0472,-0.698132,-0.174533,-0.174533,-1.04365,-0.69276,-0.160844,-0.186804,-0.709722,-0.300786,-0.41067,0.368143
26,60,-1.0472,-0.698132,-0.174533,-0.174533,-1.04365,-0.69276,-0.160844,-0.186804,-0.709722,-0.300786,-0.41067,0.368143
26,60,-1.0472,-0.698132,-0.174533,-0.174533,-1.04365,-0.69276,-0.160844,-0.186804,-0.709722,-0.300786,-0.41067,0.368143
26,60,-1.0472,-0.698132,-0.174533,-0.174533,-1.04365,-0.69276,-0.160844,-0.186804,-0.709722,-0.300786,-0.41067,0.368143
26,60,-1.0472,-0.698132,-0.174533,-0.174533,-1.04365,-0.69276,-0.160844,-0.186804,-0.709722,-0.300786,-0.41067,0.368143
26,60,-1.0472,-0.698132,-0.174533,-0.174533,-1.04365,-0.69276,-0.160844,-0.186804,-0.709722,-0.300786,-0.41067,0.368143
26,60,-1.0472,-0.698132,-0.174533,-0.174533,-1.04365,-0.69276,-0.160844,-0.186804,-0.709722,-0.300786,-0.41067,0.368143
26,60,-1.0472,-0.698132,-0.174533,-0.174533,-1.04365,-0.69276,-0.160844,-0.186804,-0.709722,-0.300786,-0.41067,0.368143
26,60,-1.0472,-0.698132,-0.174533,-0.174533,-1.04365,-0.69276,-0.160844,-0.186804,-0.709722,-0.300786,-0.41067,0.368143
26,60,-1.0472,-0.698132,-0.174533,-0.174533,-1.04365,-0.69276,-0.160844,-0.186804,-0.709722,-0.300786,-0.41067,0.368143
26,60,-1.0472,-0.698132,-0.174533,-0.174533,-1.04365,-0.69276,-0.160844,-0.186804,-0.709722,-0.300786,-0.41067,0.368143
26,60,-1.0472,-0.698132,-0.174533,-0.174533,-1.04365,-0.69276,-0.160844,-0.186804,-0.709722,-0.300786,-0.41067,0.368143
26,60,-1.0472,-0.698132,-0.174533,-0.174533,-1.04365,-0.69276,-0.160844,-0.186804,-0.709722,-0.300786,-0.41067,0.368143
26,60,-1.0472,-0.698132,-0.174533,-0.174533,-1.04365,-0.69276,-0.160909,-0.186846,-0.709722,-0.300786,-0.408696,0.369408
26,60,-1.0472,-0.698132,-0.174533,-0.174533,-1.04365,-0.69276,-0.160909,-0.186846,-0.709722,-0.300786,-0.408696,0.369408
26,60,-1.0472,-0.698132,-0.174533,-0.174533,-1.04365,-0.69276,-0.160909,-0.186846,-0.709722,-0.300786,-0.408696,0.369408
26,60,-1.0472,-0.698132,-0.174533,-0.174533,-1.04365,-0.69276,-0.160909,-0.186846,-0.709722,-0.300786,-0.408696,0.369408
26,60,-1.0472,-0.698132,-0.174533,-0.174533,-1.04365,-0.69276,-0.160909,-0.186846,-0.709722,-0.300786,-0.408696,0.369408
26,60,-1.0472,-0.698132,-0.174533,-0.174533,-1.04365,-0.69276,-0.160909,-0.186846,-0.709722,-0.300786,-0.408696,0.369408
26,60,-1.0472,-0.698132,-0.174533,-0.174533,-1.04365,-0.69276,-0.160909,-0.186846,-0.709722,-0.300786,-0.408696,0.369408
26,60,-1.0472,-0.698132,-0.174533,-0.174533,-1.04365,-0.69276,-0.160909,-0.186846,-0.709722,-0.300786,-0.408696,0.369408
26,60,-1.0472,-0.698132,-0.174533,-0.174533,-1.04365,-0.69276,-0.160909,-0.186846,-0.709722,-0.300786,-0.408696,0.369408
26,60,-1.0472,-0.698132,-0.174533,-0.174533,-1.04365,-0.69276,-0.160909,-0.186846,-0.709722,-0.300786,-0.408696,0.369408
26,60,-1.0472,-0.698132,-0.174533,-0.174533,-1.04365,-0.69276,-0.160909,-0.186846,-0.709722,-0.300786,-0.408696,0.369408
26,60,-1.0472,-0.698132,-0.174533,-0.174533,-1.04365,-0.69276,-0.160909,-0.186846,-0.709722,-0.300786,-0.408696,0.369408
26,60,-1.0472,-0.698132,-0.174533,-0.174533,-1.04365,-0.69276,-0.160909,-0.186846,-0.709722,-0.300786,-0.408696,0.369408
26,60,-1.0472,-0.698132,-0.174533,-0.174533,-1.04365,-0.69276,-0.160909,-0.186846,-0.709722,-0.300786,-0.408696,0.369408
26,60,-1.0472,-0.698132,-0.174533,-0.174533,-1.04365,-0.69276,-0.160909,-0.186846,-0.709722,-0.300786,-0.408696,0.369408
26,60,-1.0472,-0.698132,-0.174533,-0.174533,-1.04365,-0.69276,-0.160909,-0.186846,-0.709722,-0.300786,-0.408696,0.369408
26,60,-1.0472,-0.698132,-0.174533,-0.174533,-1.04365,-0.69276,-0.160909,-0.186846,-0.709722,-0.300786,-0.408696,0.369408
26,60,-1.0472,-0.698132,-0.174533,-0.174533,-1.04365,-0.69276,-0.160909,-0.186846,-0.709722,-0.300786,-0.408696,0.369408
26,60,-1.0472,-0.698132,-0.174533,-0.174533,-1.04365,-0.69276,-0.160909,-0.186846,-0.709722,-0.300786,-0.408696,0.369408
26,60,-1.0472,-0.698132,-0.174533,-0.174533,-1.04365,-0.69276,-0.160909,-0.186846,-0.709722,-0.300786,-0.408696,0.369408
26,60,-1.0472,-0.698132,-0.174533,-0.174533,-1.04365,-0.69276,-0.160909,-0.186846,-0.709722,-0.300786,-0.408696,0.369408
26,60,-1.0472,-0.698132,-0.174533,-0.174533,-1.04365,-0.69276,-0.160909,-0.186846,-0.709722,-0.300786,-0.408696,0.369408
26,60,-1.0472,-0.698132,-0.174533,-0.174533,-1.04365,-0.69276,-0.160909,-0.186846,-0.709722,-0.300786,-0.408696,0.369408
26,60,-1.0472,-0.698132,-0.174533,-0.174533,-1.04365,-0.69276,-0.160909,-0.186846,-0.709722,-0.300786,-0.408696,0.369408
26,60,-1.0472,-0.698132,-0.174533,-0.174533,-1.04365,-0.69276,-0.160909,-0.186846,-0.709722,-0.300786,-0.408696,0.369408
26,60,-1.0472,-0.698132,-0.174533,-0.174533,-1.04365,-0.69276,-0.160909,-0.186846,-0.709722,-0.300786,-0.408696,0.369408
26,60,-1.0472,-0.698132,-0.174533,-0.174533,-1.04365,-0.69276,-0.160909,-0.186846,-0.709722,-0.300786,-0.408696,0.369408
26,60,-1.0472,-0.698132,-0.174533,-0.174533,-1.04365,-0.69276,-0.160909,-0.186846,-0.709722,-0.300786,-0.408696,0.369408
26,60,-1.0472,-0.698132,-0.174533,-0.174533,-1.04365,-0.69276,-0.160909,-0.186846,-0.709722,-0.300786,-0.408696,0.369408
26,60,-1.0472,-0.698132,-0.174533,-0.174533,-1.04365,-0.69276,-0.160909,-0.186846,-0.709722,-0.300786,-0.408696,0.369408
26,60,-1.0472,-0.698132,-0.174533,-0.174533,-1.04365,-0.69276,-0.160909,-0.186846,-0.709722,-0.300786,-0.408696,0.369408
26,60,-1.0472,-0.698132,-0.174533,-0.174533,-1.04365,-0.69276,-0.160909,-0.186846,-0.709722,-0.300786,-0.408696,0.369408
26,60,-1.0472,-0.698132,-0.174533,-0.174533,-1.04365,-0.69276,-0.160909,-0.186846,-0.709722,-0.300786,-0.408696,0.369408
26,60,-1.0472,-0.698132,-0.174533,-0.174533,-1.04365,-0.69276,-0.160909,-0.186846,-0.709722,-0.300786,-0.408696,0.369408
26,60,-1.0472,-0.698132,-0.174533,-0.174533,-1.04365,-0.69276,-0.160909,-0.186846,-0.709722,-0.300786,-0.408696,0.369408
26,60,-1.0472,-0.698132,-0.174533,-0.174533,-1.04365,-0.69276,-0.160909,-0.186846,-0.709722,-0.300786,-0.408696,0.369408
26,60,-1.0472,-0.698132,-0.174533,-0.174533,-1.04365,-0.69276,-0.160909,-0.186846,-0.709722,-0.300786,-0.408696,0.369408
26,60,-1.0472,-0.698132,-0.174533,-0.174533,-1.04365,-0.69276,-0.160909,-0.186846,-0.709722,-0.300786,-0.408696,0.369408
26,60,-1.0472,-0.698132,-0.174533,-0.174533,-1.04365,-0.69276,-0.160909,-0.186846,-0.709722,-0.300786,-0.408696,0.369408
26,60,-1.0472,-0.698132,-0.174533,-0.174533,-1.04365,-0.69276,-0.160909,-0.186846,-0.709722,-0.300786,-0.408696,0.369408
26,60,-1.0472,-0.698132,-0.174533,-0.174533,-1.04365,-0.69276,-0.160909,-0.186846,-0.709722,-0.300786,-0.408696,0.369408
26,60,-1.0472,-0.698132,-0.174533,-0.174533,-1.04365,-0.69276,-0.160909,-0.186846,-0.709722,-0.300786,-0.408696,0.369408
26,60,-1.0472,-0.698132,-0.174533,-0.174533,-1.04365,-0.69276,-0.160909,-0.186846,-0.709722,-0.300786,-0.408696,0.369408
26,60,-1.0472,-0.698132,-0.174533,-0.174533,-1.04365,-0.69276,-0.160909,-0.186846,-0.709722,-0.300786,-0.408696,0.369408
26,60,-1.0472,-0.698132,-0.174533,-0.174533,-1.04365,-0.69276,-0.160909,-0.186846,-0.709722,-0.300786,-0.408696,0.369408
26,60,-1.0472,-0.698132,-0.174533,-0.174533,-1.04365,-0.69276,-0.160909,-0.186846,-0.709722,-0.300786,-0.408696,0.369408
26,60,-1.0472,-0.698132,-0.174533,-0.174533,-1.04365,-0.69276,-0.160909,-0.186846,-0.709722,-0.300786,-0.408696,0.369408
26,60,-1.0472,-0.698132,-0.174533,-0.174533,-1.04365,-0.69276,-0.160909,-0.186846,-0.709722,-0.300786,-0.408696,0.369408
26,60,-1.0472,-0.698132,-0.174533,-0.174533,-1.04365,-0.69276,-0.160909,-0.186846,-0.709722,-0.300786,-0.408696,0.369408
26,60,-1.0472,-0.698132,-0.174533,-0.174533,-1.04365,-0.69276,-0.160909,-0.186846,-0.709722,-0.300786,-0.408696,0.369408
26,60,-1.0472,-0.698132,-0.174533,-0.174533,-1.04365,-0.69276,-0.160909,-0.186846,-0.709722,-0.300786,-0.408696,0.369408
26,60,-1.0472,-0.698132,-0.174533,-0.174533,-1.04365,-0.69276,-0.160909,-0.186846,-0.709722,-0.300786,-0.408696,0.369408
26,60,-1.0472,-0.698132,-0.174533,-0.174533,-1.04365,-0.69276,-0.160909,-0.186846,-0.709722,-0.300786,-0.408696,0.369408
26,60,-1.0472,-0.698132,-0.174533,-0.174533,-1.04365,-0.69276,-0.160909,-0.186846,-0.709722,-0.300786,-0.408696,0.369408
26,60,-1.0472,-0.698132,-0.174533,-0.174533,-1.04365,-0.69276,-0.160909,-0.186846,-0.709722,-0.300786,-0.408696,0.369408
26,60,-1.0472,-0.698132,-0.174533,-0.174533,-1.04365,-0.69276,-0.160909,-0.186846,-0.709722,-0.300786,-0.408696,0.369408
26,60,-1.0472,-0.698132,-0.174533,-0.174533,-1.04365,-0.69276,-0.160909,-0.186846,-0.709722,-0.300786,-0.408696,0.369408
26,60,-1.0472,-0.698132,-0.174533,-0.174533,-1.04365,-0.69276,-0.160909,-0.186846,-0.709722,-0.300786,-0.408696,0.369408
26,60,-1.0472,-0.698132,-0.174533,-0.174533,-1.04365,-0.69276,-0.160909,-0.186846,-0.709722,-0.300786,-0.408696,0.369408
26,60,-1.0472,-0.698132,-0.174533,-0.174533,-1.04365,-0.69276,-0.160909,-0.186846,-0.709722,-0.300786,-0.408696,0.369408
26,60,-1.0472,-0.698132,-0.174533,-0.174533,-1.04365,-0.69276,-0.160909,-0.186846,-0.709722,-0.300786,-0.408696,0.369408
26,60,-1.0472,-0.698132,-0.174533,-0.174533,-1.04365,-0.69276,-0.160909,-0.186846,-0.709722,-0.300786,-0.408696,0.369408
26,60,-1.0472,-0.698132,-0.174533,-0.174533,-1.04365,-0.69276,-0.160909,-0.186846,-0.709722,-0.300786,-0.408696,0.369408
26,60,-1.0472,-0.698132,-0.174533,-0.174533,-1.04365,-0.69276,-0.160909,-0.186846,-0.709722,-0.300786,-0.408696,0.369408
26,60,-1.0472,-0.698132,-0.174533,-0.174533,-1.04365,-0.69276,-0.160909,-0.186846,-0.709722,-0.300786,-0.408696,0.369408
26,60,-1.0472,-0.698132,-0.174533,-0.174533,-1.04365,-0.69276,-0.160909,-0.186846,-0.709722,-0.300786,-0.408696,0.369408
26,60,-1.0472,-0.698132,-0.174533,-0.174533,-1.04365,-0.69276,-0.160909,-0.186846,-0.709722,-0.300786,-0.408696,0.369408
26,60,-1.0472,-0.698132,-0.174533,-0.174533,-1.04365,-0.69276,-0.160909,-0.186846,-0.709722,-0.300786,-0.408696,0.369408
26,60,-1.0472,-0.698132,-0.174533,-0.174533,-1.04365,-0.69276,-0.160909,-0.186846,-0.709722,-0.300786,-0.408696,0.369408
26,60,-1.0472,-0.698132,-0.174533,-0.174533,-1.04365,-0.69276,-0.160909,-0.186846,-0.709722,-0.300786,-0.408696,0.369408
26,60,-1.0472,-0.698132,-0.174533,-0.174533,-1.04365,-0.69276,-0.160909,-0.186846,-0.709722,-0.300786,-0.408696,0.369408
26,60,-1.0472,-0.698132,-0.174533,-0.174533,-1.04365,-0.69276,-0.160909,-0.186846,-0.709722,-0.300786,-0.408696,0.369408
26,60,-1.0472,-0.698132,-0.174533,-0.174533,-1.04365,-0.69276,-0.160909,-0.186846,-0.709722,-0.300786,-0.408696,0.369408
26,60,-1.0472,-0.698132,-0.174533,-0.174533,-1.04365,-0.69276,-0.160909,-0.186846,-0.709722,-0.300786,-0.408696,0.369408
26,60,-1.0472,-0.698132,-0.174533,-0.174533,-1.04365,-0.69276,-0.160909,-0.186846,-0.709722,-0.300786,-0.408696,0.369408
26,60,-1.0472,-0.698132,-0.174533,-0.174533,-1.04365,-0.69276,-0.160909,-0.186846,-0.709722,-0.300786,-0.408696,0.369408
26,60,-1.0472,-0.698132,-0.174533,-0.174533,-1.04365,-0.69276,-0.160909,-0.186846,-0.709722,-0.300786,-0.408696,0.369408
26,60,-1.0472,-0.698132,-0.174533,-0.174533,-1.04365,-0.69276,-0.160909,-0.186846,-0.709722,-0.300786,-0.408696,0.369408
26,60,-1.0472,-0.698132,-0.174533,-0.174533,-1.04365,-0.69276,-0.160909,-0.186846,-0.709722,-0.300786,-0.408696,0.369408
26,60,-1.0472,-0.698132,-0.174533,-0.174533,-1.04365,-0.69276,-0.160909,-0.186846,-0.709722,-0.300786,-0.408696,0.369408
26,60,-1.0472,-0.698132,-0.174533,-0.174533,-1.04365,-0.69276,-0.160909,-0.186846,-0.709722,-0.300786,-0.408696,0.369408
26,60,-1.0472,-0.698132,-0.174533,-0.174533,-1.04365,-0.69276,-0.160909,-0.186846,-0.709722,-0.300786,-0.408696,0.369408
26,60,-1.0472,-0.698132,-0.174533,-0.174533,-1.04365,-0.69276,-0.160909,-0.186846,-0.709722,-0.300786,-0.408696,0.369408
26,60,-1.0472,-0.698132,-0.174533,-0.174533,-1.04365,-0.69276,-0.160909,-0.186846,-0.709722,-0.300786,-0.408696,0.369408
26,60,-1.0472,-0.698132,-0.174533,-0.174533,-1.04365,-0.69276,-0.160909,-0.186846,-0.709722,-0.300786,-0.408696,0.369408
26,60,-1.0472,-0.698132,-0.174533,-0.174533,-1.04365,-0.69276,-0.160909,-0.186846,-0.709722,-0.300786,-0.408696,0.369408
26,60,-1.0472,-0.698132,-0.174533,-0.174533,-1.04365,-0.69276,-0.160909,-0.186846,-0.709722,-0.300786,-0.408696,0.369408
26,60,-1.0472,-0.698132,-0.174533,-0.174533,-1.04365,-0.69276,-0.160909,-0.186846,-0.709722,-0.300786,-0.408696,0.369408
26,60,-1.0472,-0.698132,-0.174533,-0.174533,-1.04365,-0.69276,-0.160909,-0.186846,-0.709722,-0.300786,-0.408696,0.369408
26,60,-1.0472,-0.698132,-0.174533,-0.174533,-1.04365,-0.69276,-0.160909,-0.186846,-0.709722,-0.300786,-0.408696,0.369408
26,60,-1.0472,-0.698132,-0.174533,-0.174533,-1.04365,-0.69276,-0.160909,-0.186846,-0.709722,-0.300786,-0.408696,0.369408
26,60,-1.0472,-0.698132,-0.174533,-0.174533,-1.04365,-0.69276,-0.160909,-0.186846,-0.709722,-0.300786,-0.408696,0.369408
26,60,-1.0472,-0.698132,-0.174533,-0.174533,-1.04365,-0.69276,-0.160909,-0.186846,-0.709722,-0.300786,-0.408696,0.369408
26,60,-1.0472,-0.698132,-0.174533,-0.174533,-1.04365,-0.69276,-0.160909,-0.186846,-0.709722,-0.300786,-0.408696,0.369408
26,60,-1.0472,-0.698132,-0.174533,-0.174533,-1.04365,-0.69276,-0.160909,-0.186846,-0.709722,-0.300786,-0.408696,0.369408
26,60,-1.0472,-0.698132,-0.174533,-0.174533,-1.04365,-0.69276,-0.160909,-0.186846,-0.709722,-0.300786,-0.408696,0.369408
26,60,-1.0472,-0.698132,-0.174533,-0.174533,-1.04365,-0.69276,-0.160909,-0.186846,-0.709722,-0.300786,-0.408696,0.369408
26,60,-1.0472,-0.698132,-0.174533,-0.174533,-1.04365,-0.69276,-0.160909,-0.186846,-0.709722,-0.300786,-0.408696,0.369408
26,60,-1.0472,-0.698132,-0.174533,-0.174533,-1.04365,-0.69276,-0.160909,-0.186846,-0.709722,-0.300786,-0.408696,0.369408
26,60,-1.0472,-0.698132,-0.174533,-0.174533,-1.04365,-0.69276,-0.160909,-0.186846,-0.709722,-0.300786,-0.408696,0.369408
26,60,-1.0472,-0.698132,-0.174533,-0.174533,-1.04365,-0.69276,-0.160909,-0.186846,-0.709722,-0.300786,-0.408696,0.369397
26,60,-1.0472,-0.698132,-0.174533,-0.174533,-1.04365,-0.69276,-0.160909,-0.186846,-0.709722,-0.300786,-0.408696,0.369397
26,60,-1.0472,-0.698132,-0.174533,-0.174533,-1.04365,-0.69276,-0.160909,-0.186846,-0.709722,-0.300786,-0.408696,0.369397
26,60,-1.0472,-0.698132,-0.174533,-0.174533,-1.04365,-0.69276,-0.160909,-0.186846,-0.709722,-0.300786,-0.408696,0.369397
26,60,-1.0472,-0.698132,-0.174533,-0.174533,-1.04365,-0.69276,-0.160909,-0.186846,-0.709722,-0.300786,-0.408696,0.369397
26,60,-1.0472,-0.698132,-0.174533,-0.174533,-1.04365,-0.69276,-0.160909,-0.186846,-0.709722,-0.300786,-0.408696,0.369397
26,60,-1.0472,-0.698132,-0.174533,-0.174533,-1.04365,-0.69276,-0.160909,-0.186846,-0.709722,-0.300786,-0.408696,0.369397
26,60,-1.0472,-0.698132,-0.174533,-0.174533,-1.04365,-0.69276,-0.160909,-0.186846,-0.709722,-0.300786,-0.408696,0.369397
26,60,-1.0472,-0.698132,-0.174533,-0.174533,-1.04365,-0.69276,-0.160909,-0.186846,-0.709722,-0.300786,-0.408696,0.369397
26,60,-1.0472,-0.698132,-0.174533,-0.174533,-1.04365,-0.69276,-0.160909,-0.186846,-0.709722,-0.300786,-0.408696,0.369397
26,60,-1.0472,-0.698132,-0.174533,-0.174533,-1.04365,-0.69276,-0.160909,-0.186846,-0.709722,-0.300786,-0.408696,0.369397
26,60,-1.0472,-0.698132,-0.174533,-0.174533,-1.04365,-0.69276,-0.160909,-0.186846,-0.709722,-0.300786,-0.408696,0.369397
26,60,-1.0472,-0.698132,-0.174533,-0.174533,-1.04365,-0.69276,-0.160909,-0.186846,-0.709722,-0.300821,-0.408696,0.369397
26,60,-1.0472,-0.698132,-0.174533,-0.174533,-1.04365,-0.69276,-0.160909,-0.186846,-0.709722,-0.300821,-0.408696,0.369397
26,60,-1.0472,-0.698132,-0.174533,-0.174533,-1.04365,-0.69276,-0.160909,-0.186846,-0.709722,-0.300821,-0.408696,0.369397
26,60,-1.0472,-0.698132,-0.174533,-0.174533,-1.04365,-0.69276,-0.160909,-0.186846,-0.709722,-0.300821,-0.408696,0.369397
26,60,-1.0472,-0.698132,-0.174533,-0.174533,-1.04365,-0.69276,-0.160909,-0.186846,-0.709722,-0.300821,-0.408696,0.369397
26,60,-1.0472,-0.698132,-0.174533,-0.174533,-1.04365,-0.69276,-0.160909,-0.186846,-0.709722,-0.300821,-0.408696,0.369397
26,60,-1.0472,-0.698132,-0.174533,-0.174533,-1.04365,-0.69276,-0.160909,-0.186846,-0.709722,-0.300821,-0.408696,0.369397
26,60,-1.0472,-0.698132,-0.174533,-0.174533,-1.04365,-0.69276,-0.160909,-0.186846,-0.709722,-0.300821,-0.408696,0.369397
26,60,-1.0472,-0.698132,-0.174533,-0.174533,-1.04365,-0.69276,-0.160909,-0.186846,-0.709722,-0.300821,-0.408696,0.369397
26,60,-1.0472,-0.698132,-0.174533,-0.174533,-1.04365,-0.69276,-0.160909,-0.186846,-0.709722,-0.300821,-0.408696,0.369397
26,60,-1.0472,-0.698132,-0.174533,-0.174533,-1.04365,-0.69276,-0.160909,-0.186846,-0.709722,-0.300821,-0.408696,0.369397
26,60,-1.0472,-0.698132,-0.174533,-0.174533,-1.04365,-0.69276,-0.160909,-0.186846,-0.709722,-0.300821,-0.408696,0.369397
26,60,-1.0472,-0.698132,-0.174533,-0.174533,-1.04365,-0.69276,-0.160909,-0.186846,-0.709722,-0.300821,-0.408696,0.369397
26,60,-1.0472,-0.698132,-0.174533,-0.174533,-1.04365,-0.69276,-0.160909,-0.186846,-0.709722,-0.300821,-0.408696,0.369397
26,60,-1.0472,-0.698132,-0.174533,-0.174533,-1.04365,-0.69276,-0.160909,-0.186846,-0.709722,-0.300821,-0.408696,0.369397
26,60,-1.0472,-0.698132,-0.174533,-0.174533,-1.04365,-0.69276,-0.160909,-0.186846,-0.709722,-0.300821,-0.408696,0.369397
26,60,-1.0472,-0.698132,-0.174533,-0.174533,-1.04365,-0.69276,-0.160909,-0.186846,-0.709722,-0.300821,-0.408696,0.369397
26,60,-1.0472,-0.698132,-0.174533,-0.174533,-1.04365,-0.69276,-0.160909,-0.186846,-0.709722,-0.300821,-0.408696,0.369397
26,60,-1.0472,-0.698132,-0.174533,-0.174533,-1.04365,-0.69276,-0.160909,-0.186846,-0.709722,-0.300821,-0.408696,0.369397
26,60,-1.0472,-0.698132,-0.174533,-0.174533,-1.04365,-0.69276,-0.160909,-0.186846,-0.709722,-0.300821,-0.408696,0.369397
26,60,-1.0472,-0.698132,-0.174533,-0.174533,-1.04365,-0.69276,-0.160909,-0.186846,-0.709722,-0.300821,-0.408696,0.369397
26,60,-1.0472,-0.698132,-0.174533,-0.174533,-1.04365,-0.69276,-0.160909,-0.186846,-0.709722,-0.300821,-0.408696,0.369397
26,60,-1.0472,-0.698132,-0.174533,-0.174533,-1.04365,-0.69276,-0.160909,-0.186846,-0.709722,-0.300821,-0.408696,0.369397
26,60,-1.0472,-0.698132,-0.174533,-0.174533,-1.04365,-0.69276,-0.160909,-0.186846,-0.709722,-0.300821,-0.408696,0.369397
26,60,-1.0472,-0.698132,-0.174533,-0.174533,-1.04365,-0.69276,-0.160909,-0.186846,-0.709722,-0.300821,-0.408696,0.369397
26,60,-1.0472,-0.698132,-0.174533,-0.174533,-1.04365,-0.69276,-0.160909,-0.186846,-0.709722,-0.300821,-0.408696,0.369397
26,60,-1.0472,-0.698132,-0.174533,-0.174533,-1.04365,-0.69276,-0.160909,-0.186846,-0.709722,-0.300821,-0.408696,0.369397
26,60,-1.0472,-0.698132,-0.174533,-0.174533,-1.04365,-0.69276,-0.160909,-0.186846,-0.709722,-0.300821,-0.408696,0.369397
26,60,-1.0472,-0.698132,-0.174533,-0.174533,-1.04365,-0.69276,-0.160909,-0.186846,-0.709722,-0.300821,-0.408696,0.369397
26,60,-1.0472,-0.698132,-0.174533,-0.174533,-1.04365,-0.69276,-0.160909,-0.186846,-0.709722,-0.300821,-0.408696,0.369397
26,60,-1.0472,-0.698132,-0.174533,-0.174533,-1.04365,-0.69276,-0.160909,-0.186846,-0.709722,-0.300821,-0.408696,0.369397
26,60,-1.0472,-0.698132,-0.174533,-0.174533,-1.04365,-0.69276,-0.160909,-0.186846,-0.709722,-0.300821,-0.408696,0.369397
26,60,-1.0472,-0.698132,-0.174533,-0.174533,-1.04365,-0.69276,-0.160909,-0.186846,-0.709722,-0.300821,-0.408696,0.369397
26,60,-1.0472,-0.698132,-0.174533,-0.174533,-1.04365,-0.69276,-0.160909,-0.186846,-0.709722,-0.300821,-0.408696,0.369397
26,60,-1.0472,-0.698132,-0.174533,-0.174533,-1.04365,-0.69276,-0.160909,-0.186846,-0.709722,-0.300821,-0.408696,0.369397
26,60,-1.0472,-0.698132,-0.174533,-0.174533,-1.04365,-0.69276,-0.160909,-0.186846,-0.709722,-0.300821,-0.408696,0.369397
26,60,-1.0472,-0.698132,-0.174533,-0.174533,-1.04365,-0.69276,-0.160909,-0.186846,-0.709722,-0.300821,-0.408696,0.369397
26,60,-1.0472,-0.698132,-0.174533,-0.174533,-1.04365,-0.69276,-0.160909,-0.186846,-0.709722,-0.300821,-0.408696,0.369397
26,60,-1.0472,-0.698132,-0.174533,-0.174533,-1.04365,-0.69276,-0.160909,-0.186846,-0.709722,-0.300821,-0.408696,0.369397
26,60,-1.0472,-0.698132,-0.174533,-0.174533,-1.04365,-0.69276,-0.160909,-0.186846,-0.709722,-0.300821,-0.408696,0.369397
26,60,-1.0472,-0.698132,-0.174533,-0.174533,-1.04365,-0.69276,-0.160909,-0.186846,-0.709722,-0.300821,-0.408696,0.369397
26,60,-1.0472,-0.698132,-0.174533,-0.174533,-1.04365,-0.69276,-0.160909,-0.186846,-0.709722,-0.300821,-0.408696,0.369397
26,60,-1.0472,-0.698132,-0.174533,-0.174533,-1.04365,-0.69276,-0.160909,-0.186846,-0.709722,-0.300821,-0.408696,0.369397
26,60,-1.0472,-0.698132,-0.174533,-0.174533,-1.04365,-0.69276,-0.160909,-0.186846,-0.709722,-0.300821,-0.408696,0.369397
26,60,-1.0472,-0.698132,-0.174533,-0.174533,-1.04365,-0.69276,-0.160909,-0.186846,-0.709722,-0.300821,-0.408696,0.369397
26,60,-1.0472,-0.698132,-0.174533,-0.174533,-1.04365,-0.69276,-0.160909,-0.186846,-0.709722,-0.300821,-0.408696,0.369397
26,60,-1.0472,-0.698132,-0.174533,-0.174533,-1.04365,-0.69276,-0.160909,-0.186846,-0.709722,-0.300821,-0.408696,0.369397
26,60,-1.0472,-0.698132,-0.174533,-0.174533,-1.04365,-0.69276,-0.160909,-0.186846,-0.709722,-0.300821,-0.408696,0.369397
26,60,-1.0472,-0.698132,-0.174533,-0.174533,-1.04365,-0.69276,-0.160909,-0.186846,-0.709722,-0.300821,-0.408696,0.369397
26,60,-1.0472,-0.698132,-0.174533,-0.174533,-1.04365,-0.69276,-0.160909,-0.186846,-0.709722,-0.300821,-0.408696,0.369397
26,60,-1.0472,-0.698132,-0.174533,-0.174533,-1.04365,-0.69276,-0.160909,-0.186846,-0.709722,-0.300821,-0.408696,0.369397
26,60,-1.0472,-0.698132,-0.174533,-0.174533,-1.04365,-0.69276,-0.160909,-0.186846,-0.709722,-0.300821,-0.408696,0.369397
26,60,-1.0472,-0.698132,-0.174533,-0.174533,-1.04365,-0.69276,-0.160909,-0.186846,-0.709722,-0.300821,-0.408696,0.369397
26,60,-1.0472,-0.698132,-0.174533,-0.174533,-1.04365,-0.69276,-0.160909,-0.186846,-0.709722,-0.300821,-0.408696,0.369397
26,60,-1.0472,-0.698132,-0.174533,-0.174533,-1.04365,-0.69276,-0.160909,-0.186846,-0.709722,-0.300821,-0.408696,0.369397
26,60,-1.0472,-0.698132,-0.174533,-0.174533,-1.04365,-0.69276,-0.160909,-0.186846,-0.709722,-0.300821,-0.408696,0.369397
26,60,-1.0472,-0.698132,-0.174533,-0.174533,-1.04365,-0.69276,-0.160909,-0.186846,-0.709722,-0.300821,-0.408696,0.369397
26,60,-1.0472,-0.698132,-0.174533,-0.174533,-1.04365,-0.69276,-0.160909,-0.186846,-0.709722,-0.300821,-0.408696,0.369397
26,60,-1.0472,-0.698132,-0.174533,-0.174533,-1.04365,-0.69276,-0.160909,-0.186846,-0.709722,-0.300821,-0.408696,0.369397
26,60,-1.0472,-0.698132,-0.174533,-0.174533,-1.04365,-0.69276,-0.160909,-0.186846,-0.709722,-0.300821,-0.408696,0.369397
26,60,-1.0472,-0.698132,-0.174533,-0.174533,-1.04365,-0.69276,-0.160909,-0.186846,-0.709722,-0.300821,-0.408696,0.369397
26,60,-1.0472,-0.698132,-0.174533,-0.174533,-1.04365,-0.69276,-0.160909,-0.186846,-0.709722,-0.300821,-0.408696,0.369397
26,60,-1.0472,-0.698132,-0.174533,-0.174533,-1.04365,-0.69276,-0.160909,-0.186846,-0.709722,-0.300821,-0.408696,0.369397
26,60,-1.0472,-0.698132,-0.174533,-0.174533,-1.04365,-0.69276,-0.160909,-0.186846,-0.709722,-0.300821,-0.408696,0.369397
26,60,-1.0472,-0.698132,-0.174533,-0.174533,-1.04365,-0.69276,-0.160909,-0.186846,-0.709722,-0.300821,-0.408696,0.369397
26,60,-1.0472,-0.698132,-0.174533,-0.174533,-1.04365,-0.69276,-0.160909,-0.186846,-0.709722,-0.300821,-0.408696,0.369397
26,60,-1.0472,-0.698132,-0.174533,-0.174533,-1.04365,-0.69276,-0.160909,-0.186846,-0.709722,-0.300821,-0.408696,0.369397
26,60,-1.0472,-0.698132,-0.174533,-0.174533,-1.04365,-0.69276,-0.160909,-0.186846,-0.709722,-0.300821,-0.408696,0.369397
26,60,-1.0472,-0.698132,-0.174533,-0.174533,-1.04365,-0.69276,-0.160909,-0.186846,-0.709722,-0.300821,-0.408696,0.369397
26,60,-1.0472,-0.698132,-0.174533,-0.174533,-1.04365,-0.69276,-0.160909,-0.186846,-0.709722,-0.300821,-0.408696,0.369397
26,60,-1.0472,-0.698132,-0.174533,-0.174533,-1.04365,-0.69276,-0.160909,-0.186846,-0.709722,-0.300821,-0.408696,0.369397
26,60,-1.0472,-0.698132,-0.174533,-0.174533,-1.04365,-0.69276,-0.160909,-0.186846,-0.709722,-0.300821,-0.408696,0.369397
26,60,-1.0472,-0.698132,-0.174533,-0.174533,-1.04365,-0.69276,-0.160909,-0.186846,-0.709722,-0.300821,-0.408696,0.369397
26,60,-1.0472,-0.698132,-0.174533,-0.174533,-1.04365,-0.69276,-0.160909,-0.186846,-0.709722,-0.300821,-0.408696,0.369397
26,60,-1.0472,-0.698132,-0.174533,-0.174533,-1.04365,-0.69276,-0.160909,-0.186846,-0.709722,-0.300821,-0.408696,0.369397
26,60,-1.0472,-0.698132,-0.174533,-0.174533,-1.04365,-0.69276,-0.160909,-0.186846,-0.709722,-0.300821,-0.408696,0.369397
26,60,-1.0472,-0.698132,-0.174533,-0.174533,-1.04365,-0.69276,-0.160909,-0.186846,-0.709722,-0.300821,-0.408696,0.369397
26,60,-1.0472,-0.698132,-0.174533,-0.174533,-1.04365,-0.69276,-0.160909,-0.186846,-0.709722,-0.300821,-0.408696,0.369397
26,60,-1.0472,-0.698132,-0.174533,-0.174533,-1.04365,-0.69276,-0.160909,-0.186846,-0.709722,-0.300821,-0.408696,0.369397
26,60,-1.0472,-0.698132,-0.174533,-0.174533,-1.04365,-0.69276,-0.160909,-0.186846,-0.709722,-0.300821,-0.408696,0.369397
26,60,-1.0472,-0.698132,-0.174533,-0.174533,-1.04365,-0.69276,-0.160909,-0.186846,-0.709722,-0.300821,-0.408696,0.369397
26,60,-1.0472,-0.698132,-0.174533,-0.174533,-1.04365,-0.69276,-0.160909,-0.186846,-0.709722,-0.300821,-0.408696,0.369397
26,60,-1.0472,-0.698132,-0.174533,-0.174533,-1.04365,-0.69276,-0.160909,-0.186846,-0.709722,-0.300821,-0.408696,0.369397
26,60,-1.0472,-0.698132,-0.174533,-0.174533,-1.04365,-0.69276,-0.160909,-0.186846,-0.709722,-0.300821,-0.408696,0.369397
26,60,-1.0472,-0.698132,-0.174533,-0.174533,-1.04365,-0.69276,-0.160909,-0.186846,-0.709722,-0.300821,-0.408696,0.369397
26,60,-1.0472,-0.698132,-0.174533,-0.174533,-1.04365,-0.69276,-0.160909,-0.186846,-0.709722,-0.300821,-0.408696,0.369397
26,60,-1.0472,-0.698132,-0.174533,-0.174533,-1.04365,-0.69276,-0.160909,-0.186846,-0.709722,-0.300821,-0.408696,0.369397
26,60,-1.0472,-0.698132,-0.174533,-0.174533,-1.04365,-0.69276,-0.160909,-0.186846,-0.709722,-0.300821,-0.408696,0.369397
26,60,-1.0472,-0.698132,-0.174533,-0.174533,-1.04365,-0.69276,-0.160909,-0.186846,-0.709722,-0.300821,-0.408696,0.369397
26,60,-1.0472,-0.698132,-0.174533,-0.174533,-1.04365,-0.69276,-0.160909,-0.186846,-0.709722,-0.300821,-0.408696,0.369397
26,60,-1.0472,-0.698132,-0.174533,-0.174533,-1.04365,-0.69276,-0.160909,-0.186846,-0.709722,-0.300821,-0.408696,0.369397
26,60,-1.0472,-0.698132,-0.174533,-0.174533,-1.04365,-0.69276,-0.160909,-0.186846,-0.709722,-0.300821,-0.408696,0.369397
26,60,-1.0472,-0.698132,-0.174533,-0.174533,-1.04365,-0.69276,-0.160909,-0.186846,-0.709722,-0.300821,-0.408696,0.369397
26,60,-1.0472,-0.698132,-0.174533,-0.174533,-1.04365,-0.69276,-0.160909,-0.186846,-0.709722,-0.300821,-0.408696,0.369397
26,60,-1.0472,-0.698132,-0.174533,-0.174533,-1.04365,-0.69276,-0.160909,-0.186846,-0.709722,-0.300821,-0.408696,0.369397
26,60,-1.0472,-0.698132,-0.174533,-0.174533,-1.04365,-0.69276,-0.160909,-0.186846,-0.709722,-0.300821,-0.408696,0.369397
26,60,-1.0472,-0.698132,-0.174533,-0.174533,-1.04365,-0.69276,-0.160909,-0.186846,-0.709722,-0.300821,-0.408696,0.369397
26,60,-1.0472,-0.698132,-0.174533,-0.174533,-1.04365,-0.69276,-0.160909,-0.186846,-0.709722,-0.300821,-0.408696,0.369397
26,60,-1.0472,-0.698132,-0.174533,-0.174533,-1.04365,-0.69276,-0.160909,-0.186846,-0.709722,-0.300821,-0.408705,0.369392
26,60,-1.0472,-0.698132,-0.174533,-0.174533,-1.04365,-0.69276,-0.160909,-0.186846,-0.709722,-0.300821,-0.408705,0.369392
26,60,-1.0472,-0.698132,-0.174533,-0.174533,-1.04365,-0.69276,-0.160909,-0.186846,-0.709722,-0.300821,-0.408705,0.369392
26,60,-1.0472,-0.698132,-0.174533,-0.174533,-1.04365,-0.69276,-0.160909,-0.186846,-0.709722,-0.300821,-0.408705,0.369392
26,60,-1.0472,-0.698132,-0.174533,-0.174533,-1.04365,-0.69276,-0.160909,-0.186846,-0.709722,-0.300821,-0.408705,0.369392
26,60,-1.0472,-0.698132,-0.174533,-0.174533,-1.04365,-0.69276,-0.160909,-0.186846,-0.709722,-0.300821,-0.408705,0.369392
26,60,-1.0472,-0.698132,-0.174533,-0.174533,-1.04365,-0.69276,-0.160909,-0.186846,-0.709722,-0.300821,-0.408705,0.369392
26,60,-1.0472,-0.698132,-0.174533,-0.174533,-1.04365,-0.69276,-0.160909,-0.186846,-0.709722,-0.300821,-0.408705,0.369392
26,60,-1.0472,-0.698132,-0.174533,-0.174533,-1.04365,-0.69276,-0.160909,-0.186846,-0.709722,-0.300821,-0.408705,0.369392
26,60,-1.0472,-0.698132,-0.174533,-0.174533,-1.04365,-0.69276,-0.160909,-0.186846,-0.709722,-0.300821,-0.408705,0.369392
26,60,-1.0472,-0.698132,-0.174533,-0.174533,-1.04365,-0.69276,-0.160909,-0.186846,-0.709722,-0.300821,-0.408705,0.369392
26,60,-1.0472,-0.698132,-0.174533,-0.174533,-1.04365,-0.69276,-0.160909,-0.186846,-0.709722,-0.300821,-0.408705,0.369392
26,60,-1.0472,-0.698132,-0.174533,-0.174533,-1.04365,-0.69276,-0.160909,-0.186846,-0.709722,-0.300821,-0.408705,0.369392
26,60,-1.0472,-0.698132,-0.174533,-0.174533,-1.04365,-0.69276,-0.160909,-0.186846,-0.709722,-0.300821,-0.408705,0.369392
26,60,-1.0472,-0.698132,-0.174533,-0.174533,-1.04365,-0.69276,-0.160909,-0.186846,-0.709722,-0.300821,-0.408705,0.369392
26,60,-1.0472,-0.698132,-0.174533,-0.174533,-1.04365,-0.69276,-0.160909,-0.186846,-0.709722,-0.300821,-0.408705,0.369392
26,60,-1.0472,-0.698132,-0.174533,-0.174533,-1.04365,-0.69276,-0.160909,-0.186846,-0.709722,-0.300821,-0.408705,0.369392
26,60,-1.0472,-0.698132,-0.174533,-0.174533,-1.04365,-0.69276,-0.160909,-0.186846,-0.709722,-0.300821,-0.408705,0.369392
26,60,-1.0472,-0.698132,-0.174533,-0.174533,-1.04365,-0.69276,-0.160909,-0.186846,-0.709722,-0.300821,-0.408705,0.369392
26,60,-1.0472,-0.698132,-0.174533,-0.174533,-1.04365,-0.69276,-0.160909,-0.186846,-0.709722,-0.300821,-0.408705,0.369392
26,60,-1.0472,-0.698132,-0.174533,-0.174533,-1.04365,-0.69276,-0.160909,-0.186846,-0.709722,-0.300821,-0.408705,0.369392
26,60,-1.0472,-0.698132,-0.174533,-0.174533,-1.04365,-0.69276,-0.160909,-0.186846,-0.709722,-0.300821,-0.408705,0.369392
26,60,-1.0472,-0.698132,-0.174533,-0.174533,-1.04365,-0.69276,-0.160909,-0.186846,-0.709722,-0.300821,-0.408705,0.369392
26,60,-1.0472,-0.698132,-0.174533,-0.174533,-1.04365,-0.69276,-0.160909,-0.186846,-0.709722,-0.300821,-0.408705,0.369392
26,60,-1.0472,-0.698132,-0.174533,-0.174533,-1.04365,-0.69276,-0.160909,-0.186846,-0.709722,-0.300821,-0.408705,0.369392
26,60,-1.0472,-0.698132,-0.174533,-0.174533,-1.04365,-0.69276,-0.160909,-0.186846,-0.709722,-0.300821,-0.408705,0.369392
26,60,-1.0472,-0.698132,-0.174533,-0.174533,-1.04365,-0.69276,-0.160909,-0.186846,-0.709722,-0.300821,-0.408705,0.369392
26,60,-1.0472,-0.698132,-0.174533,-0.174533,-1.04365,-0.69276,-0.160909,-0.186846,-0.709722,-0.300821,-0.408705,0.369392
26,60,-1.0472,-0.698132,-0.174533,-0.174533,-1.04365,-0.69276,-0.160909,-0.186846,-0.709722,-0.300821,-0.408705,0.369392
26,60,-1.0472,-0.698132,-0.174533,-0.174533,-1.04365,-0.69276,-0.160909,-0.186846,-0.709722,-0.300821,-0.408705,0.369392
26,60,-1.0472,-0.698132,-0.174533,-0.174533,-1.04365,-0.69276,-0.160909,-0.186846,-0.709722,-0.300821,-0.408705,0.369392
26,60,-1.0472,-0.698132,-0.174533,-0.174533,-1.04365,-0.69276,-0.160909,-0.186846,-0.709722,-0.300821,-0.408705,0.369392
26,60,-1.0472,-0.698132,-0.174533,-0.174533,-1.04365,-0.69276,-0.160909,-0.186846,-0.709722,-0.300821,-0.408705,0.369392
26,60,-1.0472,-0.698132,-0.174533,-0.174533,-1.04365,-0.69276,-0.160909,-0.186846,-0.709722,-0.300821,-0.408705,0.369392
26,60,-1.0472,-0.698132,-0.174533,-0.174533,-1.04365,-0.69276,-0.160909,-0.186846,-0.709722,-0.300821,-0.408705,0.369392
26,60,-1.0472,-0.698132,-0.174533,-0.174533,-1.04365,-0.69276,-0.160909,-0.186846,-0.709722,-0.300821,-0.408705,0.369392
26,60,-1.0472,-0.698132,-0.174533,-0.174533,-1.04365,-0.69276,-0.160909,-0.186846,-0.709722,-0.300821,-0.408705,0.369392
26,60,-1.0472,-0.698132,-0.174533,-0.174533,-1.04365,-0.69276,-0.160909,-0.186846,-0.709722,-0.300821,-0.408705,0.369392
26,60,-1.0472,-0.698132,-0.174533,-0.174533,-1.04365,-0.69276,-0.160909,-0.186846,-0.709722,-0.300821,-0.408705,0.369392
26,60,-1.0472,-0.698132,-0.174533,-0.174533,-1.04365,-0.69276,-0.160909,-0.186846,-0.709722,-0.300821,-0.408705,0.369392
26,60,-1.0472,-0.698132,-0.174533,-0.174533,-1.04365,-0.69276,-0.160909,-0.186846,-0.709722,-0.300821,-0.408705,0.369392
26,60,-1.0472,-0.698132,-0.174533,-0.174533,-1.04365,-0.69276,-0.160909,-0.186846,-0.709722,-0.300821,-0.408705,0.369392
26,60,-1.0472,-0.698132,-0.174533,-0.174533,-1.04365,-0.69276,-0.160909,-0.186846,-0.709722,-0.300821,-0.408705,0.369392
26,60,-1.0472,-0.698132,-0.174533,-0.174533,-1.04365,-0.69276,-0.160909,-0.186846,-0.709722,-0.300821,-0.408705,0.369392
26,60,-1.0472,-0.698132,-0.174533,-0.174533,-1.04365,-0.69276,-0.160909,-0.186846,-0.709722,-0.300821,-0.408705,0.369392
26,60,-1.0472,-0.698132,-0.174533,-0.174533,-1.04365,-0.69276,-0.160909,-0.186846,-0.709722,-0.300821,-0.408705,0.369392
26,60,-1.0472,-0.698132,-0.174533,-0.174533,-1.04365,-0.69276,-0.160909,-0.186846,-0.709722,-0.300821,-0.408705,0.369392
26,60,-1.0472,-0.698132,-0.174533,-0.174533,-1.04365,-0.69276,-0.160909,-0.186846,-0.709722,-0.300821,-0.408705,0.369392
26,60,-1.0472,-0.698132,-0.174533,-0.174533,-1.04365,-0.69276,-0.160909,-0.186846,-0.709722,-0.300821,-0.408705,0.369392
26,60,-1.0472,-0.698132,-0.174533,-0.174533,-1.04365,-0.69276,-0.160909,-0.186846,-0.709722,-0.300821,-0.408705,0.369392
26,60,-1.0472,-0.698132,-0.174533,-0.174533,-1.04365,-0.69276,-0.160909,-0.186846,-0.709722,-0.300821,-0.408705,0.369392
26,60,-1.0472,-0.698132,-0.174533,-0.174533,-1.04365,-0.69276,-0.160909,-0.186846,-0.709722,-0.300821,-0.408705,0.369392
26,60,-1.0472,-0.698132,-0.174533,-0.174533,-1.04365,-0.69276,-0.160909,-0.186846,-0.709722,-0.300821,-0.408705,0.369392
26,60,-1.0472,-0.698132,-0.174533,-0.174533,-1.04365,-0.69276,-0.160909,-0.186846,-0.709722,-0.300821,-0.408705,0.369392
26,60,-1.0472,-0.698132,-0.174533,-0.174533,-1.04365,-0.69276,-0.160909,-0.186846,-0.709722,-0.300821,-0.408705,0.369392
26,60,-1.0472,-0.698132,-0.174533,-0.174533,-1.04365,-0.69276,-0.160909,-0.186846,-0.709722,-0.300821,-0.408705,0.369392
26,60,-1.0472,-0.698132,-0.174533,-0.174533,-1.04365,-0.69276,-0.160909,-0.186846,-0.709722,-0.300821,-0.408705,0.369392
26,60,-1.0472,-0.698132,-0.174533,-0.174533,-1.04365,-0.69276,-0.160909,-0.186846,-0.709722,-0.300821,-0.408705,0.369392
26,60,-1.0472,-0.698132,-0.174533,-0.174533,-1.04365,-0.69276,-0.160909,-0.186846,-0.709722,-0.300821,-0.408705,0.369392
26,60,-1.0472,-0.698132,-0.174533,-0.174533,-1.04365,-0.69276,-0.160909,-0.186846,-0.709722,-0.300821,-0.408705,0.369392
26,60,-1.0472,-0.698132,-0.174533,-0.174533,-1.04365,-0.69276,-0.160909,-0.186846,-0.709722,-0.300821,-0.408705,0.369392
26,60,-1.0472,-0.698132,-0.174533,-0.174533,-1.04365,-0.69276,-0.160909,-0.186846,-0.709722,-0.300821,-0.408705,0.369392
26,60,-1.0472,-0.698132,-0.174533,-0.174533,-1.04365,-0.69276,-0.160909,-0.186846,-0.709722,-0.300821,-0.408705,0.369392
26,60,-1.0472,-0.698132,-0.174533,-0.174533,-1.04365,-0.69276,-0.160909,-0.186846,-0.709722,-0.300821,-0.408705,0.369392
26,60,-1.0472,-0.698132,-0.174533,-0.174533,-1.04365,-0.69276,-0.160909,-0.186846,-0.709722,-0.300821,-0.408705,0.369392
26,60,-1.0472,-0.698132,-0.174533,-0.174533,-1.04365,-0.69276,-0.160909,-0.186846,-0.709722,-0.300821,-0.408705,0.369392
26,60,-1.0472,-0.698132,-0.174533,-0.174533,-1.04365,-0.69276,-0.160909,-0.186846,-0.709722,-0.300821,-0.408705,0.369392
26,60,-1.0472,-0.698132,-0.174533,-0.174533,-1.04365,-0.69276,-0.160909,-0.186846,-0.709722,-0.300821,-0.408705,0.369392
26,60,-1.0472,-0.698132,-0.174533,-0.174533,-1.04365,-0.69276,-0.160909,-0.186846,-0.709722,-0.300821,-0.408705,0.369392
26,60,-1.0472,-0.698132,-0.174533,-0.174533,-1.04365,-0.69276,-0.160909,-0.186846,-0.709722,-0.300821,-0.408705,0.369392
26,60,-1.0472,-0.698132,-0.174533,-0.174533,-1.04365,-0.69276,-0.160909,-0.186846,-0.709722,-0.300821,-0.408705,0.369392
26,60,-1.0472,-0.698132,-0.174533,-0.174533,-1.04365,-0.69276,-0.160909,-0.186846,-0.709722,-0.300821,-0.408705,0.369392
26,60,-1.0472,-0.698132,-0.174533,-0.174533,-1.04365,-0.69276,-0.160909,-0.186846,-0.709722,-0.300821,-0.408705,0.369392
26,60,-1.0472,-0.698132,-0.174533,-0.174533,-1.04365,-0.69276,-0.160909,-0.186846,-0.709722,-0.300821,-0.408705,0.369392
26,60,-1.0472,-0.698132,-0.174533,-0.174533,-1.04365,-0.69276,-0.160909,-0.186846,-0.709722,-0.300821,-0.408705,0.369392
26,60,-1.0472,-0.698132,-0.174533,-0.174533,-1.04365,-0.69276,-0.160909,-0.186846,-0.709722,-0.300821,-0.408705,0.369392
26,60,-1.0472,-0.698132,-0.174533,-0.174533,-1.04365,-0.69276,-0.160909,-0.186846,-0.709722,-0.300821,-0.408705,0.369392
26,60,-1.0472,-0.698132,-0.174533,-0.174533,-1.04365,-0.69276,-0.160909,-0.186846,-0.709722,-0.300821,-0.408705,0.369392
26,60,-1.0472,-0.698132,-0.174533,-0.174533,-1.04365,-0.69276,-0.160909,-0.186846,-0.709722,-0.300821,-0.408705,0.369392
26,60,-1.0472,-0.698132,-0.174533,-0.174533,-1.04365,-0.69276,-0.160909,-0.186846,-0.709722,-0.300821,-0.408705,0.369392
26,60,-1.0472,-0.698132,-0.174533,-0.174533,-1.04365,-0.69276,-0.160909,-0.186846,-0.709722,-0.300821,-0.408705,0.369392
26,60,-1.0472,-0.698132,-0.174533,-0.174533,-1.04365,-0.69276,-0.160909,-0.186846,-0.709722,-0.300821,-0.408705,0.369392
26,60,-1.0472,-0.698132,-0.174533,-0.174533,-1.04365,-0.69276,-0.160909,-0.186846,-0.709722,-0.300821,-0.408705,0.369392
26,60,-1.0472,-0.698132,-0.174533,-0.174533,-1.04365,-0.69276,-0.160909,-0.186846,-0.709722,-0.300821,-0.408705,0.369392
26,60,-1.0472,-0.698132,-0.174533,-0.174533,-1.04365,-0.69276,-0.160909,-0.186846,-0.709722,-0.300821,-0.408705,0.369392
26,60,-1.0472,-0.698132,-0.174533,-0.174533,-1.04365,-0.69276,-0.160909,-0.186846,-0.709722,-0.300821,-0.408705,0.369392
26,60,-1.0472,-0.698132,-0.174533,-0.174533,-1.04365,-0.69276,-0.160909,-0.186846,-0.709722,-0.300821,-0.408705,0.369392
26,60,-1.0472,-0.698132,-0.174533,-0.174533,-1.04365,-0.69276,-0.160909,-0.186846,-0.709722,-0.300821,-0.408705,0.369392
26,60,-1.0472,-0.698132,-0.174533,-0.174533,-1.04365,-0.69276,-0.160909,-0.186846,-0.709722,-0.300821,-0.408705,0.369392
26,60,-1.0472,-0.698132,-0.174533,-0.174533,-1.04365,-0.69276,-0.160909,-0.186846,-0.709722,-0.300821,-0.408705,0.369392
26,60,-1.0472,-0.698132,-0.174533,-0.174533,-1.04365,-0.69276,-0.160909,-0.186846,-0.709722,-0.300821,-0.408705,0.369392
26,60,-1.0472,-0.698132,-0.174533,-0.174533,-1.04365,-0.69276,-0.160909,-0.186846,-0.709722,-0.300821,-0.408705,0.369392
26,60,-1.0472,-0.698132,-0.174533,-0.174533,-1.04365,-0.69276,-0.160909,-0.186846,-0.709722,-0.300821,-0.408705,0.369392
26,60,-1.0472,-0.698132,-0.174533,-0.174533,-1.04365,-0.69276,-0.160909,-0.186846,-0.709722,-0.300821,-0.408705,0.369392
26,60,-1.0472,-0.698132,-0.174533,-0.174533,-1.04365,-0.69276,-0.160909,-0.186846,-0.709722,-0.300821,-0.408705,0.369392
26,60,-1.0472,-0.698132,-0.174533,-0.174533,-1.04365,-0.69276,-0.160909,-0.186846,-0.709722,-0.300821,-0.408705,0.369392
26,60,-1.0472,-0.698132,-0.174533,-0.174533,-1.04365,-0.69276,-0.160909,-0.186846,-0.709722,-0.300821,-0.408705,0.369392
26,60,-1.0472,-0.698132,-0.174533,-0.174533,-1.04365,-0.69276,-0.160909,-0.186846,-0.709722,-0.300821,-0.408705,0.369392
26,60,-1.0472,-0.698132,-0.174533,-0.174533,-1.04365,-0.69276,-0.160909,-0.186846,-0.709722,-0.300821,-0.408705,0.369392
26,60,-1.0472,-0.698132,-0.174533,-0.174533,-1.04365,-0.69276,-0.160909,-0.186846,-0.709722,-0.300821,-0.408705,0.369392
26,60,-1.0472,-0.698132,-0.174533,-0.174533,-1.04365,-0.69276,-0.160909,-0.186846,-0.709722,-0.300821,-0.408705,0.369392
26,60,-1.0472,-0.698132,-0.174533,-0.174533,-1.04365,-0.69276,-0.160909,-0.186846,-0.709722,-0.300821,-0.408705,0.369392
26,60,-1.0472,-0.698132,-0.174533,-0.174533,-1.04365,-0.69276,-0.160909,-0.186846,-0.709722,-0.300821,-0.408705,0.369392
26,60,-1.0472,-0.698132,-0.174533,-0.174533,-1.04365,-0.69276,-0.160909,-0.186846,-0.709722,-0.300821,-0.408705,0.369392
26,60,-1.0472,-0.698132,-0.174533,-0.174533,-1.04365,-0.69276,-0.160909,-0.186846,-0.709722,-0.300821,-0.408705,0.369392
26,60,-1.0472,-0.698132,-0.174533,-0.174533,-1.04365,-0.69276,-0.160909,-0.186846,-0.709722,-0.300821,-0.408705,0.369392
26,60,-1.0472,-0.698132,-0.174533,-0.174533,-1.04365,-0.69276,-0.160909,-0.186846,-0.709722,-0.300821,-0.408705,0.369392
26,60,-1.0472,-0.698132,-0.174533,-0.174533,-1.04365,-0.69276,-0.160909,-0.186846,-0.709722,-0.300821,-0.408705,0.369392
26,60,-1.0472,-0.698132,-0.174533,-0.174533,-1.04365,-0.69276,-0.160909,-0.186846,-0.709722,-0.300821,-0.408705,0.369392
26,60,-1.0472,-0.698132,-0.174533,-0.174533,-1.04365,-0.69276,-0.160909,-0.186846,-0.709722,-0.300821,-0.408705,0.369392
26,60,-1.0472,-0.698132,-0.174533,-0.174533,-1.04365,-0.69276,-0.160909,-0.186846,-0.709722,-0.300821,-0.408705,0.369392
26,60,-1.0472,-0.698132,-0.174533,-0.174533,-1.04365,-0.69276,-0.160909,-0.186846,-0.709722,-0.300821,-0.408705,0.369392
26,60,-1.0472,-0.698132,-0.174533,-0.174533,-1.04365,-0.69276,-0.160909,-0.186846,-0.709722,-0.300821,-0.408705,0.369392
26,60,-1.0472,-0.698132,-0.174533,-0.174533,-1.04365,-0.69276,-0.160909,-0.186846,-0.709722,-0.300821,-0.408705,0.369392
26,60,-1.0472,-0.698132,-0.174533,-0.174533,-1.04365,-0.69276,-0.160909,-0.186846,-0.709722,-0.300821,-0.408705,0.369392
26,60,-1.0472,-0.698132,-0.174533,-0.174533,-1.04365,-0.69276,-0.160909,-0.186846,-0.709722,-0.300821,-0.408705,0.369392
26,60,-1.0472,-0.698132,-0.174533,-0.174533,-1.04365,-0.69276,-0.160909,-0.186846,-0.709722,-0.300821,-0.408705,0.369392
26,60,-1.0472,-0.698132,-0.174533,-0.174533,-1.04365,-0.69276,-0.160909,-0.186846,-0.709722,-0.300821,-0.408705,0.369392
26,60,-1.0472,-0.698132,-0.174533,-0.174533,-1.04365,-0.69276,-0.160909,-0.186846,-0.709722,-0.300821,-0.408705,0.369392
26,60,-1.0472,-0.698132,-0.174533,-0.174533,-1.04365,-0.69276,-0.160909,-0.186846,-0.709722,-0.300821,-0.408705,0.369392
26,60,-1.0472,-0.698132,-0.174533,-0.174533,-1.04365,-0.69276,-0.160909,-0.186846,-0.709722,-0.300821,-0.408705,0.369392
26,60,-1.0472,-0.698132,-0.174533,-0.174533,-1.04365,-0.69276,-0.160909,-0.186846,-0.709722,-0.300821,-0.408705,0.369392
26,60,-1.0472,-0.698132,-0.174533,-0.174533,-1.04365,-0.69276,-0.160909,-0.186846,-0.709722,-0.300821,-0.408705,0.369392
26,60,-1.0472,-0.698132,-0.174533,-0.174533,-1.04365,-0.69276,-0.160909,-0.186846,-0.709722,-0.300821,-0.408705,0.369392
26,60,-1.0472,-0.698132,-0.174533,-0.174533,-1.04365,-0.69276,-0.160909,-0.186846,-0.709722,-0.300821,-0.408705,0.369392
26,60,-1.0472,-0.698132,-0.174533,-0.174533,-1.04365,-0.69276,-0.160909,-0.186846,-0.709722,-0.300821,-0.408705,0.369392
26,60,-1.0472,-0.698132,-0.174533,-0.174533,-1.04365,-0.69276,-0.160909,-0.186846,-0.709722,-0.300821,-0.408705,0.369392
26,60,-1.0472,-0.698132,-0.174533,-0.174533,-1.04365,-0.69276,-0.160909,-0.186846,-0.709722,-0.300821,-0.408705,0.369392
26,60,-1.0472,-0.698132,-0.174533,-0.174533,-1.04365,-0.69276,-0.160909,-0.186846,-0.709722,-0.300821,-0.408705,0.369392
26,60,-1.0472,-0.698132,-0.174533,-0.174533,-1.04365,-0.69276,-0.160909,-0.186846,-0.709722,-0.300821,-0.408705,0.369392
26,60,-1.0472,-0.698132,-0.174533,-0.174533,-1.04365,-0.69276,-0.160909,-0.186846,-0.709722,-0.300821,-0.408705,0.369392
26,60,-1.0472,-0.698132,-0.174533,-0.174533,-1.04365,-0.69276,-0.160909,-0.186846,-0.709722,-0.300821,-0.408705,0.369392
26,60,-1.0472,-0.698132,-0.174533,-0.174533,-1.04365,-0.69276,-0.160909,-0.186846,-0.709722,-0.300821,-0.408705,0.369392
26,60,-1.0472,-0.698132,-0.174533,-0.174533,-1.04365,-0.69276,-0.160909,-0.186846,-0.709722,-0.300821,-0.408705,0.369392
26,60,-1.0472,-0.698132,-0.174533,-0.174533,-1.04365,-0.69276,-0.160909,-0.186846,-0.709722,-0.300821,-0.408705,0.369392
26,60,-1.0472,-0.698132,-0.174533,-0.174533,-1.04365,-0.69276,-0.160909,-0.186846,-0.709722,-0.300821,-0.408705,0.369392
26,60,-1.0472,-0.698132,-0.174533,-0.174533,-1.04365,-0.69276,-0.160909,-0.186846,-0.709722,-0.300821,-0.408705,0.369392
26,60,-1.0472,-0.698132,-0.174533,-0.174533,-1.04365,-0.69276,-0.160909,-0.186846,-0.709722,-0.300821,-0.408705,0.369392
26,60,-1.0472,-0.698132,-0.174533,-0.174533,-1.04365,-0.69276,-0.160909,-0.186846,-0.709722,-0.300821,-0.408705,0.369392
26,60,-1.0472,-0.698132,-0.174533,-0.174533,-1.04365,-0.69276,-0.160909,-0.186846,-0.709722,-0.300821,-0.408705,0.369392
26,60,-1.0472,-0.698132,-0.174533,-0.174533,-1.04365,-0.69276,-0.160909,-0.186846,-0.709722,-0.300821,-0.408705,0.369392
26,60,-1.0472,-0.698132,-0.174533,-0.174533,-1.04365,-0.69276,-0.160909,-0.186846,-0.709722,-0.300821,-0.408705,0.369392
26,60,-1.0472,-0.698132,-0.174533,-0.174533,-1.04365,-0.69276,-0.160909,-0.186846,-0.709722,-0.300821,-0.408705,0.369392
26,60,-1.0472,-0.698132,-0.174533,-0.174533,-1.04365,-0.69276,-0.160909,-0.186846,-0.709722,-0.300821,-0.408705,0.369392
26,60,-1.0472,-0.698132,-0.174533,-0.174533,-1.04365,-0.69276,-0.160909,-0.186846,-0.709722,-0.300821,-0.408705,0.369392
26,60,-1.0472,-0.698132,-0.174533,-0.174533,-1.04365,-0.69276,-0.160909,-0.186846,-0.709722,-0.300821,-0.408705,0.369392
26,60,-1.0472,-0.698132,-0.174533,-0.174533,-1.04365,-0.69276,-0.160909,-0.186846,-0.709722,-0.300821,-0.408705,0.369392
26,60,-1.0472,-0.698132,-0.174533,-0.174533,-1.04365,-0.69276,-0.160909,-0.186846,-0.709722,-0.300821,-0.408705,0.369392
26,60,-1.0472,-0.698132,-0.174533,-0.174533,-1.04365,-0.69276,-0.160909,-0.186846,-0.709722,-0.300821,-0.408705,0.369392
26,60,-1.0472,-0.698132,-0.174533,-0.174533,-1.04365,-0.69276,-0.160909,-0.186846,-0.709722,-0.300821,-0.408705,0.369392
26,60,-1.0472,-0.698132,-0.174533,-0.174533,-1.04365,-0.69276,-0.160909,-0.186846,-0.709722,-0.300821,-0.408705,0.369392
26,60,-1.0472,-0.698132,-0.174533,-0.174533,-1.04365,-0.69276,-0.160909,-0.186846,-0.709722,-0.300821,-0.408705,0.369392
26,60,-1.0472,-0.698132,-0.174533,-0.174533,-1.04365,-0.69276,-0.160909,-0.186846,-0.709722,-0.300821,-0.408705,0.369392
26,60,-1.0472,-0.698132,-0.174533,-0.174533,-1.04365,-0.69276,-0.160909,-0.186846,-0.709722,-0.300821,-0.408705,0.369392
26,60,-1.0472,-0.698132,-0.174533,-0.174533,-1.04365,-0.69276,-0.160909,-0.186846,-0.709722,-0.300821,-0.408705,0.369392
26,60,-1.0472,-0.698132,-0.174533,-0.174533,-1.04365,-0.69276,-0.160909,-0.186846,-0.709722,-0.300821,-0.408705,0.369392
26,60,-1.0472,-0.698132,-0.174533,-0.174533,-1.04365,-0.69276,-0.160909,-0.186846,-0.709722,-0.300821,-0.408705,0.369392
26,60,-1.0472,-0.698132,-0.174533,-0.174533,-1.04365,-0.69276,-0.160909,-0.186846,-0.709722,-0.300821,-0.408705,0.369392
26,60,-1.0472,-0.698132,-0.174533,-0.174533,-1.04365,-0.69276,-0.160909,-0.186846,-0.709722,-0.300821,-0.408705,0.369392
26,60,-1.0472,-0.698132,-0.174533,-0.174533,-1.04365,-0.69276,-0.160909,-0.186846,-0.709722,-0.300821,-0.408705,0.369392
26,60,-1.0472,-0.698132,-0.174533,-0.174533,-1.04365,-0.69276,-0.160909,-0.186846,-0.709722,-0.300821,-0.408705,0.369392
