stim_pw [us],stim_amp [mA],com_elbow_fe [rad],com_forearm_ps [rad],com_wrist_fe [rad],com_wrist_ru [rad],act_elbow_fe [rad],act_forearm_ps [rad],act_wrist_fe [rad],act_wrist_ru [rad],elbow_fe_trq [Nm],forearm_ps_trq [Nm],wrist_fe_trq [Nm],wrist_ru_trq [Nm]
26,40,-1.0472,-0.698132,-0.174533,-0.174533,-1.04315,-0.691946,-0.155149,-0.181876,-0.809942,-0.346427,-0.581602,0.220238
26,40,-1.0472,-0.698132,-0.174533,-0.174533,-1.04315,-0.691946,-0.155149,-0.181876,-0.809942,-0.346427,-0.581602,0.220238
26,40,-1.0472,-0.698132,-0.174533,-0.174533,-1.04315,-0.691946,-0.155149,-0.181876,-0.809942,-0.346427,-0.581602,0.220238
26,40,-1.0472,-0.698132,-0.174533,-0.174533,-1.04315,-0.691946,-0.155149,-0.181876,-0.809942,-0.346427,-0.581602,0.220238
26,40,-1.0472,-0.698132,-0.174533,-0.174533,-1.04315,-0.691946,-0.155149,-0.181876,-0.809942,-0.346427,-0.581602,0.220238
26,40,-1.0472,-0.698132,-0.174533,-0.174533,-1.04315,-0.691946,-0.155149,-0.181876,-0.809942,-0.346427,-0.581602,0.220238
26,40,-1.0472,-0.698132,-0.174533,-0.174533,-1.04315,-0.691946,-0.155149,-0.181876,-0.809942,-0.346427,-0.581602,0.220238
26,40,-1.0472,-0.698132,-0.174533,-0.174533,-1.04315,-0.691946,-0.155149,-0.181876,-0.809942,-0.346427,-0.581602,0.220238
26,40,-1.0472,-0.698132,-0.174533,-0.174533,-1.04315,-0.691946,-0.155149,-0.181876,-0.809942,-0.346427,-0.581602,0.220238
26,40,-1.0472,-0.698132,-0.174533,-0.174533,-1.04315,-0.691946,-0.155149,-0.181876,-0.809942,-0.346427,-0.581602,0.220238
26,40,-1.0472,-0.698132,-0.174533,-0.174533,-1.04315,-0.691946,-0.155149,-0.181876,-0.809942,-0.346427,-0.581602,0.220238
26,40,-1.0472,-0.698132,-0.174533,-0.174533,-1.04315,-0.691946,-0.155149,-0.181876,-0.809942,-0.346427,-0.581602,0.220238
26,40,-1.0472,-0.698132,-0.174533,-0.174533,-1.04315,-0.691946,-0.155149,-0.181876,-0.809942,-0.346427,-0.581602,0.220238
26,40,-1.0472,-0.698132,-0.174533,-0.174533,-1.04315,-0.691946,-0.155149,-0.181876,-0.809942,-0.346427,-0.581602,0.220238
26,40,-1.0472,-0.698132,-0.174533,-0.174533,-1.04315,-0.691946,-0.155149,-0.181876,-0.809942,-0.346427,-0.581602,0.220238
26,40,-1.0472,-0.698132,-0.174533,-0.174533,-1.04315,-0.691946,-0.155149,-0.181876,-0.809942,-0.346427,-0.581602,0.220238
26,40,-1.0472,-0.698132,-0.174533,-0.174533,-1.04315,-0.691946,-0.155149,-0.181876,-0.809942,-0.346427,-0.581602,0.220238
26,40,-1.0472,-0.698132,-0.174533,-0.174533,-1.04315,-0.691946,-0.155149,-0.181876,-0.809942,-0.346427,-0.581602,0.220238
26,40,-1.0472,-0.698132,-0.174533,-0.174533,-1.04315,-0.691946,-0.155149,-0.181876,-0.809942,-0.346427,-0.581602,0.220238
26,40,-1.0472,-0.698132,-0.174533,-0.174533,-1.04315,-0.691946,-0.155149,-0.181876,-0.809942,-0.346427,-0.581602,0.220238
26,40,-1.0472,-0.698132,-0.174533,-0.174533,-1.04315,-0.691946,-0.155149,-0.181876,-0.809942,-0.346427,-0.581602,0.220238
26,40,-1.0472,-0.698132,-0.174533,-0.174533,-1.04315,-0.691946,-0.155084,-0.181834,-0.809942,-0.346427,-0.583517,0.219007
26,40,-1.0472,-0.698132,-0.174533,-0.174533,-1.04315,-0.691946,-0.155084,-0.181834,-0.809942,-0.346427,-0.583517,0.219007
26,40,-1.0472,-0.698132,-0.174533,-0.174533,-1.04315,-0.691946,-0.155084,-0.181834,-0.809942,-0.346427,-0.583517,0.219007
26,40,-1.0472,-0.698132,-0.174533,-0.174533,-1.04315,-0.691946,-0.155084,-0.181834,-0.809942,-0.346427,-0.583517,0.219007
26,40,-1.0472,-0.698132,-0.174533,-0.174533,-1.04315,-0.691946,-0.155084,-0.181834,-0.809942,-0.346427,-0.583517,0.219007
26,40,-1.0472,-0.698132,-0.174533,-0.174533,-1.04315,-0.691946,-0.155084,-0.181834,-0.809942,-0.346427,-0.583517,0.219007
26,40,-1.0472,-0.698132,-0.174533,-0.174533,-1.04315,-0.691946,-0.155084,-0.181834,-0.809942,-0.346427,-0.583517,0.219007
26,40,-1.0472,-0.698132,-0.174533,-0.174533,-1.04315,-0.691946,-0.155084,-0.181834,-0.809942,-0.346427,-0.583517,0.219007
26,40,-1.0472,-0.698132,-0.174533,-0.174533,-1.04315,-0.691946,-0.155019,-0.181792,-0.809942,-0.346427,-0.585448,0.217765
26,40,-1.0472,-0.698132,-0.174533,-0.174533,-1.04315,-0.691946,-0.155019,-0.181792,-0.809942,-0.346427,-0.585448,0.217765
26,40,-1.0472,-0.698132,-0.174533,-0.174533,-1.04315,-0.691946,-0.155019,-0.181792,-0.809942,-0.346427,-0.585448,0.217765
26,40,-1.0472,-0.698132,-0.174533,-0.174533,-1.04315,-0.691946,-0.155019,-0.181792,-0.809942,-0.346427,-0.585448,0.217765
26,40,-1.0472,-0.698132,-0.174533,-0.174533,-1.04315,-0.691946,-0.155019,-0.181792,-0.809942,-0.346427,-0.585448,0.217765
26,40,-1.0472,-0.698132,-0.174533,-0.174533,-1.04315,-0.691946,-0.155019,-0.181792,-0.809942,-0.346427,-0.585448,0.217765
26,40,-1.0472,-0.698132,-0.174533,-0.174533,-1.04315,-0.691946,-0.155019,-0.181792,-0.809942,-0.346427,-0.585448,0.217765
26,40,-1.0472,-0.698132,-0.174533,-0.174533,-1.04315,-0.691946,-0.155019,-0.181792,-0.809942,-0.346427,-0.585448,0.217765
26,40,-1.0472,-0.698132,-0.174533,-0.174533,-1.04315,-0.691946,-0.155019,-0.181792,-0.809942,-0.346427,-0.585448,0.217765
26,40,-1.0472,-0.698132,-0.174533,-0.174533,-1.04315,-0.691946,-0.155019,-0.181792,-0.809942,-0.346427,-0.585448,0.217765
26,40,-1.0472,-0.698132,-0.174533,-0.174533,-1.04315,-0.691946,-0.155019,-0.181792,-0.809942,-0.346427,-0.585448,0.217765
26,40,-1.0472,-0.698132,-0.174533,-0.174533,-1.04315,-0.691946,-0.155019,-0.181792,-0.809942,-0.346427,-0.585448,0.217765
26,40,-1.0472,-0.698132,-0.174533,-0.174533,-1.04315,-0.691946,-0.155019,-0.181792,-0.809942,-0.346427,-0.585448,0.217765
26,40,-1.0472,-0.698132,-0.174533,-0.174533,-1.04315,-0.691946,-0.155019,-0.181792,-0.809942,-0.346427,-0.585448,0.217765
26,40,-1.0472,-0.698132,-0.174533,-0.174533,-1.04315,-0.691946,-0.155019,-0.181792,-0.809942,-0.346427,-0.585448,0.217765
26,40,-1.0472,-0.698132,-0.174533,-0.174533,-1.04315,-0.691946,-0.155019,-0.181792,-0.809942,-0.346427,-0.585448,0.217765
26,40,-1.0472,-0.698132,-0.174533,-0.174533,-1.04315,-0.691946,-0.155019,-0.181792,-0.809942,-0.346427,-0.585448,0.217765
26,40,-1.0472,-0.698132,-0.174533,-0.174533,-1.04315,-0.691946,-0.155019,-0.181792,-0.809942,-0.346427,-0.585448,0.217765
26,40,-1.0472,-0.698132,-0.174533,-0.174533,-1.04315,-0.691946,-0.155019,-0.181792,-0.809942,-0.346427,-0.585448,0.217765
26,40,-1.0472,-0.698132,-0.174533,-0.174533,-1.04315,-0.691946,-0.155019,-0.181792,-0.809942,-0.346427,-0.585448,0.217765
26,40,-1.0472,-0.698132,-0.174533,-0.174533,-1.04315,-0.691946,-0.155019,-0.181792,-0.809942,-0.346427,-0.585448,0.217765
26,40,-1.0472,-0.698132,-0.174533,-0.174533,-1.04315,-0.691946,-0.155019,-0.181792,-0.809942,-0.346427,-0.585448,0.217765
26,40,-1.0472,-0.698132,-0.174533,-0.174533,-1.04315,-0.691946,-0.155019,-0.181792,-0.809942,-0.346427,-0.585448,0.217765
26,40,-1.0472,-0.698132,-0.174533,-0.174533,-1.04315,-0.691946,-0.155019,-0.181792,-0.809942,-0.346427,-0.585448,0.217765
26,40,-1.0472,-0.698132,-0.174533,-0.174533,-1.04315,-0.691946,-0.155019,-0.181792,-0.809942,-0.346427,-0.585448,0.217765
26,40,-1.0472,-0.698132,-0.174533,-0.174533,-1.04315,-0.691946,-0.155019,-0.181792,-0.809942,-0.346427,-0.585448,0.217765
26,40,-1.0472,-0.698132,-0.174533,-0.174533,-1.04315,-0.691946,-0.155019,-0.181792,-0.809942,-0.346427,-0.585448,0.217765
26,40,-1.0472,-0.698132,-0.174533,-0.174533,-1.04315,-0.691946,-0.155019,-0.181792,-0.809942,-0.346427,-0.585448,0.217765
26,40,-1.0472,-0.698132,-0.174533,-0.174533,-1.04315,-0.691946,-0.155019,-0.181792,-0.809942,-0.346427,-0.585448,0.217765
26,40,-1.0472,-0.698132,-0.174533,-0.174533,-1.04315,-0.691946,-0.155019,-0.181792,-0.809942,-0.346427,-0.585448,0.217765
26,40,-1.0472,-0.698132,-0.174533,-0.174533,-1.04315,-0.691946,-0.155019,-0.181792,-0.809942,-0.346427,-0.585443,0.217763
26,40,-1.0472,-0.698132,-0.174533,-0.174533,-1.04315,-0.691946,-0.155019,-0.181792,-0.809942,-0.346427,-0.585443,0.217763
26,40,-1.0472,-0.698132,-0.174533,-0.174533,-1.04315,-0.691946,-0.155019,-0.181792,-0.809942,-0.346427,-0.585443,0.217763
26,40,-1.0472,-0.698132,-0.174533,-0.174533,-1.04315,-0.691946,-0.155019,-0.181792,-0.809942,-0.346427,-0.585443,0.217763
26,40,-1.0472,-0.698132,-0.174533,-0.174533,-1.04315,-0.691946,-0.155019,-0.181792,-0.809942,-0.346427,-0.585443,0.217763
26,40,-1.0472,-0.698132,-0.174533,-0.174533,-1.04315,-0.691946,-0.155019,-0.181792,-0.809942,-0.346427,-0.585443,0.217763
26,40,-1.0472,-0.698132,-0.174533,-0.174533,-1.04315,-0.691946,-0.155019,-0.181792,-0.809942,-0.346427,-0.585443,0.217763
26,40,-1.0472,-0.698132,-0.174533,-0.174533,-1.04315,-0.691946,-0.155019,-0.181792,-0.809942,-0.346427,-0.585443,0.217763
26,40,-1.0472,-0.698132,-0.174533,-0.174533,-1.04315,-0.691946,-0.155019,-0.181792,-0.809942,-0.346427,-0.585443,0.217763
26,40,-1.0472,-0.698132,-0.174533,-0.174533,-1.04315,-0.691946,-0.155019,-0.181792,-0.809942,-0.346427,-0.585443,0.217763
26,40,-1.0472,-0.698132,-0.174533,-0.174533,-1.04315,-0.691946,-0.155019,-0.181792,-0.809942,-0.346427,-0.585443,0.217763
26,40,-1.0472,-0.698132,-0.174533,-0.174533,-1.04315,-0.691946,-0.155019,-0.181792,-0.809942,-0.346427,-0.585443,0.217763
26,40,-1.0472,-0.698132,-0.174533,-0.174533,-1.04315,-0.691946,-0.155019,-0.181792,-0.809942,-0.346427,-0.585443,0.217763
26,40,-1.0472,-0.698132,-0.174533,-0.174533,-1.04315,-0.691946,-0.155019,-0.181792,-0.809942,-0.346427,-0.585443,0.217763
26,40,-1.0472,-0.698132,-0.174533,-0.174533,-1.04315,-0.691946,-0.155019,-0.181792,-0.809942,-0.346427,-0.585443,0.217763
26,40,-1.0472,-0.698132,-0.174533,-0.174533,-1.04315,-0.691946,-0.155019,-0.181792,-0.809942,-0.346427,-0.585443,0.217763
26,40,-1.0472,-0.698132,-0.174533,-0.174533,-1.04315,-0.691946,-0.155019,-0.181792,-0.809942,-0.346427,-0.585443,0.217763
26,40,-1.0472,-0.698132,-0.174533,-0.174533,-1.04315,-0.691946,-0.155019,-0.181792,-0.809942,-0.346427,-0.585443,0.217763
26,40,-1.0472,-0.698132,-0.174533,-0.174533,-1.04315,-0.691946,-0.155019,-0.181792,-0.809942,-0.346427,-0.585443,0.217763
26,40,-1.0472,-0.698132,-0.174533,-0.174533,-1.04315,-0.691946,-0.155019,-0.181792,-0.809942,-0.346427,-0.585443,0.217763
26,40,-1.0472,-0.698132,-0.174533,-0.174533,-1.04315,-0.691946,-0.155019,-0.181792,-0.809942,-0.346427,-0.585443,0.217763
26,40,-1.0472,-0.698132,-0.174533,-0.174533,-1.04315,-0.691946,-0.155019,-0.181792,-0.809942,-0.346427,-0.585443,0.217763
26,40,-1.0472,-0.698132,-0.174533,-0.174533,-1.04315,-0.691946,-0.155019,-0.181792,-0.809942,-0.346427,-0.585443,0.217763
26,40,-1.0472,-0.698132,-0.174533,-0.174533,-1.04315,-0.691946,-0.155019,-0.181792,-0.809942,-0.346427,-0.585443,0.217763
26,40,-1.0472,-0.698132,-0.174533,-0.174533,-1.04315,-0.691946,-0.155019,-0.181792,-0.809942,-0.346427,-0.585443,0.217763
26,40,-1.0472,-0.698132,-0.174533,-0.174533,-1.04315,-0.691946,-0.155019,-0.181792,-0.809942,-0.346427,-0.585443,0.217763
26,40,-1.0472,-0.698132,-0.174533,-0.174533,-1.04315,-0.691946,-0.155019,-0.181792,-0.809942,-0.346427,-0.585443,0.217763
26,40,-1.0472,-0.698132,-0.174533,-0.174533,-1.04315,-0.691946,-0.155019,-0.181792,-0.809942,-0.346427,-0.585443,0.217763
26,40,-1.0472,-0.698132,-0.174533,-0.174533,-1.04315,-0.691946,-0.155019,-0.181792,-0.809942,-0.346427,-0.585443,0.217763
26,40,-1.0472,-0.698132,-0.174533,-0.174533,-1.04315,-0.691946,-0.155019,-0.181792,-0.809942,-0.346427,-0.585443,0.217763
26,40,-1.0472,-0.698132,-0.174533,-0.174533,-1.04315,-0.691946,-0.155019,-0.181792,-0.809942,-0.346427,-0.585443,0.217763
26,40,-1.0472,-0.698132,-0.174533,-0.174533,-1.04315,-0.691946,-0.155019,-0.181792,-0.809942,-0.346427,-0.585443,0.217763
26,40,-1.0472,-0.698132,-0.174533,-0.174533,-1.04315,-0.691946,-0.155019,-0.181792,-0.809942,-0.346427,-0.585443,0.217763
26,40,-1.0472,-0.698132,-0.174533,-0.174533,-1.04315,-0.691946,-0.155019,-0.181792,-0.809942,-0.346427,-0.585443,0.217763
26,40,-1.0472,-0.698132,-0.174533,-0.174533,-1.04315,-0.691946,-0.155019,-0.181792,-0.809942,-0.346427,-0.585443,0.217763
26,40,-1.0472,-0.698132,-0.174533,-0.174533,-1.04315,-0.691896,-0.155019,-0.181792,-0.809942,-0.349284,-0.585443,0.217763
26,40,-1.0472,-0.698132,-0.174533,-0.174533,-1.04315,-0.691896,-0.155019,-0.181792,-0.809942,-0.349284,-0.585443,0.217763
26,40,-1.0472,-0.698132,-0.174533,-0.174533,-1.04315,-0.691896,-0.155019,-0.181792,-0.809942,-0.349284,-0.585443,0.217763
26,40,-1.0472,-0.698132,-0.174533,-0.174533,-1.04315,-0.691896,-0.155019,-0.181792,-0.809942,-0.349284,-0.585443,0.217763
26,40,-1.0472,-0.698132,-0.174533,-0.174533,-1.04315,-0.691896,-0.155019,-0.181792,-0.809942,-0.349284,-0.585443,0.217763
26,40,-1.0472,-0.698132,-0.174533,-0.174533,-1.04315,-0.691896,-0.155019,-0.181792,-0.809942,-0.349284,-0.585443,0.217763
26,40,-1.0472,-0.698132,-0.174533,-0.174533,-1.04315,-0.691896,-0.155019,-0.181792,-0.809942,-0.349284,-0.585443,0.217763
26,40,-1.0472,-0.698132,-0.174533,-0.174533,-1.04315,-0.691896,-0.155019,-0.181792,-0.809942,-0.349284,-0.585443,0.217763
26,40,-1.0472,-0.698132,-0.174533,-0.174533,-1.04315,-0.691896,-0.155019,-0.181792,-0.809942,-0.349284,-0.585443,0.217763
26,40,-1.0472,-0.698132,-0.174533,-0.174533,-1.04315,-0.691896,-0.155019,-0.181792,-0.809942,-0.349284,-0.585443,0.217763
26,40,-1.0472,-0.698132,-0.174533,-0.174533,-1.04315,-0.691896,-0.155019,-0.181792,-0.809942,-0.349284,-0.585443,0.217763
26,40,-1.0472,-0.698132,-0.174533,-0.174533,-1.04315,-0.691896,-0.155019,-0.181792,-0.809942,-0.349284,-0.585443,0.217763
26,40,-1.0472,-0.698132,-0.174533,-0.174533,-1.04315,-0.691896,-0.155019,-0.181792,-0.809942,-0.349284,-0.585443,0.217763
26,40,-1.0472,-0.698132,-0.174533,-0.174533,-1.04315,-0.691896,-0.155019,-0.181792,-0.809942,-0.349284,-0.585443,0.217763
26,40,-1.0472,-0.698132,-0.174533,-0.174533,-1.04315,-0.691896,-0.155019,-0.181792,-0.809942,-0.349284,-0.585443,0.217763
26,40,-1.0472,-0.698132,-0.174533,-0.174533,-1.04315,-0.691896,-0.155019,-0.181792,-0.809942,-0.349284,-0.585443,0.217763
26,40,-1.0472,-0.698132,-0.174533,-0.174533,-1.04315,-0.691896,-0.155019,-0.181792,-0.809942,-0.349284,-0.585443,0.217763
26,40,-1.0472,-0.698132,-0.174533,-0.174533,-1.04315,-0.691896,-0.155019,-0.181792,-0.809942,-0.349284,-0.585443,0.217763
26,40,-1.0472,-0.698132,-0.174533,-0.174533,-1.04315,-0.691896,-0.155019,-0.181792,-0.809942,-0.349284,-0.585443,0.217763
26,40,-1.0472,-0.698132,-0.174533,-0.174533,-1.04315,-0.691896,-0.155019,-0.181792,-0.809942,-0.349284,-0.585443,0.217763
26,40,-1.0472,-0.698132,-0.174533,-0.174533,-1.04315,-0.691896,-0.155019,-0.181792,-0.809942,-0.349284,-0.585443,0.217763
26,40,-1.0472,-0.698132,-0.174533,-0.174533,-1.04315,-0.691896,-0.155019,-0.181792,-0.809942,-0.349284,-0.585444,0.217756
26,40,-1.0472,-0.698132,-0.174533,-0.174533,-1.04315,-0.691896,-0.155019,-0.181792,-0.809942,-0.349284,-0.585444,0.217756
26,40,-1.0472,-0.698132,-0.174533,-0.174533,-1.04315,-0.691896,-0.155019,-0.181792,-0.809942,-0.349284,-0.585444,0.217756
26,40,-1.0472,-0.698132,-0.174533,-0.174533,-1.04315,-0.691896,-0.155019,-0.181792,-0.809942,-0.349284,-0.585444,0.217756
26,40,-1.0472,-0.698132,-0.174533,-0.174533,-1.04315,-0.691896,-0.155019,-0.181792,-0.809942,-0.349284,-0.585444,0.217756
26,40,-1.0472,-0.698132,-0.174533,-0.174533,-1.04315,-0.691896,-0.155019,-0.181792,-0.809942,-0.349284,-0.585444,0.217756
26,40,-1.0472,-0.698132,-0.174533,-0.174533,-1.04315,-0.691896,-0.155019,-0.181792,-0.809942,-0.349284,-0.585444,0.217756
26,40,-1.0472,-0.698132,-0.174533,-0.174533,-1.04315,-0.691896,-0.155019,-0.181792,-0.809942,-0.349284,-0.585444,0.217756
26,40,-1.0472,-0.698132,-0.174533,-0.174533,-1.04315,-0.691896,-0.155019,-0.181792,-0.809942,-0.349284,-0.585444,0.217756
26,40,-1.0472,-0.698132,-0.174533,-0.174533,-1.04315,-0.691896,-0.154955,-0.181751,-0.809942,-0.349284,-0.587392,0.216503
26,40,-1.0472,-0.698132,-0.174533,-0.174533,-1.04315,-0.691896,-0.154955,-0.181751,-0.809942,-0.349284,-0.587392,0.216503
26,40,-1.0472,-0.698132,-0.174533,-0.174533,-1.04315,-0.691896,-0.154955,-0.181751,-0.809942,-0.349284,-0.587392,0.216503
26,40,-1.0472,-0.698132,-0.174533,-0.174533,-1.04315,-0.691896,-0.154955,-0.181751,-0.809942,-0.349284,-0.587392,0.216503
26,40,-1.0472,-0.698132,-0.174533,-0.174533,-1.04315,-0.691896,-0.154955,-0.181751,-0.809942,-0.349284,-0.587392,0.216503
26,40,-1.0472,-0.698132,-0.174533,-0.174533,-1.04315,-0.691896,-0.154955,-0.181751,-0.809942,-0.349284,-0.587392,0.216503
26,40,-1.0472,-0.698132,-0.174533,-0.174533,-1.04315,-0.691896,-0.154955,-0.181751,-0.809942,-0.349284,-0.587392,0.216503
26,40,-1.0472,-0.698132,-0.174533,-0.174533,-1.04315,-0.691896,-0.154955,-0.181751,-0.809942,-0.349284,-0.587392,0.216503
26,40,-1.0472,-0.698132,-0.174533,-0.174533,-1.04315,-0.691896,-0.154955,-0.181751,-0.809942,-0.349284,-0.587392,0.216503
26,40,-1.0472,-0.698132,-0.174533,-0.174533,-1.04315,-0.691896,-0.154955,-0.181751,-0.809942,-0.349284,-0.587392,0.216503
26,40,-1.0472,-0.698132,-0.174533,-0.174533,-1.04315,-0.691896,-0.154955,-0.181751,-0.809942,-0.349284,-0.587392,0.216503
26,40,-1.0472,-0.698132,-0.174533,-0.174533,-1.04315,-0.691896,-0.154955,-0.181751,-0.809942,-0.349284,-0.587392,0.216503
26,40,-1.0472,-0.698132,-0.174533,-0.174533,-1.04315,-0.691896,-0.154955,-0.181751,-0.809942,-0.349284,-0.587392,0.216503
26,40,-1.0472,-0.698132,-0.174533,-0.174533,-1.04315,-0.691896,-0.154955,-0.181751,-0.809942,-0.349284,-0.587392,0.216503
26,40,-1.0472,-0.698132,-0.174533,-0.174533,-1.04315,-0.691896,-0.154955,-0.181751,-0.809942,-0.349284,-0.587392,0.216503
26,40,-1.0472,-0.698132,-0.174533,-0.174533,-1.04315,-0.691896,-0.154955,-0.181751,-0.809942,-0.349284,-0.587392,0.216503
26,40,-1.0472,-0.698132,-0.174533,-0.174533,-1.04315,-0.691896,-0.154955,-0.181751,-0.809942,-0.349284,-0.587392,0.216503
26,40,-1.0472,-0.698132,-0.174533,-0.174533,-1.04315,-0.691896,-0.154955,-0.181751,-0.809942,-0.349284,-0.587392,0.216503
26,40,-1.0472,-0.698132,-0.174533,-0.174533,-1.04315,-0.691896,-0.154955,-0.181751,-0.809942,-0.349284,-0.587392,0.216503
26,40,-1.0472,-0.698132,-0.174533,-0.174533,-1.04315,-0.691896,-0.154955,-0.181751,-0.809942,-0.349284,-0.587392,0.216503
26,40,-1.0472,-0.698132,-0.174533,-0.174533,-1.04315,-0.691896,-0.154955,-0.181751,-0.809942,-0.349284,-0.587392,0.216503
26,40,-1.0472,-0.698132,-0.174533,-0.174533,-1.04315,-0.691896,-0.154955,-0.181751,-0.809942,-0.349284,-0.587392,0.216503
26,40,-1.0472,-0.698132,-0.174533,-0.174533,-1.04315,-0.691896,-0.154955,-0.181751,-0.809942,-0.349284,-0.587392,0.216503
26,40,-1.0472,-0.698132,-0.174533,-0.174533,-1.04315,-0.691896,-0.154955,-0.181751,-0.809942,-0.349284,-0.587392,0.216503
26,40,-1.0472,-0.698132,-0.174533,-0.174533,-1.04315,-0.691896,-0.154955,-0.181751,-0.809942,-0.349284,-0.587392,0.216503
26,40,-1.0472,-0.698132,-0.174533,-0.174533,-1.04315,-0.691896,-0.154955,-0.181751,-0.809942,-0.349284,-0.587392,0.216503
26,40,-1.0472,-0.698132,-0.174533,-0.174533,-1.04315,-0.691896,-0.154955,-0.181751,-0.809942,-0.349284,-0.587392,0.216503
26,40,-1.0472,-0.698132,-0.174533,-0.174533,-1.04315,-0.691896,-0.154955,-0.181751,-0.809942,-0.349284,-0.587392,0.216503
26,40,-1.0472,-0.698132,-0.174533,-0.174533,-1.04315,-0.691896,-0.154955,-0.181751,-0.809942,-0.349284,-0.587392,0.216503
26,40,-1.0472,-0.698132,-0.174533,-0.174533,-1.04315,-0.691896,-0.154955,-0.181751,-0.809942,-0.349284,-0.587392,0.216503
26,40,-1.0472,-0.698132,-0.174533,-0.174533,-1.04315,-0.691896,-0.154955,-0.181751,-0.809942,-0.349284,-0.587392,0.216503
26,40,-1.0472,-0.698132,-0.174533,-0.174533,-1.04315,-0.691896,-0.154955,-0.181751,-0.809942,-0.349284,-0.587392,0.216503
26,40,-1.0472,-0.698132,-0.174533,-0.174533,-1.04315,-0.691896,-0.154955,-0.181751,-0.809942,-0.349284,-0.587392,0.216503
26,40,-1.0472,-0.698132,-0.174533,-0.174533,-1.04315,-0.691896,-0.154955,-0.181751,-0.809942,-0.349284,-0.587392,0.216503
26,40,-1.0472,-0.698132,-0.174533,-0.174533,-1.04315,-0.691896,-0.154955,-0.181751,-0.809942,-0.349284,-0.587392,0.216503
26,40,-1.0472,-0.698132,-0.174533,-0.174533,-1.04315,-0.691896,-0.154955,-0.181751,-0.809942,-0.349284,-0.587392,0.216503
26,40,-1.0472,-0.698132,-0.174533,-0.174533,-1.04315,-0.691896,-0.154955,-0.181751,-0.809942,-0.349284,-0.587392,0.216503
26,40,-1.0472,-0.698132,-0.174533,-0.174533,-1.04315,-0.691896,-0.154955,-0.181751,-0.809942,-0.349284,-0.587392,0.216503
26,40,-1.0472,-0.698132,-0.174533,-0.174533,-1.04315,-0.691896,-0.154955,-0.181751,-0.809942,-0.349284,-0.587392,0.216503
26,40,-1.0472,-0.698132,-0.174533,-0.174533,-1.04315,-0.691896,-0.154955,-0.181751,-0.809942,-0.349284,-0.587392,0.216503
26,40,-1.0472,-0.698132,-0.174533,-0.174533,-1.04315,-0.691896,-0.154955,-0.181751,-0.809942,-0.349284,-0.587392,0.216503
26,40,-1.0472,-0.698132,-0.174533,-0.174533,-1.04315,-0.691896,-0.154955,-0.181751,-0.809942,-0.349284,-0.587392,0.216503
26,40,-1.0472,-0.698132,-0.174533,-0.174533,-1.04315,-0.691896,-0.154955,-0.181751,-0.809942,-0.349284,-0.587392,0.216503
26,40,-1.0472,-0.698132,-0.174533,-0.174533,-1.04315,-0.691896,-0.154955,-0.181751,-0.809942,-0.349284,-0.587392,0.216503
26,40,-1.0472,-0.698132,-0.174533,-0.174533,-1.04315,-0.691896,-0.154955,-0.181751,-0.809942,-0.349284,-0.587392,0.216503
26,40,-1.0472,-0.698132,-0.174533,-0.174533,-1.04315,-0.691896,-0.154955,-0.181751,-0.809942,-0.349284,-0.587392,0.216503
26,40,-1.0472,-0.698132,-0.174533,-0.174533,-1.04315,-0.691896,-0.154955,-0.181751,-0.809942,-0.349284,-0.587392,0.216503
26,40,-1.0472,-0.698132,-0.174533,-0.174533,-1.04315,-0.691896,-0.154955,-0.181751,-0.809942,-0.349284,-0.587392,0.216503
26,40,-1.0472,-0.698132,-0.174533,-0.174533,-1.04315,-0.691896,-0.154955,-0.181751,-0.809942,-0.349284,-0.587392,0.216503
26,40,-1.0472,-0.698132,-0.174533,-0.174533,-1.04315,-0.691896,-0.154955,-0.181751,-0.809942,-0.349284,-0.587392,0.216503
26,40,-1.0472,-0.698132,-0.174533,-0.174533,-1.04315,-0.691896,-0.154955,-0.181751,-0.809942,-0.349284,-0.587392,0.216503
26,40,-1.0472,-0.698132,-0.174533,-0.174533,-1.04315,-0.691896,-0.154955,-0.181751,-0.809942,-0.349284,-0.587392,0.216503
26,40,-1.0472,-0.698132,-0.174533,-0.174533,-1.04315,-0.691896,-0.154955,-0.181751,-0.809942,-0.349284,-0.587392,0.216503
26,40,-1.0472,-0.698132,-0.174533,-0.174533,-1.04315,-0.691896,-0.154955,-0.181751,-0.809942,-0.349284,-0.587392,0.216503
26,40,-1.0472,-0.698132,-0.174533,-0.174533,-1.04315,-0.691896,-0.154955,-0.181751,-0.809942,-0.349284,-0.587392,0.216503
26,40,-1.0472,-0.698132,-0.174533,-0.174533,-1.04315,-0.691896,-0.154955,-0.181751,-0.809942,-0.349284,-0.587392,0.216503
26,40,-1.0472,-0.698132,-0.174533,-0.174533,-1.04315,-0.691896,-0.154955,-0.181751,-0.809942,-0.349284,-0.587392,0.216503
26,40,-1.0472,-0.698132,-0.174533,-0.174533,-1.04315,-0.691896,-0.154955,-0.181751,-0.809942,-0.349284,-0.587392,0.216503
26,40,-1.0472,-0.698132,-0.174533,-0.174533,-1.04315,-0.691896,-0.154955,-0.181751,-0.809942,-0.349284,-0.587392,0.216503
26,40,-1.0472,-0.698132,-0.174533,-0.174533,-1.04315,-0.691896,-0.15489,-0.181709,-0.809942,-0.349284,-0.589318,0.215265
26,40,-1.0472,-0.698132,-0.174533,-0.174533,-1.04315,-0.691896,-0.15489,-0.181709,-0.809942,-0.349284,-0.589318,0.215265
26,40,-1.0472,-0.698132,-0.174533,-0.174533,-1.04315,-0.691896,-0.15489,-0.181709,-0.809942,-0.349284,-0.589318,0.215265
26,40,-1.0472,-0.698132,-0.174533,-0.174533,-1.04315,-0.691896,-0.15489,-0.181709,-0.809942,-0.349284,-0.589318,0.215265
26,40,-1.0472,-0.698132,-0.174533,-0.174533,-1.04315,-0.691896,-0.15489,-0.181709,-0.809942,-0.349284,-0.589318,0.215265
26,40,-1.0472,-0.698132,-0.174533,-0.174533,-1.04315,-0.691896,-0.15489,-0.181709,-0.809942,-0.349284,-0.589318,0.215265
26,40,-1.0472,-0.698132,-0.174533,-0.174533,-1.04315,-0.691896,-0.15489,-0.181709,-0.809942,-0.349284,-0.589318,0.215265
26,40,-1.0472,-0.698132,-0.174533,-0.174533,-1.04315,-0.691896,-0.154825,-0.181667,-0.809942,-0.349284,-0.591258,0.214017
26,40,-1.0472,-0.698132,-0.174533,-0.174533,-1.04315,-0.691896,-0.154825,-0.181667,-0.809942,-0.349284,-0.591258,0.214017
26,40,-1.0472,-0.698132,-0.174533,-0.174533,-1.04315,-0.691896,-0.154825,-0.181667,-0.809942,-0.349284,-0.591258,0.214017
26,40,-1.0472,-0.698132,-0.174533,-0.174533,-1.04315,-0.691896,-0.154825,-0.181667,-0.809942,-0.349284,-0.591258,0.214017
26,40,-1.0472,-0.698132,-0.174533,-0.174533,-1.04315,-0.691896,-0.154825,-0.181667,-0.809942,-0.349284,-0.591258,0.214017
26,40,-1.0472,-0.698132,-0.174533,-0.174533,-1.04315,-0.691896,-0.154825,-0.181667,-0.809942,-0.349284,-0.591258,0.214017
26,40,-1.0472,-0.698132,-0.174533,-0.174533,-1.04315,-0.691896,-0.154825,-0.181667,-0.809942,-0.349284,-0.591258,0.214017
26,40,-1.0472,-0.698132,-0.174533,-0.174533,-1.04315,-0.691896,-0.154825,-0.181667,-0.809942,-0.349284,-0.591258,0.214017
26,40,-1.0472,-0.698132,-0.174533,-0.174533,-1.04315,-0.691896,-0.154825,-0.181667,-0.809942,-0.349284,-0.591258,0.214017
26,40,-1.0472,-0.698132,-0.174533,-0.174533,-1.04315,-0.691896,-0.154825,-0.181667,-0.809942,-0.349284,-0.591258,0.214017
26,40,-1.0472,-0.698132,-0.174533,-0.174533,-1.04315,-0.691896,-0.154825,-0.181667,-0.809942,-0.349284,-0.591258,0.214017
26,40,-1.0472,-0.698132,-0.174533,-0.174533,-1.04315,-0.691896,-0.154825,-0.181667,-0.809942,-0.349284,-0.591258,0.214017
26,40,-1.0472,-0.698132,-0.174533,-0.174533,-1.04315,-0.691896,-0.154825,-0.181667,-0.809942,-0.349284,-0.591258,0.214017
26,40,-1.0472,-0.698132,-0.174533,-0.174533,-1.04315,-0.691896,-0.154825,-0.181667,-0.809942,-0.349284,-0.591258,0.214017
26,40,-1.0472,-0.698132,-0.174533,-0.174533,-1.04315,-0.691896,-0.154825,-0.181667,-0.809942,-0.349284,-0.591258,0.214017
26,40,-1.0472,-0.698132,-0.174533,-0.174533,-1.04315,-0.691896,-0.154825,-0.181667,-0.809942,-0.349284,-0.591258,0.214017
26,40,-1.0472,-0.698132,-0.174533,-0.174533,-1.04315,-0.691896,-0.154825,-0.181667,-0.809942,-0.349284,-0.591258,0.214017
26,40,-1.0472,-0.698132,-0.174533,-0.174533,-1.04315,-0.691896,-0.154825,-0.181667,-0.809942,-0.349284,-0.591258,0.214017
26,40,-1.0472,-0.698132,-0.174533,-0.174533,-1.04315,-0.691896,-0.154825,-0.181667,-0.809942,-0.349284,-0.591258,0.214017
26,40,-1.0472,-0.698132,-0.174533,-0.174533,-1.04315,-0.691896,-0.154825,-0.181667,-0.809942,-0.349284,-0.591258,0.214017
26,40,-1.0472,-0.698132,-0.174533,-0.174533,-1.04315,-0.691896,-0.154825,-0.181667,-0.809942,-0.349284,-0.591258,0.214017
26,40,-1.0472,-0.698132,-0.174533,-0.174533,-1.04315,-0.691896,-0.154825,-0.181667,-0.809942,-0.349284,-0.591258,0.214017
26,40,-1.0472,-0.698132,-0.174533,-0.174533,-1.04315,-0.691896,-0.154825,-0.181667,-0.809942,-0.349284,-0.591258,0.214017
26,40,-1.0472,-0.698132,-0.174533,-0.174533,-1.04315,-0.691896,-0.154825,-0.181667,-0.809942,-0.349284,-0.591258,0.214017
26,40,-1.0472,-0.698132,-0.174533,-0.174533,-1.04315,-0.691896,-0.154825,-0.181667,-0.809942,-0.349284,-0.591258,0.214017
26,40,-1.0472,-0.698132,-0.174533,-0.174533,-1.04315,-0.691896,-0.154825,-0.181667,-0.809942,-0.349284,-0.591258,0.214017
26,40,-1.0472,-0.698132,-0.174533,-0.174533,-1.04315,-0.691896,-0.154825,-0.181667,-0.809942,-0.349284,-0.591258,0.214017
26,40,-1.0472,-0.698132,-0.174533,-0.174533,-1.04315,-0.691896,-0.154825,-0.181667,-0.809942,-0.349284,-0.591258,0.214017
26,40,-1.0472,-0.698132,-0.174533,-0.174533,-1.04315,-0.691896,-0.154825,-0.181667,-0.809942,-0.349284,-0.591258,0.214017
26,40,-1.0472,-0.698132,-0.174533,-0.174533,-1.04315,-0.691896,-0.154825,-0.181667,-0.809942,-0.349284,-0.591258,0.214017
26,40,-1.0472,-0.698132,-0.174533,-0.174533,-1.04315,-0.691896,-0.154825,-0.181667,-0.809942,-0.349284,-0.591258,0.214017
26,40,-1.0472,-0.698132,-0.174533,-0.174533,-1.04315,-0.691896,-0.154825,-0.181667,-0.809942,-0.349284,-0.591258,0.214017
26,40,-1.0472,-0.698132,-0.174533,-0.174533,-1.04315,-0.691896,-0.154825,-0.181667,-0.809942,-0.349284,-0.591258,0.214017
26,40,-1.0472,-0.698132,-0.174533,-0.174533,-1.04315,-0.691896,-0.154825,-0.181667,-0.809942,-0.349284,-0.591258,0.214017
26,40,-1.0472,-0.698132,-0.174533,-0.174533,-1.04315,-0.691896,-0.154825,-0.181667,-0.809942,-0.349284,-0.591258,0.214017
26,40,-1.0472,-0.698132,-0.174533,-0.174533,-1.04315,-0.691896,-0.154825,-0.181667,-0.809942,-0.349284,-0.591258,0.214017
26,40,-1.0472,-0.698132,-0.174533,-0.174533,-1.04315,-0.691896,-0.154825,-0.181667,-0.809942,-0.349284,-0.591258,0.214017
26,40,-1.0472,-0.698132,-0.174533,-0.174533,-1.04315,-0.691896,-0.154825,-0.181667,-0.809942,-0.349284,-0.591258,0.214017
26,40,-1.0472,-0.698132,-0.174533,-0.174533,-1.04315,-0.691896,-0.154825,-0.181667,-0.809942,-0.349284,-0.591258,0.214017
26,40,-1.0472,-0.698132,-0.174533,-0.174533,-1.04315,-0.691896,-0.154825,-0.181667,-0.809942,-0.349284,-0.591258,0.214017
26,40,-1.0472,-0.698132,-0.174533,-0.174533,-1.04315,-0.691896,-0.154825,-0.181667,-0.809942,-0.349284,-0.591258,0.214017
26,40,-1.0472,-0.698132,-0.174533,-0.174533,-1.04315,-0.691896,-0.154825,-0.181667,-0.809942,-0.349284,-0.591258,0.214017
26,40,-1.0472,-0.698132,-0.174533,-0.174533,-1.04315,-0.691896,-0.154825,-0.181667,-0.809942,-0.349284,-0.591258,0.214017
26,40,-1.0472,-0.698132,-0.174533,-0.174533,-1.04315,-0.691845,-0.154825,-0.181667,-0.809942,-0.352347,-0.591258,0.214017
26,40,-1.0472,-0.698132,-0.174533,-0.174533,-1.04315,-0.691845,-0.154825,-0.181667,-0.809942,-0.352347,-0.591258,0.214017
26,40,-1.0472,-0.698132,-0.174533,-0.174533,-1.04315,-0.691845,-0.154825,-0.181667,-0.809942,-0.352347,-0.591258,0.214017
26,40,-1.0472,-0.698132,-0.174533,-0.174533,-1.04315,-0.691845,-0.154825,-0.181667,-0.809942,-0.352347,-0.591258,0.214017
26,40,-1.0472,-0.698132,-0.174533,-0.174533,-1.04315,-0.691845,-0.154825,-0.181667,-0.809942,-0.352347,-0.591258,0.214017
26,40,-1.0472,-0.698132,-0.174533,-0.174533,-1.04315,-0.691845,-0.154825,-0.181667,-0.809942,-0.352347,-0.591258,0.214017
26,40,-1.0472,-0.698132,-0.174533,-0.174533,-1.04315,-0.691845,-0.154825,-0.181667,-0.809942,-0.352347,-0.591258,0.214017
26,40,-1.0472,-0.698132,-0.174533,-0.174533,-1.04315,-0.691845,-0.154825,-0.181667,-0.809942,-0.352347,-0.591258,0.214017
26,40,-1.0472,-0.698132,-0.174533,-0.174533,-1.04315,-0.691845,-0.154825,-0.181667,-0.809942,-0.352347,-0.591258,0.214017
26,40,-1.0472,-0.698132,-0.174533,-0.174533,-1.04315,-0.691845,-0.154825,-0.181667,-0.809942,-0.352347,-0.591258,0.214017
26,40,-1.0472,-0.698132,-0.174533,-0.174533,-1.04315,-0.691845,-0.154825,-0.181667,-0.809942,-0.352347,-0.591258,0.214017
26,40,-1.0472,-0.698132,-0.174533,-0.174533,-1.04315,-0.691845,-0.154825,-0.181667,-0.809942,-0.352347,-0.591258,0.214017
26,40,-1.0472,-0.698132,-0.174533,-0.174533,-1.04315,-0.691845,-0.154825,-0.181667,-0.809942,-0.352347,-0.591258,0.214017
26,40,-1.0472,-0.698132,-0.174533,-0.174533,-1.04315,-0.691845,-0.154825,-0.181667,-0.809942,-0.352347,-0.591258,0.214017
26,40,-1.0472,-0.698132,-0.174533,-0.174533,-1.04315,-0.691845,-0.154825,-0.181667,-0.809942,-0.352347,-0.591258,0.214017
26,40,-1.0472,-0.698132,-0.174533,-0.174533,-1.04315,-0.691845,-0.154825,-0.181667,-0.809942,-0.352347,-0.591258,0.214017
26,40,-1.0472,-0.698132,-0.174533,-0.174533,-1.04315,-0.691845,-0.154825,-0.181667,-0.809942,-0.352347,-0.591258,0.214017
26,40,-1.0472,-0.698132,-0.174533,-0.174533,-1.04315,-0.691845,-0.154825,-0.181667,-0.809942,-0.352347,-0.591258,0.214017
26,40,-1.0472,-0.698132,-0.174533,-0.174533,-1.04315,-0.691845,-0.154825,-0.181667,-0.809942,-0.352347,-0.591258,0.214017
26,40,-1.0472,-0.698132,-0.174533,-0.174533,-1.04315,-0.691845,-0.154825,-0.181667,-0.809942,-0.352347,-0.591258,0.214017
26,40,-1.0472,-0.698132,-0.174533,-0.174533,-1.04315,-0.691845,-0.154825,-0.181667,-0.809942,-0.352347,-0.591258,0.214017
26,40,-1.0472,-0.698132,-0.174533,-0.174533,-1.04315,-0.691845,-0.154825,-0.181667,-0.809942,-0.352347,-0.591258,0.214017
26,40,-1.0472,-0.698132,-0.174533,-0.174533,-1.04315,-0.691845,-0.154825,-0.181667,-0.809942,-0.352347,-0.591258,0.214017
26,40,-1.0472,-0.698132,-0.174533,-0.174533,-1.04315,-0.691845,-0.154825,-0.181667,-0.809942,-0.352347,-0.591258,0.214017
26,40,-1.0472,-0.698132,-0.174533,-0.174533,-1.04315,-0.691845,-0.154825,-0.181667,-0.809942,-0.352347,-0.591258,0.214017
26,40,-1.0472,-0.698132,-0.174533,-0.174533,-1.04315,-0.691845,-0.154825,-0.181667,-0.809942,-0.352347,-0.591258,0.214017
26,40,-1.0472,-0.698132,-0.174533,-0.174533,-1.04315,-0.691845,-0.154825,-0.181667,-0.809942,-0.352347,-0.591258,0.214017
26,40,-1.0472,-0.698132,-0.174533,-0.174533,-1.04315,-0.691845,-0.15476,-0.181626,-0.809942,-0.352347,-0.593205,0.212764
26,40,-1.0472,-0.698132,-0.174533,-0.174533,-1.04315,-0.691845,-0.15476,-0.181626,-0.809942,-0.352347,-0.593205,0.212764
26,40,-1.0472,-0.698132,-0.174533,-0.174533,-1.04315,-0.691845,-0.15476,-0.181626,-0.809942,-0.352347,-0.593205,0.212764
26,40,-1.0472,-0.698132,-0.174533,-0.174533,-1.04315,-0.691845,-0.15476,-0.181626,-0.809942,-0.352347,-0.593205,0.212764
26,40,-1.0472,-0.698132,-0.174533,-0.174533,-1.04315,-0.691845,-0.15476,-0.181626,-0.809942,-0.352347,-0.593205,0.212764
26,40,-1.0472,-0.698132,-0.174533,-0.174533,-1.04315,-0.691845,-0.15476,-0.181626,-0.809942,-0.352347,-0.593205,0.212764
26,40,-1.0472,-0.698132,-0.174533,-0.174533,-1.04315,-0.691845,-0.15476,-0.181626,-0.809942,-0.352347,-0.593205,0.212764
26,40,-1.0472,-0.698132,-0.174533,-0.174533,-1.04315,-0.691845,-0.15476,-0.181626,-0.809942,-0.352347,-0.593205,0.212764
26,40,-1.0472,-0.698132,-0.174533,-0.174533,-1.04315,-0.691845,-0.15476,-0.181626,-0.809942,-0.352347,-0.593205,0.212764
26,40,-1.0472,-0.698132,-0.174533,-0.174533,-1.04315,-0.691845,-0.15476,-0.181626,-0.809942,-0.352347,-0.593205,0.212764
26,40,-1.0472,-0.698132,-0.174533,-0.174533,-1.04315,-0.691845,-0.15476,-0.181626,-0.809942,-0.352347,-0.593205,0.212764
26,40,-1.0472,-0.698132,-0.174533,-0.174533,-1.04315,-0.691845,-0.15476,-0.181626,-0.809942,-0.352347,-0.593205,0.212764
26,40,-1.0472,-0.698132,-0.174533,-0.174533,-1.04315,-0.691845,-0.15476,-0.181626,-0.809942,-0.352347,-0.593205,0.212764
26,40,-1.0472,-0.698132,-0.174533,-0.174533,-1.04315,-0.691845,-0.15476,-0.181626,-0.809942,-0.352347,-0.593205,0.212764
26,40,-1.0472,-0.698132,-0.174533,-0.174533,-1.04315,-0.691845,-0.15476,-0.181626,-0.809942,-0.352347,-0.593205,0.212764
26,40,-1.0472,-0.698132,-0.174533,-0.174533,-1.04315,-0.691845,-0.15476,-0.181626,-0.809942,-0.352347,-0.593205,0.212764
26,40,-1.0472,-0.698132,-0.174533,-0.174533,-1.04315,-0.691845,-0.15476,-0.181626,-0.809942,-0.352347,-0.593205,0.212764
26,40,-1.0472,-0.698132,-0.174533,-0.174533,-1.04315,-0.691845,-0.15476,-0.181626,-0.809942,-0.352347,-0.593205,0.212764
26,40,-1.0472,-0.698132,-0.174533,-0.174533,-1.04315,-0.691845,-0.15476,-0.181626,-0.809942,-0.352347,-0.593205,0.212764
26,40,-1.0472,-0.698132,-0.174533,-0.174533,-1.04315,-0.691845,-0.15476,-0.181626,-0.809942,-0.352347,-0.593205,0.212764
26,40,-1.0472,-0.698132,-0.174533,-0.174533,-1.04315,-0.691845,-0.15476,-0.181626,-0.809942,-0.352347,-0.593205,0.212764
26,40,-1.0472,-0.698132,-0.174533,-0.174533,-1.04315,-0.691845,-0.15476,-0.181626,-0.809942,-0.352347,-0.593205,0.212764
26,40,-1.0472,-0.698132,-0.174533,-0.174533,-1.04315,-0.691845,-0.15476,-0.181626,-0.809942,-0.352347,-0.593205,0.212764
26,40,-1.0472,-0.698132,-0.174533,-0.174533,-1.04315,-0.691845,-0.15476,-0.181626,-0.809942,-0.352347,-0.593205,0.212764
26,40,-1.0472,-0.698132,-0.174533,-0.174533,-1.04315,-0.691845,-0.15476,-0.181626,-0.809942,-0.352347,-0.593205,0.212764
26,40,-1.0472,-0.698132,-0.174533,-0.174533,-1.04315,-0.691845,-0.15476,-0.181626,-0.809942,-0.352347,-0.593205,0.212764
26,40,-1.0472,-0.698132,-0.174533,-0.174533,-1.04315,-0.691845,-0.15476,-0.181626,-0.809942,-0.352347,-0.593205,0.212764
26,40,-1.0472,-0.698132,-0.174533,-0.174533,-1.04315,-0.691845,-0.15476,-0.181626,-0.809942,-0.352347,-0.593205,0.212764
26,40,-1.0472,-0.698132,-0.174533,-0.174533,-1.04315,-0.691845,-0.15476,-0.181626,-0.809942,-0.352347,-0.593205,0.212764
26,40,-1.0472,-0.698132,-0.174533,-0.174533,-1.04315,-0.691845,-0.15476,-0.181626,-0.809942,-0.352347,-0.593205,0.212764
26,40,-1.0472,-0.698132,-0.174533,-0.174533,-1.04315,-0.691845,-0.15476,-0.181626,-0.809942,-0.352347,-0.593205,0.212764
26,40,-1.0472,-0.698132,-0.174533,-0.174533,-1.04315,-0.691845,-0.15476,-0.181626,-0.809942,-0.352347,-0.593205,0.212764
26,40,-1.0472,-0.698132,-0.174533,-0.174533,-1.04315,-0.691845,-0.15476,-0.181626,-0.809942,-0.352347,-0.593205,0.212764
26,40,-1.0472,-0.698132,-0.174533,-0.174533,-1.04315,-0.691845,-0.15476,-0.181626,-0.809942,-0.352347,-0.593205,0.212764
26,40,-1.0472,-0.698132,-0.174533,-0.174533,-1.04315,-0.691845,-0.15476,-0.181626,-0.809942,-0.352347,-0.593205,0.212764
26,40,-1.0472,-0.698132,-0.174533,-0.174533,-1.04315,-0.691845,-0.15476,-0.181626,-0.809942,-0.352347,-0.593205,0.212764
26,40,-1.0472,-0.698132,-0.174533,-0.174533,-1.04315,-0.691845,-0.15476,-0.181626,-0.809942,-0.352347,-0.593205,0.212764
26,40,-1.0472,-0.698132,-0.174533,-0.174533,-1.04315,-0.691845,-0.15476,-0.181626,-0.809942,-0.352347,-0.593205,0.212764
26,40,-1.0472,-0.698132,-0.174533,-0.174533,-1.04315,-0.691845,-0.15476,-0.181626,-0.809942,-0.352347,-0.593205,0.212764
26,40,-1.0472,-0.698132,-0.174533,-0.174533,-1.04315,-0.691845,-0.15476,-0.181626,-0.809942,-0.352347,-0.593205,0.212764
26,40,-1.0472,-0.698132,-0.174533,-0.174533,-1.04315,-0.691845,-0.15476,-0.181626,-0.809942,-0.352347,-0.593205,0.212764
26,40,-1.0472,-0.698132,-0.174533,-0.174533,-1.04315,-0.691845,-0.15476,-0.181626,-0.809942,-0.352347,-0.593205,0.212764
26,40,-1.0472,-0.698132,-0.174533,-0.174533,-1.04315,-0.691845,-0.15476,-0.181626,-0.809942,-0.352347,-0.593205,0.212764
26,40,-1.0472,-0.698132,-0.174533,-0.174533,-1.04315,-0.691845,-0.15476,-0.181626,-0.809942,-0.352347,-0.593205,0.212764
26,40,-1.0472,-0.698132,-0.174533,-0.174533,-1.04315,-0.691845,-0.15476,-0.181626,-0.809942,-0.352347,-0.593205,0.212764
26,40,-1.0472,-0.698132,-0.174533,-0.174533,-1.04315,-0.691845,-0.15476,-0.181626,-0.809942,-0.352347,-0.593205,0.212764
26,40,-1.0472,-0.698132,-0.174533,-0.174533,-1.04315,-0.691845,-0.15476,-0.181626,-0.809942,-0.352347,-0.593205,0.212764
26,40,-1.0472,-0.698132,-0.174533,-0.174533,-1.04315,-0.691845,-0.15476,-0.181626,-0.809942,-0.352347,-0.593205,0.212764
26,40,-1.0472,-0.698132,-0.174533,-0.174533,-1.04315,-0.691845,-0.15476,-0.181626,-0.809942,-0.352347,-0.593205,0.212764
26,40,-1.0472,-0.698132,-0.174533,-0.174533,-1.04315,-0.691845,-0.15476,-0.181626,-0.809942,-0.352347,-0.593205,0.212764
26,40,-1.0472,-0.698132,-0.174533,-0.174533,-1.04315,-0.691845,-0.15476,-0.181626,-0.809942,-0.352347,-0.593205,0.212764
26,40,-1.0472,-0.698132,-0.174533,-0.174533,-1.04315,-0.691845,-0.15476,-0.181626,-0.809942,-0.352347,-0.593205,0.212764
26,40,-1.0472,-0.698132,-0.174533,-0.174533,-1.04315,-0.691845,-0.15476,-0.181626,-0.809942,-0.352347,-0.593205,0.212764
26,40,-1.0472,-0.698132,-0.174533,-0.174533,-1.04315,-0.691845,-0.15476,-0.181626,-0.809942,-0.352347,-0.593205,0.212764
26,40,-1.0472,-0.698132,-0.174533,-0.174533,-1.04315,-0.691845,-0.15476,-0.181626,-0.809942,-0.352347,-0.593205,0.212764
26,40,-1.0472,-0.698132,-0.174533,-0.174533,-1.04315,-0.691845,-0.15476,-0.181626,-0.809942,-0.352347,-0.593205,0.212764
26,40,-1.0472,-0.698132,-0.174533,-0.174533,-1.04315,-0.691845,-0.15476,-0.181626,-0.809942,-0.352347,-0.593205,0.212764
26,40,-1.0472,-0.698132,-0.174533,-0.174533,-1.04315,-0.691845,-0.15476,-0.181626,-0.809942,-0.352347,-0.593205,0.212764
26,40,-1.0472,-0.698132,-0.174533,-0.174533,-1.04315,-0.691845,-0.15476,-0.181626,-0.809942,-0.352347,-0.593205,0.212764
26,40,-1.0472,-0.698132,-0.174533,-0.174533,-1.04315,-0.691845,-0.15476,-0.181626,-0.809942,-0.352347,-0.593205,0.212764
26,40,-1.0472,-0.698132,-0.174533,-0.174533,-1.04315,-0.691845,-0.15476,-0.181626,-0.809942,-0.352347,-0.593205,0.212764
26,40,-1.0472,-0.698132,-0.174533,-0.174533,-1.04315,-0.691845,-0.15476,-0.181626,-0.809942,-0.352347,-0.593205,0.212764
26,40,-1.0472,-0.698132,-0.174533,-0.174533,-1.04315,-0.691845,-0.154696,-0.181584,-0.809942,-0.352347,-0.595139,0.211521
26,40,-1.0472,-0.698132,-0.174533,-0.174533,-1.04315,-0.691845,-0.154696,-0.181584,-0.809942,-0.352347,-0.595139,0.211521
26,40,-1.0472,-0.698132,-0.174533,-0.174533,-1.04315,-0.691845,-0.154696,-0.181584,-0.809942,-0.352347,-0.595139,0.211521
26,40,-1.0472,-0.698132,-0.174533,-0.174533,-1.04315,-0.691845,-0.154696,-0.181584,-0.809942,-0.352347,-0.595139,0.211521
26,40,-1.0472,-0.698132,-0.174533,-0.174533,-1.04315,-0.691845,-0.154696,-0.181584,-0.809942,-0.352347,-0.595139,0.211521
26,40,-1.0472,-0.698132,-0.174533,-0.174533,-1.04315,-0.691845,-0.154696,-0.181584,-0.809942,-0.352347,-0.595139,0.211521
26,40,-1.0472,-0.698132,-0.174533,-0.174533,-1.04315,-0.691845,-0.154696,-0.181584,-0.809942,-0.352347,-0.595139,0.211521
26,40,-1.0472,-0.698132,-0.174533,-0.174533,-1.04315,-0.691845,-0.154696,-0.181584,-0.809942,-0.352347,-0.595139,0.211521
26,40,-1.0472,-0.698132,-0.174533,-0.174533,-1.04315,-0.691845,-0.154696,-0.181584,-0.809942,-0.352347,-0.595139,0.211521
26,40,-1.0472,-0.698132,-0.174533,-0.174533,-1.04315,-0.691845,-0.154696,-0.181584,-0.809942,-0.352347,-0.595139,0.211521
26,40,-1.0472,-0.698132,-0.174533,-0.174533,-1.04315,-0.691845,-0.154696,-0.181584,-0.809942,-0.352347,-0.595139,0.211521
26,40,-1.0472,-0.698132,-0.174533,-0.174533,-1.04315,-0.691845,-0.154696,-0.181584,-0.809942,-0.352347,-0.595139,0.211521
26,40,-1.0472,-0.698132,-0.174533,-0.174533,-1.04315,-0.691845,-0.154696,-0.181584,-0.809942,-0.352347,-0.595139,0.211521
26,40,-1.0472,-0.698132,-0.174533,-0.174533,-1.04315,-0.691845,-0.154696,-0.181584,-0.809942,-0.352347,-0.595139,0.211521
26,40,-1.0472,-0.698132,-0.174533,-0.174533,-1.04315,-0.691845,-0.154696,-0.181584,-0.809942,-0.352347,-0.595139,0.211521
26,40,-1.0472,-0.698132,-0.174533,-0.174533,-1.04315,-0.691845,-0.154696,-0.181584,-0.809942,-0.352347,-0.595139,0.211521
26,40,-1.0472,-0.698132,-0.174533,-0.174533,-1.04315,-0.691845,-0.154696,-0.181584,-0.809942,-0.352347,-0.595139,0.211521
26,40,-1.0472,-0.698132,-0.174533,-0.174533,-1.04315,-0.691845,-0.154696,-0.181584,-0.809942,-0.352347,-0.595139,0.211521
26,40,-1.0472,-0.698132,-0.174533,-0.174533,-1.04315,-0.691845,-0.154696,-0.181584,-0.809942,-0.352347,-0.595139,0.211521
26,40,-1.0472,-0.698132,-0.174533,-0.174533,-1.04315,-0.691845,-0.154696,-0.181584,-0.809942,-0.352347,-0.595139,0.211521
26,40,-1.0472,-0.698132,-0.174533,-0.174533,-1.04315,-0.691845,-0.154696,-0.181584,-0.809942,-0.352347,-0.595139,0.211521
26,40,-1.0472,-0.698132,-0.174533,-0.174533,-1.04315,-0.691845,-0.154696,-0.181584,-0.809942,-0.352347,-0.595139,0.211521
26,40,-1.0472,-0.698132,-0.174533,-0.174533,-1.04315,-0.691845,-0.154696,-0.181584,-0.809942,-0.352347,-0.595139,0.211521
26,40,-1.0472,-0.698132,-0.174533,-0.174533,-1.04315,-0.691845,-0.154696,-0.181584,-0.809942,-0.352347,-0.595139,0.211521
26,40,-1.0472,-0.698132,-0.174533,-0.174533,-1.04315,-0.691845,-0.154696,-0.181584,-0.809942,-0.352347,-0.595139,0.211521
26,40,-1.0472,-0.698132,-0.174533,-0.174533,-1.04315,-0.691845,-0.154696,-0.181584,-0.809942,-0.352347,-0.595139,0.211521
26,40,-1.0472,-0.698132,-0.174533,-0.174533,-1.04315,-0.691845,-0.154696,-0.181584,-0.809942,-0.352347,-0.595139,0.211521
26,40,-1.0472,-0.698132,-0.174533,-0.174533,-1.04315,-0.691845,-0.154696,-0.181584,-0.809942,-0.352347,-0.595139,0.211521
26,40,-1.0472,-0.698132,-0.174533,-0.174533,-1.04315,-0.691845,-0.154696,-0.181584,-0.809942,-0.352347,-0.595139,0.211521
26,40,-1.0472,-0.698132,-0.174533,-0.174533,-1.04315,-0.691845,-0.154696,-0.181584,-0.809942,-0.352347,-0.595139,0.211521
26,40,-1.0472,-0.698132,-0.174533,-0.174533,-1.04315,-0.691845,-0.154696,-0.181584,-0.809942,-0.352347,-0.595139,0.211521
26,40,-1.0472,-0.698132,-0.174533,-0.174533,-1.04315,-0.691794,-0.154696,-0.181584,-0.809942,-0.355101,-0.595139,0.211521
26,40,-1.0472,-0.698132,-0.174533,-0.174533,-1.04315,-0.691794,-0.154696,-0.181584,-0.809942,-0.355101,-0.595139,0.211521
26,40,-1.0472,-0.698132,-0.174533,-0.174533,-1.04315,-0.691794,-0.154696,-0.181584,-0.809942,-0.355101,-0.595139,0.211521
26,40,-1.0472,-0.698132,-0.174533,-0.174533,-1.04315,-0.691794,-0.154696,-0.181584,-0.809942,-0.355101,-0.595139,0.211521
26,40,-1.0472,-0.698132,-0.174533,-0.174533,-1.04315,-0.691794,-0.154696,-0.181584,-0.809942,-0.355101,-0.595139,0.211521
26,40,-1.0472,-0.698132,-0.174533,-0.174533,-1.04315,-0.691794,-0.154696,-0.181584,-0.809942,-0.355101,-0.595139,0.211521
26,40,-1.0472,-0.698132,-0.174533,-0.174533,-1.04315,-0.691794,-0.154696,-0.181584,-0.809942,-0.355101,-0.595139,0.211521
26,40,-1.0472,-0.698132,-0.174533,-0.174533,-1.04315,-0.691794,-0.154696,-0.181584,-0.809942,-0.355101,-0.595139,0.211521
26,40,-1.0472,-0.698132,-0.174533,-0.174533,-1.04315,-0.691794,-0.154696,-0.181584,-0.809942,-0.355101,-0.595139,0.211521
26,40,-1.0472,-0.698132,-0.174533,-0.174533,-1.04315,-0.691794,-0.154696,-0.181584,-0.809942,-0.355101,-0.595139,0.211521
26,40,-1.0472,-0.698132,-0.174533,-0.174533,-1.04315,-0.691794,-0.154696,-0.181584,-0.809942,-0.355101,-0.595139,0.211521
26,40,-1.0472,-0.698132,-0.174533,-0.174533,-1.04315,-0.691794,-0.154696,-0.181584,-0.809942,-0.355101,-0.595139,0.211521
26,40,-1.0472,-0.698132,-0.174533,-0.174533,-1.04315,-0.691794,-0.154696,-0.181584,-0.809942,-0.355101,-0.595139,0.211521
26,40,-1.0472,-0.698132,-0.174533,-0.174533,-1.04315,-0.691794,-0.154696,-0.181584,-0.809942,-0.355101,-0.595139,0.211521
26,40,-1.0472,-0.698132,-0.174533,-0.174533,-1.04315,-0.691794,-0.154696,-0.181584,-0.809942,-0.355101,-0.595139,0.211521
26,40,-1.0472,-0.698132,-0.174533,-0.174533,-1.04315,-0.691794,-0.154696,-0.181584,-0.809942,-0.355101,-0.595139,0.211521
26,40,-1.0472,-0.698132,-0.174533,-0.174533,-1.04315,-0.691794,-0.154696,-0.181584,-0.809942,-0.355101,-0.595139,0.211521
26,40,-1.0472,-0.698132,-0.174533,-0.174533,-1.04315,-0.691794,-0.154696,-0.181584,-0.809942,-0.355101,-0.595139,0.211521
26,40,-1.0472,-0.698132,-0.174533,-0.174533,-1.04315,-0.691794,-0.154696,-0.181584,-0.809942,-0.355101,-0.595139,0.211521
26,40,-1.0472,-0.698132,-0.174533,-0.174533,-1.04315,-0.691794,-0.154696,-0.181584,-0.809942,-0.355101,-0.595139,0.211521
26,40,-1.0472,-0.698132,-0.174533,-0.174533,-1.04315,-0.691794,-0.154696,-0.181584,-0.809942,-0.355101,-0.595139,0.211521
26,40,-1.0472,-0.698132,-0.174533,-0.174533,-1.04315,-0.691794,-0.154696,-0.181584,-0.809942,-0.355101,-0.595139,0.211521
26,40,-1.0472,-0.698132,-0.174533,-0.174533,-1.04315,-0.691794,-0.154696,-0.181584,-0.809942,-0.355101,-0.595139,0.211521
26,40,-1.0472,-0.698132,-0.174533,-0.174533,-1.04315,-0.691794,-0.154696,-0.181584,-0.809942,-0.355101,-0.595139,0.211521
26,40,-1.0472,-0.698132,-0.174533,-0.174533,-1.04315,-0.691794,-0.154696,-0.181584,-0.809942,-0.355101,-0.595139,0.211521
26,40,-1.0472,-0.698132,-0.174533,-0.174533,-1.04315,-0.691794,-0.154696,-0.181584,-0.809942,-0.355101,-0.595139,0.211521
26,40,-1.0472,-0.698132,-0.174533,-0.174533,-1.04315,-0.691794,-0.154696,-0.181584,-0.809942,-0.355101,-0.595139,0.211521
26,40,-1.0472,-0.698132,-0.174533,-0.174533,-1.04315,-0.691794,-0.154696,-0.181584,-0.809942,-0.355101,-0.595139,0.211521
26,40,-1.0472,-0.698132,-0.174533,-0.174533,-1.04315,-0.691794,-0.154696,-0.181584,-0.809942,-0.355101,-0.595139,0.211521
26,40,-1.0472,-0.698132,-0.174533,-0.174533,-1.04315,-0.691794,-0.154696,-0.181584,-0.809942,-0.355101,-0.595139,0.211521
26,40,-1.0472,-0.698132,-0.174533,-0.174533,-1.04315,-0.691794,-0.154696,-0.181584,-0.809942,-0.355101,-0.595139,0.211521
26,40,-1.0472,-0.698132,-0.174533,-0.174533,-1.04315,-0.691794,-0.154696,-0.181584,-0.809942,-0.355101,-0.595139,0.211521
26,40,-1.0472,-0.698132,-0.174533,-0.174533,-1.04315,-0.691794,-0.154696,-0.181584,-0.809942,-0.355101,-0.595139,0.211521
26,40,-1.0472,-0.698132,-0.174533,-0.174533,-1.04315,-0.691794,-0.154696,-0.181584,-0.809942,-0.355101,-0.595139,0.211521
26,40,-1.0472,-0.698132,-0.174533,-0.174533,-1.04315,-0.691794,-0.154696,-0.181584,-0.809942,-0.355101,-0.595139,0.211521
26,40,-1.0472,-0.698132,-0.174533,-0.174533,-1.04315,-0.691794,-0.154696,-0.181584,-0.809942,-0.355101,-0.595139,0.211521
26,40,-1.0472,-0.698132,-0.174533,-0.174533,-1.04315,-0.691794,-0.154696,-0.181584,-0.809942,-0.355101,-0.595139,0.211521
26,40,-1.0472,-0.698132,-0.174533,-0.174533,-1.04315,-0.691794,-0.154696,-0.181584,-0.809942,-0.355101,-0.595139,0.211521
26,40,-1.0472,-0.698132,-0.174533,-0.174533,-1.04315,-0.691794,-0.154696,-0.181584,-0.809942,-0.355101,-0.595139,0.211521
26,40,-1.0472,-0.698132,-0.174533,-0.174533,-1.04315,-0.691794,-0.154696,-0.181584,-0.809942,-0.355101,-0.595139,0.211521
26,40,-1.0472,-0.698132,-0.174533,-0.174533,-1.04315,-0.691794,-0.154696,-0.181584,-0.809942,-0.355101,-0.595139,0.211521
26,40,-1.0472,-0.698132,-0.174533,-0.174533,-1.04315,-0.691794,-0.154696,-0.181584,-0.809942,-0.355101,-0.595139,0.211521
26,40,-1.0472,-0.698132,-0.174533,-0.174533,-1.04315,-0.691794,-0.154696,-0.181584,-0.809942,-0.355101,-0.595139,0.211521
26,40,-1.0472,-0.698132,-0.174533,-0.174533,-1.04315,-0.691794,-0.154696,-0.181584,-0.809942,-0.355101,-0.595139,0.211521
26,40,-1.0472,-0.698132,-0.174533,-0.174533,-1.04315,-0.691794,-0.154696,-0.181584,-0.809942,-0.355101,-0.595139,0.211521
26,40,-1.0472,-0.698132,-0.174533,-0.174533,-1.04315,-0.691794,-0.154696,-0.181584,-0.809942,-0.355101,-0.595139,0.211521
26,40,-1.0472,-0.698132,-0.174533,-0.174533,-1.04315,-0.691794,-0.154696,-0.181584,-0.809942,-0.355101,-0.595139,0.211521
26,40,-1.0472,-0.698132,-0.174533,-0.174533,-1.04315,-0.691794,-0.154696,-0.181584,-0.809942,-0.355101,-0.595139,0.211521
26,40,-1.0472,-0.698132,-0.174533,-0.174533,-1.04315,-0.691794,-0.154696,-0.181584,-0.809942,-0.355101,-0.595139,0.211521
26,40,-1.0472,-0.698132,-0.174533,-0.174533,-1.04315,-0.691794,-0.154696,-0.181584,-0.809942,-0.355101,-0.595139,0.211521
26,40,-1.0472,-0.698132,-0.174533,-0.174533,-1.04315,-0.691794,-0.154696,-0.181584,-0.809942,-0.355101,-0.595139,0.211521
26,40,-1.0472,-0.698132,-0.174533,-0.174533,-1.04315,-0.691794,-0.154696,-0.181584,-0.809942,-0.355101,-0.595139,0.211521
26,40,-1.0472,-0.698132,-0.174533,-0.174533,-1.04315,-0.691794,-0.154696,-0.181584,-0.809942,-0.355101,-0.595139,0.211521
26,40,-1.0472,-0.698132,-0.174533,-0.174533,-1.04315,-0.691794,-0.154696,-0.181584,-0.809942,-0.355101,-0.595139,0.211521
26,40,-1.0472,-0.698132,-0.174533,-0.174533,-1.04315,-0.691794,-0.154696,-0.181584,-0.809942,-0.355101,-0.595139,0.211521
26,40,-1.0472,-0.698132,-0.174533,-0.174533,-1.04315,-0.691794,-0.154696,-0.181584,-0.809942,-0.355101,-0.595139,0.211521
26,40,-1.0472,-0.698132,-0.174533,-0.174533,-1.04315,-0.691794,-0.154696,-0.181584,-0.809942,-0.355101,-0.595139,0.211521
26,40,-1.0472,-0.698132,-0.174533,-0.174533,-1.04315,-0.691794,-0.154696,-0.181584,-0.809942,-0.355101,-0.595139,0.211521
26,40,-1.0472,-0.698132,-0.174533,-0.174533,-1.04315,-0.691794,-0.154696,-0.181584,-0.809942,-0.355101,-0.595139,0.211521
26,40,-1.0472,-0.698132,-0.174533,-0.174533,-1.04315,-0.691794,-0.154696,-0.181584,-0.809942,-0.355101,-0.595139,0.211521
26,40,-1.0472,-0.698132,-0.174533,-0.174533,-1.04315,-0.691794,-0.154696,-0.181584,-0.809942,-0.355101,-0.595139,0.211521
26,40,-1.0472,-0.698132,-0.174533,-0.174533,-1.04315,-0.691794,-0.154696,-0.181584,-0.809942,-0.355101,-0.595139,0.211521
26,40,-1.0472,-0.698132,-0.174533,-0.174533,-1.04315,-0.691794,-0.154696,-0.181584,-0.809942,-0.355101,-0.595139,0.211521
26,40,-1.0472,-0.698132,-0.174533,-0.174533,-1.04315,-0.691794,-0.154696,-0.181584,-0.809942,-0.355101,-0.595139,0.211521
26,40,-1.0472,-0.698132,-0.174533,-0.174533,-1.04315,-0.691794,-0.154696,-0.181584,-0.809942,-0.355101,-0.595139,0.211521
26,40,-1.0472,-0.698132,-0.174533,-0.174533,-1.04315,-0.691794,-0.154696,-0.181584,-0.809942,-0.355101,-0.595139,0.211521
26,40,-1.0472,-0.698132,-0.174533,-0.174533,-1.04315,-0.691794,-0.154696,-0.181584,-0.809942,-0.355101,-0.595139,0.211521
26,40,-1.0472,-0.698132,-0.174533,-0.174533,-1.04315,-0.691794,-0.154696,-0.181584,-0.809942,-0.355101,-0.595139,0.211521
26,40,-1.0472,-0.698132,-0.174533,-0.174533,-1.04315,-0.691794,-0.154696,-0.181584,-0.809942,-0.355101,-0.595139,0.211521
26,40,-1.0472,-0.698132,-0.174533,-0.174533,-1.04315,-0.691794,-0.154696,-0.181584,-0.809942,-0.355101,-0.595139,0.211521
26,40,-1.0472,-0.698132,-0.174533,-0.174533,-1.04315,-0.691794,-0.154696,-0.181584,-0.809942,-0.355101,-0.595139,0.211521
26,40,-1.0472,-0.698132,-0.174533,-0.174533,-1.04315,-0.691794,-0.154696,-0.181584,-0.809942,-0.355101,-0.595139,0.211521
26,40,-1.0472,-0.698132,-0.174533,-0.174533,-1.04315,-0.691743,-0.154696,-0.181584,-0.809942,-0.357855,-0.595139,0.211521
26,40,-1.0472,-0.698132,-0.174533,-0.174533,-1.04315,-0.691743,-0.154696,-0.181584,-0.809942,-0.357855,-0.595139,0.211521
26,40,-1.0472,-0.698132,-0.174533,-0.174533,-1.04315,-0.691743,-0.154696,-0.181584,-0.809942,-0.357855,-0.595139,0.211521
26,40,-1.0472,-0.698132,-0.174533,-0.174533,-1.04315,-0.691743,-0.154696,-0.181584,-0.809942,-0.357855,-0.595139,0.211521
26,40,-1.0472,-0.698132,-0.174533,-0.174533,-1.04315,-0.691743,-0.154696,-0.181584,-0.809942,-0.357855,-0.595139,0.211521
26,40,-1.0472,-0.698132,-0.174533,-0.174533,-1.04315,-0.691743,-0.154696,-0.181584,-0.809942,-0.357855,-0.595139,0.211521
26,40,-1.0472,-0.698132,-0.174533,-0.174533,-1.04315,-0.691743,-0.154696,-0.181584,-0.809942,-0.357855,-0.595139,0.211521
26,40,-1.0472,-0.698132,-0.174533,-0.174533,-1.04315,-0.691743,-0.154696,-0.181584,-0.809942,-0.357855,-0.595139,0.211521
26,40,-1.0472,-0.698132,-0.174533,-0.174533,-1.04315,-0.691743,-0.154696,-0.181584,-0.809942,-0.357855,-0.595139,0.211521
26,40,-1.0472,-0.698132,-0.174533,-0.174533,-1.04315,-0.691743,-0.154696,-0.181584,-0.809942,-0.357855,-0.595139,0.211521
26,40,-1.0472,-0.698132,-0.174533,-0.174533,-1.04315,-0.691743,-0.154696,-0.181584,-0.809942,-0.357855,-0.595139,0.211521
26,40,-1.0472,-0.698132,-0.174533,-0.174533,-1.04315,-0.691743,-0.154696,-0.181584,-0.809942,-0.357855,-0.595139,0.211521
26,40,-1.0472,-0.698132,-0.174533,-0.174533,-1.04315,-0.691743,-0.154696,-0.181584,-0.809942,-0.357855,-0.595139,0.211521
26,40,-1.0472,-0.698132,-0.174533,-0.174533,-1.04315,-0.691743,-0.154696,-0.181584,-0.809942,-0.357855,-0.595139,0.211521
26,40,-1.0472,-0.698132,-0.174533,-0.174533,-1.04315,-0.691743,-0.154696,-0.181584,-0.809942,-0.357855,-0.595139,0.211521
26,40,-1.0472,-0.698132,-0.174533,-0.174533,-1.04315,-0.691743,-0.154696,-0.181584,-0.809942,-0.357855,-0.595139,0.211521
26,40,-1.0472,-0.698132,-0.174533,-0.174533,-1.04315,-0.691743,-0.154696,-0.181584,-0.809942,-0.357855,-0.595139,0.211521
26,40,-1.0472,-0.698132,-0.174533,-0.174533,-1.04315,-0.691743,-0.154696,-0.181584,-0.809942,-0.357855,-0.595139,0.211521
26,40,-1.0472,-0.698132,-0.174533,-0.174533,-1.04315,-0.691743,-0.154696,-0.181584,-0.809942,-0.357855,-0.595139,0.211521
26,40,-1.0472,-0.698132,-0.174533,-0.174533,-1.04315,-0.691743,-0.154696,-0.181584,-0.809942,-0.357855,-0.595139,0.211521
26,40,-1.0472,-0.698132,-0.174533,-0.174533,-1.04315,-0.691743,-0.154696,-0.181584,-0.809942,-0.357855,-0.595139,0.211521
26,40,-1.0472,-0.698132,-0.174533,-0.174533,-1.04315,-0.691743,-0.154696,-0.181584,-0.809942,-0.357855,-0.595139,0.211521
26,40,-1.0472,-0.698132,-0.174533,-0.174533,-1.04315,-0.691743,-0.154696,-0.181584,-0.809942,-0.357855,-0.595139,0.211521
26,40,-1.0472,-0.698132,-0.174533,-0.174533,-1.04315,-0.691743,-0.154696,-0.181584,-0.809942,-0.357855,-0.595139,0.211521
26,40,-1.0472,-0.698132,-0.174533,-0.174533,-1.04315,-0.691743,-0.154696,-0.181584,-0.809942,-0.357855,-0.595139,0.211521
26,40,-1.0472,-0.698132,-0.174533,-0.174533,-1.04315,-0.691743,-0.154696,-0.181584,-0.809942,-0.357855,-0.595139,0.211521
26,40,-1.0472,-0.698132,-0.174533,-0.174533,-1.04315,-0.691743,-0.154696,-0.181584,-0.809942,-0.357855,-0.595139,0.211521
26,40,-1.0472,-0.698132,-0.174533,-0.174533,-1.04315,-0.691743,-0.154696,-0.181584,-0.809942,-0.357855,-0.595139,0.211521
26,40,-1.0472,-0.698132,-0.174533,-0.174533,-1.04315,-0.691743,-0.154696,-0.181584,-0.809942,-0.357855,-0.595139,0.211521
26,40,-1.0472,-0.698132,-0.174533,-0.174533,-1.04315,-0.691743,-0.154696,-0.181584,-0.809942,-0.357855,-0.595139,0.211521
26,40,-1.0472,-0.698132,-0.174533,-0.174533,-1.04315,-0.691743,-0.154696,-0.181584,-0.809942,-0.357855,-0.595139,0.211521
26,40,-1.0472,-0.698132,-0.174533,-0.174533,-1.04315,-0.691743,-0.154696,-0.181584,-0.809942,-0.357855,-0.595139,0.211521
26,40,-1.0472,-0.698132,-0.174533,-0.174533,-1.04315,-0.691743,-0.154696,-0.181584,-0.809942,-0.357855,-0.595139,0.211521
26,40,-1.0472,-0.698132,-0.174533,-0.174533,-1.04315,-0.691743,-0.154696,-0.181584,-0.809942,-0.357855,-0.595139,0.211521
26,40,-1.0472,-0.698132,-0.174533,-0.174533,-1.04315,-0.691743,-0.154696,-0.181584,-0.809942,-0.357855,-0.595139,0.211521
26,40,-1.0472,-0.698132,-0.174533,-0.174533,-1.04315,-0.691743,-0.154696,-0.181584,-0.809942,-0.357855,-0.595139,0.211521
26,40,-1.0472,-0.698132,-0.174533,-0.174533,-1.04315,-0.691743,-0.154696,-0.181584,-0.809942,-0.357855,-0.595139,0.211521
26,40,-1.0472,-0.698132,-0.174533,-0.174533,-1.04315,-0.691743,-0.154696,-0.181584,-0.809942,-0.357855,-0.595139,0.211521
26,40,-1.0472,-0.698132,-0.174533,-0.174533,-1.04315,-0.691743,-0.154696,-0.181584,-0.809942,-0.357855,-0.595139,0.211521
26,40,-1.0472,-0.698132,-0.174533,-0.174533,-1.04315,-0.691743,-0.154696,-0.181584,-0.809942,-0.357855,-0.595139,0.211521
26,40,-1.0472,-0.698132,-0.174533,-0.174533,-1.04315,-0.691743,-0.154696,-0.181584,-0.809942,-0.357855,-0.595139,0.211521
26,40,-1.0472,-0.698132,-0.174533,-0.174533,-1.04315,-0.691743,-0.154696,-0.181584,-0.809942,-0.357855,-0.595139,0.211521
26,40,-1.0472,-0.698132,-0.174533,-0.174533,-1.04315,-0.691743,-0.154696,-0.181584,-0.809942,-0.357855,-0.595139,0.211521
26,40,-1.0472,-0.698132,-0.174533,-0.174533,-1.04315,-0.691743,-0.154696,-0.181584,-0.809942,-0.357855,-0.595139,0.211521
26,40,-1.0472,-0.698132,-0.174533,-0.174533,-1.04315,-0.691743,-0.154696,-0.181584,-0.809942,-0.357855,-0.595139,0.211521
26,40,-1.0472,-0.698132,-0.174533,-0.174533,-1.04315,-0.691692,-0.154696,-0.181584,-0.809942,-0.360791,-0.595139,0.211521
26,40,-1.0472,-0.698132,-0.174533,-0.174533,-1.04315,-0.691692,-0.154696,-0.181584,-0.809942,-0.360791,-0.595139,0.211521
26,40,-1.0472,-0.698132,-0.174533,-0.174533,-1.04315,-0.691692,-0.154696,-0.181584,-0.809942,-0.360791,-0.595139,0.211521
26,40,-1.0472,-0.698132,-0.174533,-0.174533,-1.04315,-0.691692,-0.154696,-0.181584,-0.809942,-0.360791,-0.595139,0.211521
26,40,-1.0472,-0.698132,-0.174533,-0.174533,-1.04315,-0.691692,-0.154696,-0.181584,-0.809942,-0.360791,-0.595139,0.211521
26,40,-1.0472,-0.698132,-0.174533,-0.174533,-1.04315,-0.691692,-0.154696,-0.181584,-0.809942,-0.360791,-0.595139,0.211521
26,40,-1.0472,-0.698132,-0.174533,-0.174533,-1.04315,-0.691692,-0.154696,-0.181584,-0.809942,-0.360791,-0.595139,0.211521
26,40,-1.0472,-0.698132,-0.174533,-0.174533,-1.04315,-0.691692,-0.154696,-0.181584,-0.809942,-0.360791,-0.595139,0.211521
26,40,-1.0472,-0.698132,-0.174533,-0.174533,-1.04315,-0.691692,-0.154696,-0.181584,-0.809942,-0.360791,-0.595139,0.211521
26,40,-1.0472,-0.698132,-0.174533,-0.174533,-1.04315,-0.691692,-0.154696,-0.181584,-0.809942,-0.360791,-0.595139,0.211521
26,40,-1.0472,-0.698132,-0.174533,-0.174533,-1.04315,-0.691692,-0.154696,-0.181584,-0.809942,-0.360791,-0.595139,0.211521
26,40,-1.0472,-0.698132,-0.174533,-0.174533,-1.04315,-0.691692,-0.154696,-0.181584,-0.809942,-0.360791,-0.595139,0.211521
26,40,-1.0472,-0.698132,-0.174533,-0.174533,-1.04315,-0.691692,-0.154696,-0.181584,-0.809942,-0.360791,-0.595139,0.211521
26,40,-1.0472,-0.698132,-0.174533,-0.174533,-1.04315,-0.691692,-0.154696,-0.181584,-0.809942,-0.360791,-0.595139,0.211521
26,40,-1.0472,-0.698132,-0.174533,-0.174533,-1.04315,-0.691692,-0.154696,-0.181584,-0.809942,-0.360791,-0.595139,0.211521
26,40,-1.0472,-0.698132,-0.174533,-0.174533,-1.04315,-0.691692,-0.154696,-0.181584,-0.809942,-0.360791,-0.595139,0.211521
26,40,-1.0472,-0.698132,-0.174533,-0.174533,-1.04315,-0.691692,-0.154696,-0.181584,-0.809942,-0.360791,-0.595139,0.211521
26,40,-1.0472,-0.698132,-0.174533,-0.174533,-1.04315,-0.691692,-0.154696,-0.181584,-0.809942,-0.360791,-0.595139,0.211521
26,40,-1.0472,-0.698132,-0.174533,-0.174533,-1.04315,-0.691692,-0.154696,-0.181584,-0.809942,-0.360791,-0.595139,0.211521
26,40,-1.0472,-0.698132,-0.174533,-0.174533,-1.04315,-0.691692,-0.154696,-0.181584,-0.809942,-0.360791,-0.595139,0.211521
26,40,-1.0472,-0.698132,-0.174533,-0.174533,-1.04315,-0.691692,-0.154696,-0.181584,-0.809942,-0.360791,-0.595139,0.211521
26,40,-1.0472,-0.698132,-0.174533,-0.174533,-1.04315,-0.691692,-0.154696,-0.181584,-0.809942,-0.360791,-0.595139,0.211521
26,40,-1.0472,-0.698132,-0.174533,-0.174533,-1.04315,-0.691692,-0.154696,-0.181584,-0.809942,-0.360791,-0.595139,0.211521
26,40,-1.0472,-0.698132,-0.174533,-0.174533,-1.04315,-0.691692,-0.154696,-0.181584,-0.809942,-0.360791,-0.595139,0.211521
26,40,-1.0472,-0.698132,-0.174533,-0.174533,-1.04315,-0.691692,-0.154696,-0.181584,-0.809942,-0.360791,-0.595139,0.211521
26,40,-1.0472,-0.698132,-0.174533,-0.174533,-1.04315,-0.691692,-0.154696,-0.181584,-0.809942,-0.360791,-0.595139,0.211521
26,40,-1.0472,-0.698132,-0.174533,-0.174533,-1.04315,-0.691692,-0.154696,-0.181584,-0.809942,-0.360791,-0.595139,0.211521
26,40,-1.0472,-0.698132,-0.174533,-0.174533,-1.04315,-0.691692,-0.154696,-0.181584,-0.809942,-0.360791,-0.595139,0.211521
26,40,-1.0472,-0.698132,-0.174533,-0.174533,-1.04315,-0.691692,-0.154696,-0.181584,-0.809942,-0.360791,-0.595139,0.211521
26,40,-1.0472,-0.698132,-0.174533,-0.174533,-1.04315,-0.691692,-0.154696,-0.181584,-0.809942,-0.360791,-0.595139,0.211521
26,40,-1.0472,-0.698132,-0.174533,-0.174533,-1.04315,-0.691692,-0.154696,-0.181584,-0.809942,-0.360791,-0.595139,0.211521
26,40,-1.0472,-0.698132,-0.174533,-0.174533,-1.04315,-0.691692,-0.154696,-0.181584,-0.809942,-0.360791,-0.595139,0.211521
26,40,-1.0472,-0.698132,-0.174533,-0.174533,-1.04315,-0.691692,-0.154696,-0.181584,-0.809942,-0.360791,-0.595139,0.211521
26,40,-1.0472,-0.698132,-0.174533,-0.174533,-1.04315,-0.691692,-0.154696,-0.181584,-0.809942,-0.360791,-0.595139,0.211521
26,40,-1.0472,-0.698132,-0.174533,-0.174533,-1.04315,-0.691692,-0.154696,-0.181584,-0.809942,-0.360791,-0.595139,0.211521
26,40,-1.0472,-0.698132,-0.174533,-0.174533,-1.04315,-0.691692,-0.154696,-0.181584,-0.809942,-0.360791,-0.595139,0.211521
26,40,-1.0472,-0.698132,-0.174533,-0.174533,-1.04315,-0.691692,-0.154696,-0.181584,-0.809942,-0.360791,-0.595139,0.211521
26,40,-1.0472,-0.698132,-0.174533,-0.174533,-1.04315,-0.691692,-0.154696,-0.181584,-0.809942,-0.360791,-0.595139,0.211521
26,40,-1.0472,-0.698132,-0.174533,-0.174533,-1.04315,-0.691692,-0.154696,-0.181584,-0.809942,-0.360791,-0.595139,0.211521
26,40,-1.0472,-0.698132,-0.174533,-0.174533,-1.04315,-0.691692,-0.154696,-0.181584,-0.809942,-0.360791,-0.595139,0.211521
26,40,-1.0472,-0.698132,-0.174533,-0.174533,-1.04315,-0.691692,-0.154696,-0.181584,-0.809942,-0.360791,-0.595139,0.211521
26,40,-1.0472,-0.698132,-0.174533,-0.174533,-1.04315,-0.691692,-0.154696,-0.181584,-0.809942,-0.360791,-0.595139,0.211521
26,40,-1.0472,-0.698132,-0.174533,-0.174533,-1.04315,-0.691692,-0.154696,-0.181584,-0.809942,-0.360791,-0.595139,0.211521
26,40,-1.0472,-0.698132,-0.174533,-0.174533,-1.04315,-0.691692,-0.154696,-0.181584,-0.809942,-0.360791,-0.595139,0.211521
26,40,-1.0472,-0.698132,-0.174533,-0.174533,-1.04315,-0.691692,-0.154696,-0.181584,-0.809942,-0.360791,-0.595139,0.211521
26,40,-1.0472,-0.698132,-0.174533,-0.174533,-1.04315,-0.691692,-0.154696,-0.181584,-0.809942,-0.360791,-0.595139,0.211521
26,40,-1.0472,-0.698132,-0.174533,-0.174533,-1.04315,-0.691692,-0.154696,-0.181584,-0.809942,-0.360791,-0.595139,0.211521
26,40,-1.0472,-0.698132,-0.174533,-0.174533,-1.04315,-0.691692,-0.154696,-0.181584,-0.809942,-0.360791,-0.595139,0.211521
26,40,-1.0472,-0.698132,-0.174533,-0.174533,-1.04315,-0.691692,-0.154696,-0.181584,-0.809942,-0.360791,-0.595139,0.211521
26,40,-1.0472,-0.698132,-0.174533,-0.174533,-1.04315,-0.691692,-0.154696,-0.181584,-0.809942,-0.360791,-0.595139,0.211521
26,40,-1.0472,-0.698132,-0.174533,-0.174533,-1.04315,-0.691692,-0.154696,-0.181584,-0.809942,-0.360791,-0.595139,0.211521
26,40,-1.0472,-0.698132,-0.174533,-0.174533,-1.04315,-0.691692,-0.154696,-0.181584,-0.809942,-0.360791,-0.595139,0.211521
26,40,-1.0472,-0.698132,-0.174533,-0.174533,-1.04315,-0.691692,-0.154696,-0.181584,-0.809942,-0.360791,-0.595139,0.211521
26,40,-1.0472,-0.698132,-0.174533,-0.174533,-1.04315,-0.691692,-0.154696,-0.181584,-0.809942,-0.360791,-0.595139,0.211521
26,40,-1.0472,-0.698132,-0.174533,-0.174533,-1.04315,-0.691692,-0.154696,-0.181584,-0.809942,-0.360791,-0.595139,0.211521
26,40,-1.0472,-0.698132,-0.174533,-0.174533,-1.04315,-0.691692,-0.154696,-0.181584,-0.809942,-0.360791,-0.595139,0.211521
26,40,-1.0472,-0.698132,-0.174533,-0.174533,-1.04315,-0.691692,-0.154696,-0.181584,-0.809942,-0.360791,-0.595139,0.211521
26,40,-1.0472,-0.698132,-0.174533,-0.174533,-1.04315,-0.691692,-0.154696,-0.181584,-0.809942,-0.360791,-0.595139,0.211521
26,40,-1.0472,-0.698132,-0.174533,-0.174533,-1.04315,-0.691692,-0.154696,-0.181584,-0.809942,-0.360791,-0.595139,0.211521
26,40,-1.0472,-0.698132,-0.174533,-0.174533,-1.04315,-0.691692,-0.154696,-0.181584,-0.809942,-0.360791,-0.595139,0.211521
26,40,-1.0472,-0.698132,-0.174533,-0.174533,-1.04315,-0.691692,-0.154696,-0.181584,-0.809942,-0.360791,-0.595139,0.211521
26,40,-1.0472,-0.698132,-0.174533,-0.174533,-1.04315,-0.691692,-0.154696,-0.181584,-0.809942,-0.360791,-0.595139,0.211521
26,40,-1.0472,-0.698132,-0.174533,-0.174533,-1.04315,-0.691692,-0.154696,-0.181584,-0.809942,-0.360791,-0.595117,0.211535
26,40,-1.0472,-0.698132,-0.174533,-0.174533,-1.04315,-0.691692,-0.154696,-0.181584,-0.809942,-0.360791,-0.595117,0.211535
26,40,-1.0472,-0.698132,-0.174533,-0.174533,-1.04315,-0.691692,-0.154696,-0.181584,-0.809942,-0.360791,-0.595117,0.211535
26,40,-1.0472,-0.698132,-0.174533,-0.174533,-1.04315,-0.691692,-0.154696,-0.181584,-0.809942,-0.360791,-0.595117,0.211535
26,40,-1.0472,-0.698132,-0.174533,-0.174533,-1.04315,-0.691692,-0.154696,-0.181584,-0.809942,-0.360791,-0.595117,0.211535
26,40,-1.0472,-0.698132,-0.174533,-0.174533,-1.04315,-0.691692,-0.154696,-0.181584,-0.809942,-0.360791,-0.595117,0.211535
26,40,-1.0472,-0.698132,-0.174533,-0.174533,-1.04315,-0.691692,-0.154696,-0.181584,-0.809942,-0.360791,-0.595117,0.211535
26,40,-1.0472,-0.698132,-0.174533,-0.174533,-1.04315,-0.691692,-0.154696,-0.181584,-0.809942,-0.360791,-0.595117,0.211535
26,40,-1.0472,-0.698132,-0.174533,-0.174533,-1.04315,-0.691692,-0.154696,-0.181584,-0.809942,-0.360791,-0.595117,0.211535
26,40,-1.0472,-0.698132,-0.174533,-0.174533,-1.04315,-0.691692,-0.154696,-0.181584,-0.809942,-0.360791,-0.595117,0.211535
26,40,-1.0472,-0.698132,-0.174533,-0.174533,-1.04315,-0.691692,-0.154696,-0.181584,-0.809942,-0.360791,-0.595117,0.211535
26,40,-1.0472,-0.698132,-0.174533,-0.174533,-1.04315,-0.691692,-0.154696,-0.181584,-0.809942,-0.360791,-0.595117,0.211535
26,40,-1.0472,-0.698132,-0.174533,-0.174533,-1.04315,-0.691692,-0.154696,-0.181584,-0.809942,-0.360791,-0.595117,0.211535
26,40,-1.0472,-0.698132,-0.174533,-0.174533,-1.04315,-0.691692,-0.154696,-0.181584,-0.809942,-0.360791,-0.595117,0.211535
26,40,-1.0472,-0.698132,-0.174533,-0.174533,-1.04315,-0.691692,-0.154696,-0.181584,-0.809942,-0.360791,-0.595117,0.211535
26,40,-1.0472,-0.698132,-0.174533,-0.174533,-1.04315,-0.691692,-0.154696,-0.181584,-0.809942,-0.360791,-0.595117,0.211535
26,40,-1.0472,-0.698132,-0.174533,-0.174533,-1.04315,-0.691692,-0.154696,-0.181584,-0.809942,-0.360791,-0.595117,0.211535
26,40,-1.0472,-0.698132,-0.174533,-0.174533,-1.04315,-0.691692,-0.154696,-0.181584,-0.809942,-0.360791,-0.595117,0.211535
26,40,-1.0472,-0.698132,-0.174533,-0.174533,-1.04315,-0.691692,-0.154696,-0.181584,-0.809942,-0.360791,-0.595117,0.211535
26,40,-1.0472,-0.698132,-0.174533,-0.174533,-1.04315,-0.691692,-0.154696,-0.181584,-0.809942,-0.360791,-0.595117,0.211535
26,40,-1.0472,-0.698132,-0.174533,-0.174533,-1.04315,-0.691692,-0.154696,-0.181584,-0.809942,-0.360791,-0.595117,0.211535
26,40,-1.0472,-0.698132,-0.174533,-0.174533,-1.04315,-0.691692,-0.154696,-0.181584,-0.809942,-0.360791,-0.595117,0.211535
26,40,-1.0472,-0.698132,-0.174533,-0.174533,-1.04315,-0.691692,-0.154696,-0.181584,-0.809942,-0.360791,-0.595117,0.211535
26,40,-1.0472,-0.698132,-0.174533,-0.174533,-1.04315,-0.691692,-0.154696,-0.181584,-0.809942,-0.360791,-0.595117,0.211535
26,40,-1.0472,-0.698132,-0.174533,-0.174533,-1.04315,-0.691692,-0.154696,-0.181584,-0.809942,-0.360791,-0.595117,0.211535
26,40,-1.0472,-0.698132,-0.174533,-0.174533,-1.04315,-0.691692,-0.154696,-0.181584,-0.809942,-0.360791,-0.595117,0.211535
26,40,-1.0472,-0.698132,-0.174533,-0.174533,-1.04315,-0.691692,-0.154696,-0.181584,-0.809942,-0.360791,-0.595117,0.211535
26,40,-1.0472,-0.698132,-0.174533,-0.174533,-1.04315,-0.691692,-0.154696,-0.181584,-0.809942,-0.360791,-0.595117,0.211535
26,40,-1.0472,-0.698132,-0.174533,-0.174533,-1.04315,-0.691692,-0.154696,-0.181584,-0.809942,-0.360791,-0.595117,0.211535
26,40,-1.0472,-0.698132,-0.174533,-0.174533,-1.04315,-0.691692,-0.154696,-0.181584,-0.809942,-0.360791,-0.595117,0.211535
26,40,-1.0472,-0.698132,-0.174533,-0.174533,-1.04315,-0.691692,-0.154696,-0.181584,-0.809942,-0.360791,-0.595117,0.211535
26,40,-1.0472,-0.698132,-0.174533,-0.174533,-1.04315,-0.691692,-0.154696,-0.181584,-0.809942,-0.360791,-0.595117,0.211535
26,40,-1.0472,-0.698132,-0.174533,-0.174533,-1.04315,-0.691692,-0.154696,-0.181584,-0.809942,-0.360791,-0.595117,0.211535
26,40,-1.0472,-0.698132,-0.174533,-0.174533,-1.04315,-0.691692,-0.154696,-0.181584,-0.809942,-0.360791,-0.595117,0.211535
26,40,-1.0472,-0.698132,-0.174533,-0.174533,-1.04315,-0.691692,-0.154696,-0.181584,-0.809942,-0.360791,-0.595117,0.211535
26,40,-1.0472,-0.698132,-0.174533,-0.174533,-1.04315,-0.691692,-0.154696,-0.181584,-0.809942,-0.360791,-0.595117,0.211535
26,40,-1.0472,-0.698132,-0.174533,-0.174533,-1.04315,-0.691692,-0.154696,-0.181584,-0.809942,-0.360791,-0.595117,0.211535
26,40,-1.0472,-0.698132,-0.174533,-0.174533,-1.04315,-0.691692,-0.154696,-0.181584,-0.809942,-0.360791,-0.595117,0.211535
26,40,-1.0472,-0.698132,-0.174533,-0.174533,-1.04315,-0.691692,-0.154696,-0.181584,-0.809942,-0.360791,-0.595117,0.211535
26,40,-1.0472,-0.698132,-0.174533,-0.174533,-1.04315,-0.691692,-0.154696,-0.181584,-0.809942,-0.360791,-0.595117,0.211535
26,40,-1.0472,-0.698132,-0.174533,-0.174533,-1.04315,-0.691692,-0.154696,-0.181584,-0.809942,-0.360791,-0.595117,0.211535
26,40,-1.0472,-0.698132,-0.174533,-0.174533,-1.04315,-0.691692,-0.154696,-0.181584,-0.809942,-0.360791,-0.595117,0.211535
26,40,-1.0472,-0.698132,-0.174533,-0.174533,-1.04315,-0.691692,-0.154696,-0.181584,-0.809942,-0.360791,-0.595117,0.211535
26,40,-1.0472,-0.698132,-0.174533,-0.174533,-1.04315,-0.691692,-0.154696,-0.181584,-0.809942,-0.360791,-0.595117,0.211535
26,40,-1.0472,-0.698132,-0.174533,-0.174533,-1.04315,-0.691692,-0.154696,-0.181584,-0.809942,-0.360791,-0.595117,0.211535
26,40,-1.0472,-0.698132,-0.174533,-0.174533,-1.04315,-0.691692,-0.154696,-0.181584,-0.809942,-0.360791,-0.595117,0.211535
26,40,-1.0472,-0.698132,-0.174533,-0.174533,-1.04315,-0.691692,-0.154696,-0.181584,-0.809942,-0.360791,-0.595117,0.211535
26,40,-1.0472,-0.698132,-0.174533,-0.174533,-1.04315,-0.691692,-0.154696,-0.181584,-0.809942,-0.360791,-0.595117,0.211535
26,40,-1.0472,-0.698132,-0.174533,-0.174533,-1.04315,-0.691641,-0.154696,-0.181584,-0.809942,-0.363673,-0.595117,0.211535
26,40,-1.0472,-0.698132,-0.174533,-0.174533,-1.04315,-0.691641,-0.154696,-0.181584,-0.809942,-0.363673,-0.595117,0.211535
26,40,-1.0472,-0.698132,-0.174533,-0.174533,-1.04315,-0.691641,-0.154696,-0.181584,-0.809942,-0.363673,-0.595117,0.211535
26,40,-1.0472,-0.698132,-0.174533,-0.174533,-1.04315,-0.691641,-0.154696,-0.181584,-0.809942,-0.363673,-0.595117,0.211535
26,40,-1.0472,-0.698132,-0.174533,-0.174533,-1.04315,-0.691641,-0.154696,-0.181584,-0.809942,-0.363673,-0.595117,0.211535
26,40,-1.0472,-0.698132,-0.174533,-0.174533,-1.04315,-0.691641,-0.154696,-0.181584,-0.809942,-0.363673,-0.595117,0.211535
26,40,-1.0472,-0.698132,-0.174533,-0.174533,-1.04315,-0.691641,-0.154696,-0.181584,-0.809942,-0.363673,-0.595117,0.211535
26,40,-1.0472,-0.698132,-0.174533,-0.174533,-1.04315,-0.691641,-0.154696,-0.181584,-0.809942,-0.363673,-0.595117,0.211535
26,40,-1.0472,-0.698132,-0.174533,-0.174533,-1.04315,-0.691641,-0.154696,-0.181584,-0.809942,-0.363673,-0.595117,0.211535
26,40,-1.0472,-0.698132,-0.174533,-0.174533,-1.04315,-0.691641,-0.154696,-0.181584,-0.809942,-0.363673,-0.595117,0.211535
26,40,-1.0472,-0.698132,-0.174533,-0.174533,-1.04315,-0.691641,-0.154696,-0.181584,-0.809942,-0.363673,-0.595117,0.211535
26,40,-1.0472,-0.698132,-0.174533,-0.174533,-1.04315,-0.691641,-0.154696,-0.181584,-0.809942,-0.363673,-0.595117,0.211535
26,40,-1.0472,-0.698132,-0.174533,-0.174533,-1.04315,-0.691641,-0.154696,-0.181584,-0.809942,-0.363673,-0.595117,0.211535
26,40,-1.0472,-0.698132,-0.174533,-0.174533,-1.04315,-0.691641,-0.154696,-0.181584,-0.809942,-0.363673,-0.595117,0.211535
26,40,-1.0472,-0.698132,-0.174533,-0.174533,-1.04315,-0.691641,-0.154696,-0.181584,-0.809942,-0.363673,-0.595117,0.211535
26,40,-1.0472,-0.698132,-0.174533,-0.174533,-1.04315,-0.691641,-0.154696,-0.181584,-0.809942,-0.363673,-0.595117,0.211535
26,40,-1.0472,-0.698132,-0.174533,-0.174533,-1.04315,-0.691641,-0.154696,-0.181584,-0.809942,-0.363673,-0.595117,0.211535
26,40,-1.0472,-0.698132,-0.174533,-0.174533,-1.04315,-0.691641,-0.154696,-0.181584,-0.809942,-0.363673,-0.595117,0.211535
26,40,-1.0472,-0.698132,-0.174533,-0.174533,-1.04315,-0.691641,-0.154696,-0.181584,-0.809942,-0.363673,-0.595117,0.211535
26,40,-1.0472,-0.698132,-0.174533,-0.174533,-1.04315,-0.691641,-0.154696,-0.181584,-0.809942,-0.363673,-0.595117,0.211535
26,40,-1.0472,-0.698132,-0.174533,-0.174533,-1.04315,-0.691641,-0.154696,-0.181584,-0.809942,-0.363673,-0.595117,0.211535
26,40,-1.0472,-0.698132,-0.174533,-0.174533,-1.04315,-0.691641,-0.154696,-0.181584,-0.809942,-0.363673,-0.595117,0.211535
26,40,-1.0472,-0.698132,-0.174533,-0.174533,-1.04315,-0.691641,-0.154696,-0.181584,-0.809942,-0.363673,-0.595117,0.211535
26,40,-1.0472,-0.698132,-0.174533,-0.174533,-1.04315,-0.691641,-0.154696,-0.181584,-0.809942,-0.363673,-0.595117,0.211535
26,40,-1.0472,-0.698132,-0.174533,-0.174533,-1.04315,-0.691641,-0.154696,-0.181584,-0.809942,-0.363673,-0.595117,0.211535
26,40,-1.0472,-0.698132,-0.174533,-0.174533,-1.04315,-0.691641,-0.154696,-0.181584,-0.809942,-0.363673,-0.595117,0.211535
26,40,-1.0472,-0.698132,-0.174533,-0.174533,-1.04315,-0.691641,-0.154696,-0.181584,-0.809942,-0.363673,-0.595117,0.211535
26,40,-1.0472,-0.698132,-0.174533,-0.174533,-1.04315,-0.691641,-0.154696,-0.181584,-0.809942,-0.363673,-0.595117,0.211535
26,40,-1.0472,-0.698132,-0.174533,-0.174533,-1.04315,-0.691641,-0.154696,-0.181584,-0.809942,-0.363673,-0.595117,0.211535
26,40,-1.0472,-0.698132,-0.174533,-0.174533,-1.04315,-0.691641,-0.154696,-0.181584,-0.809942,-0.363673,-0.595117,0.211535
26,40,-1.0472,-0.698132,-0.174533,-0.174533,-1.04315,-0.691641,-0.154696,-0.181584,-0.809942,-0.363673,-0.595117,0.211535
26,40,-1.0472,-0.698132,-0.174533,-0.174533,-1.04315,-0.691641,-0.154696,-0.181584,-0.809942,-0.363673,-0.595117,0.211535
26,40,-1.0472,-0.698132,-0.174533,-0.174533,-1.04315,-0.691641,-0.154696,-0.181584,-0.809942,-0.363673,-0.595117,0.211535
26,40,-1.0472,-0.698132,-0.174533,-0.174533,-1.04315,-0.691641,-0.154696,-0.181584,-0.809942,-0.363673,-0.595117,0.211535
26,40,-1.0472,-0.698132,-0.174533,-0.174533,-1.04315,-0.691641,-0.154696,-0.181584,-0.809942,-0.363673,-0.595117,0.211535
26,40,-1.0472,-0.698132,-0.174533,-0.174533,-1.04315,-0.691641,-0.154696,-0.181584,-0.809942,-0.363673,-0.595117,0.211535
26,40,-1.0472,-0.698132,-0.174533,-0.174533,-1.04315,-0.691641,-0.154696,-0.181584,-0.809942,-0.363673,-0.595117,0.211535
26,40,-1.0472,-0.698132,-0.174533,-0.174533,-1.04315,-0.691641,-0.154696,-0.181584,-0.809942,-0.363673,-0.595117,0.211535
26,40,-1.0472,-0.698132,-0.174533,-0.174533,-1.04315,-0.691641,-0.154696,-0.181584,-0.809942,-0.363673,-0.595117,0.211535
26,40,-1.0472,-0.698132,-0.174533,-0.174533,-1.04315,-0.691641,-0.154696,-0.181584,-0.809942,-0.363673,-0.595117,0.211535
26,40,-1.0472,-0.698132,-0.174533,-0.174533,-1.04315,-0.691641,-0.154696,-0.181584,-0.809942,-0.363673,-0.595117,0.211535
26,40,-1.0472,-0.698132,-0.174533,-0.174533,-1.04315,-0.691641,-0.154696,-0.181584,-0.809942,-0.363673,-0.595117,0.211535
26,40,-1.0472,-0.698132,-0.174533,-0.174533,-1.04315,-0.691641,-0.154696,-0.181584,-0.809942,-0.363673,-0.595117,0.211535
26,40,-1.0472,-0.698132,-0.174533,-0.174533,-1.04315,-0.691641,-0.154696,-0.181584,-0.809942,-0.363673,-0.595117,0.211535
26,40,-1.0472,-0.698132,-0.174533,-0.174533,-1.04315,-0.691641,-0.154696,-0.181584,-0.809942,-0.363673,-0.595117,0.211535
26,40,-1.0472,-0.698132,-0.174533,-0.174533,-1.04315,-0.691641,-0.154696,-0.181584,-0.809942,-0.363673,-0.595117,0.211535
26,40,-1.0472,-0.698132,-0.174533,-0.174533,-1.04315,-0.691641,-0.154696,-0.181584,-0.809942,-0.363673,-0.595117,0.211535
26,40,-1.0472,-0.698132,-0.174533,-0.174533,-1.04315,-0.691641,-0.154696,-0.181584,-0.809942,-0.363673,-0.595117,0.211535
26,40,-1.0472,-0.698132,-0.174533,-0.174533,-1.04315,-0.691641,-0.154696,-0.181584,-0.809942,-0.363673,-0.595117,0.211535
26,40,-1.0472,-0.698132,-0.174533,-0.174533,-1.04315,-0.691641,-0.154696,-0.181584,-0.809942,-0.363673,-0.595117,0.211535
26,40,-1.0472,-0.698132,-0.174533,-0.174533,-1.04315,-0.691641,-0.154696,-0.181584,-0.809942,-0.363673,-0.595117,0.211535
26,40,-1.0472,-0.698132,-0.174533,-0.174533,-1.04315,-0.691641,-0.154696,-0.181584,-0.809942,-0.363673,-0.595117,0.211535
26,40,-1.0472,-0.698132,-0.174533,-0.174533,-1.04315,-0.691641,-0.154696,-0.181584,-0.809942,-0.363673,-0.595117,0.211535
26,40,-1.0472,-0.698132,-0.174533,-0.174533,-1.04315,-0.691641,-0.154696,-0.181584,-0.809942,-0.363673,-0.595117,0.211535
26,40,-1.0472,-0.698132,-0.174533,-0.174533,-1.04315,-0.691641,-0.154696,-0.181584,-0.809942,-0.363673,-0.595117,0.211535
26,40,-1.0472,-0.698132,-0.174533,-0.174533,-1.04315,-0.691641,-0.154696,-0.181584,-0.809942,-0.363673,-0.595117,0.211535
26,40,-1.0472,-0.698132,-0.174533,-0.174533,-1.04315,-0.691641,-0.154696,-0.181584,-0.809942,-0.363673,-0.595117,0.211535
26,40,-1.0472,-0.698132,-0.174533,-0.174533,-1.04315,-0.691641,-0.154696,-0.181584,-0.809942,-0.363673,-0.595117,0.211535
26,40,-1.0472,-0.698132,-0.174533,-0.174533,-1.04315,-0.691641,-0.154696,-0.181584,-0.809942,-0.363673,-0.595117,0.211535
26,40,-1.0472,-0.698132,-0.174533,-0.174533,-1.04315,-0.691641,-0.154696,-0.181584,-0.809942,-0.363673,-0.595117,0.211535
26,40,-1.0472,-0.698132,-0.174533,-0.174533,-1.04315,-0.691641,-0.154696,-0.181584,-0.809942,-0.363673,-0.595117,0.211535
26,40,-1.0472,-0.698132,-0.174533,-0.174533,-1.04315,-0.691641,-0.154696,-0.181584,-0.809942,-0.363673,-0.595117,0.211535
26,40,-1.0472,-0.698132,-0.174533,-0.174533,-1.04315,-0.691641,-0.154696,-0.181584,-0.809942,-0.363673,-0.595117,0.211535
26,40,-1.0472,-0.698132,-0.174533,-0.174533,-1.04315,-0.691641,-0.154631,-0.181542,-0.809942,-0.363673,-0.597069,0.21028
26,40,-1.0472,-0.698132,-0.174533,-0.174533,-1.04315,-0.691641,-0.154631,-0.181542,-0.809942,-0.363673,-0.597069,0.21028
26,40,-1.0472,-0.698132,-0.174533,-0.174533,-1.04315,-0.691641,-0.154631,-0.181542,-0.809942,-0.363673,-0.597069,0.21028
26,40,-1.0472,-0.698132,-0.174533,-0.174533,-1.04315,-0.691641,-0.154631,-0.181542,-0.809942,-0.363673,-0.597069,0.21028
26,40,-1.0472,-0.698132,-0.174533,-0.174533,-1.04315,-0.691641,-0.154631,-0.181542,-0.809942,-0.363673,-0.597069,0.21028
26,40,-1.0472,-0.698132,-0.174533,-0.174533,-1.04315,-0.691641,-0.154631,-0.181542,-0.809942,-0.363673,-0.597069,0.21028
26,40,-1.0472,-0.698132,-0.174533,-0.174533,-1.04315,-0.691641,-0.154631,-0.181542,-0.809942,-0.363673,-0.597069,0.21028
26,40,-1.0472,-0.698132,-0.174533,-0.174533,-1.04315,-0.691641,-0.154631,-0.181542,-0.809942,-0.363673,-0.597069,0.21028
26,40,-1.0472,-0.698132,-0.174533,-0.174533,-1.04315,-0.691641,-0.154631,-0.181542,-0.809942,-0.363673,-0.597069,0.21028
26,40,-1.0472,-0.698132,-0.174533,-0.174533,-1.04315,-0.691641,-0.154631,-0.181542,-0.809942,-0.363673,-0.597069,0.21028
26,40,-1.0472,-0.698132,-0.174533,-0.174533,-1.04315,-0.691641,-0.154631,-0.181542,-0.809942,-0.363673,-0.597069,0.21028
26,40,-1.0472,-0.698132,-0.174533,-0.174533,-1.04315,-0.691641,-0.154631,-0.181542,-0.809942,-0.363673,-0.597069,0.21028
26,40,-1.0472,-0.698132,-0.174533,-0.174533,-1.04315,-0.691591,-0.154631,-0.181542,-0.809942,-0.366538,-0.597069,0.21028
26,40,-1.0472,-0.698132,-0.174533,-0.174533,-1.04315,-0.691591,-0.154631,-0.181542,-0.809942,-0.366538,-0.597069,0.21028
26,40,-1.0472,-0.698132,-0.174533,-0.174533,-1.04315,-0.691591,-0.154631,-0.181542,-0.809942,-0.366538,-0.597069,0.21028
26,40,-1.0472,-0.698132,-0.174533,-0.174533,-1.04315,-0.691591,-0.154631,-0.181542,-0.809942,-0.366538,-0.597069,0.21028
26,40,-1.0472,-0.698132,-0.174533,-0.174533,-1.04315,-0.691591,-0.154631,-0.181542,-0.809942,-0.366538,-0.597069,0.21028
26,40,-1.0472,-0.698132,-0.174533,-0.174533,-1.04315,-0.691591,-0.154631,-0.181542,-0.809942,-0.366538,-0.597069,0.21028
26,40,-1.0472,-0.698132,-0.174533,-0.174533,-1.04315,-0.691591,-0.154631,-0.181542,-0.809942,-0.366538,-0.597069,0.21028
26,40,-1.0472,-0.698132,-0.174533,-0.174533,-1.04315,-0.691591,-0.154631,-0.181542,-0.809942,-0.366538,-0.597069,0.21028
26,40,-1.0472,-0.698132,-0.174533,-0.174533,-1.04315,-0.691591,-0.154631,-0.181542,-0.809942,-0.366538,-0.597069,0.21028
26,40,-1.0472,-0.698132,-0.174533,-0.174533,-1.04315,-0.691591,-0.154631,-0.181542,-0.809942,-0.366538,-0.597069,0.21028
26,40,-1.0472,-0.698132,-0.174533,-0.174533,-1.04315,-0.691591,-0.154631,-0.181542,-0.809942,-0.366538,-0.597069,0.21028
26,40,-1.0472,-0.698132,-0.174533,-0.174533,-1.04315,-0.691591,-0.154631,-0.181542,-0.809942,-0.366538,-0.597069,0.21028
26,40,-1.0472,-0.698132,-0.174533,-0.174533,-1.04315,-0.691591,-0.154631,-0.181542,-0.809942,-0.366538,-0.597069,0.21028
26,40,-1.0472,-0.698132,-0.174533,-0.174533,-1.04315,-0.691591,-0.154631,-0.181542,-0.809942,-0.366538,-0.597069,0.21028
26,40,-1.0472,-0.698132,-0.174533,-0.174533,-1.04315,-0.691591,-0.154631,-0.181542,-0.809942,-0.366538,-0.597069,0.21028
26,40,-1.0472,-0.698132,-0.174533,-0.174533,-1.04315,-0.691591,-0.154631,-0.181542,-0.809942,-0.366538,-0.597069,0.21028
26,40,-1.0472,-0.698132,-0.174533,-0.174533,-1.04315,-0.691591,-0.154631,-0.181542,-0.809942,-0.366538,-0.597069,0.21028
26,40,-1.0472,-0.698132,-0.174533,-0.174533,-1.04315,-0.691591,-0.154631,-0.181542,-0.809942,-0.366538,-0.597069,0.21028
26,40,-1.0472,-0.698132,-0.174533,-0.174533,-1.04315,-0.691591,-0.154631,-0.181542,-0.809942,-0.366538,-0.597069,0.21028
26,40,-1.0472,-0.698132,-0.174533,-0.174533,-1.04315,-0.691591,-0.154631,-0.181542,-0.809942,-0.366538,-0.597069,0.21028
26,40,-1.0472,-0.698132,-0.174533,-0.174533,-1.04315,-0.691591,-0.154631,-0.181542,-0.809942,-0.366538,-0.597069,0.21028
26,40,-1.0472,-0.698132,-0.174533,-0.174533,-1.04315,-0.691591,-0.154631,-0.181542,-0.809942,-0.366538,-0.597069,0.21028
26,40,-1.0472,-0.698132,-0.174533,-0.174533,-1.04315,-0.691591,-0.154631,-0.181542,-0.809942,-0.366538,-0.597069,0.21028
26,40,-1.0472,-0.698132,-0.174533,-0.174533,-1.04315,-0.691591,-0.154631,-0.181542,-0.809942,-0.366538,-0.597069,0.21028
26,40,-1.0472,-0.698132,-0.174533,-0.174533,-1.04315,-0.691591,-0.154631,-0.181542,-0.809942,-0.366538,-0.597069,0.21028
26,40,-1.0472,-0.698132,-0.174533,-0.174533,-1.04315,-0.691591,-0.154631,-0.181542,-0.809942,-0.366538,-0.597069,0.21028
26,40,-1.0472,-0.698132,-0.174533,-0.174533,-1.04315,-0.691591,-0.154631,-0.181542,-0.809942,-0.366538,-0.597069,0.21028
26,40,-1.0472,-0.698132,-0.174533,-0.174533,-1.04315,-0.691591,-0.154631,-0.181542,-0.809942,-0.366538,-0.597069,0.21028
26,40,-1.0472,-0.698132,-0.174533,-0.174533,-1.04315,-0.691591,-0.154631,-0.181542,-0.809942,-0.366538,-0.597069,0.21028
26,40,-1.0472,-0.698132,-0.174533,-0.174533,-1.04315,-0.691591,-0.154631,-0.181542,-0.809942,-0.366538,-0.597069,0.21028
26,40,-1.0472,-0.698132,-0.174533,-0.174533,-1.04315,-0.691591,-0.154631,-0.181542,-0.809942,-0.366538,-0.597069,0.21028
26,40,-1.0472,-0.698132,-0.174533,-0.174533,-1.04315,-0.691591,-0.154631,-0.181542,-0.809942,-0.366538,-0.597069,0.21028
26,40,-1.0472,-0.698132,-0.174533,-0.174533,-1.04315,-0.691591,-0.154631,-0.181542,-0.809942,-0.366538,-0.597069,0.21028
26,40,-1.0472,-0.698132,-0.174533,-0.174533,-1.04315,-0.691591,-0.154631,-0.181542,-0.809942,-0.366538,-0.597069,0.21028
26,40,-1.0472,-0.698132,-0.174533,-0.174533,-1.04315,-0.691591,-0.154631,-0.181542,-0.809942,-0.366538,-0.597069,0.21028
26,40,-1.0472,-0.698132,-0.174533,-0.174533,-1.04315,-0.691591,-0.154631,-0.181542,-0.809942,-0.366538,-0.597069,0.21028
26,40,-1.0472,-0.698132,-0.174533,-0.174533,-1.04315,-0.691591,-0.154631,-0.181542,-0.809942,-0.366538,-0.597069,0.21028
26,40,-1.0472,-0.698132,-0.174533,-0.174533,-1.04315,-0.691591,-0.154631,-0.181542,-0.809942,-0.366538,-0.597069,0.21028
26,40,-1.0472,-0.698132,-0.174533,-0.174533,-1.04315,-0.691591,-0.154631,-0.181542,-0.809942,-0.366538,-0.597069,0.21028
26,40,-1.0472,-0.698132,-0.174533,-0.174533,-1.04315,-0.691591,-0.154631,-0.181542,-0.809942,-0.366538,-0.597069,0.21028
26,40,-1.0472,-0.698132,-0.174533,-0.174533,-1.04315,-0.691591,-0.154631,-0.181542,-0.809942,-0.366538,-0.597069,0.21028
26,40,-1.0472,-0.698132,-0.174533,-0.174533,-1.04315,-0.691591,-0.154631,-0.181542,-0.809942,-0.366538,-0.597069,0.21028
26,40,-1.0472,-0.698132,-0.174533,-0.174533,-1.04315,-0.691591,-0.154631,-0.181542,-0.809942,-0.366538,-0.597069,0.21028
26,40,-1.0472,-0.698132,-0.174533,-0.174533,-1.04315,-0.691591,-0.154631,-0.181542,-0.809942,-0.366538,-0.597069,0.21028
26,40,-1.0472,-0.698132,-0.174533,-0.174533,-1.04315,-0.691591,-0.154631,-0.181542,-0.809942,-0.366538,-0.597069,0.21028
26,40,-1.0472,-0.698132,-0.174533,-0.174533,-1.04315,-0.691591,-0.154631,-0.181542,-0.809942,-0.366538,-0.597069,0.21028
26,40,-1.0472,-0.698132,-0.174533,-0.174533,-1.04315,-0.691591,-0.154631,-0.181542,-0.809942,-0.366538,-0.597069,0.21028
26,40,-1.0472,-0.698132,-0.174533,-0.174533,-1.04315,-0.691591,-0.154631,-0.181542,-0.809942,-0.366538,-0.597069,0.21028
26,40,-1.0472,-0.698132,-0.174533,-0.174533,-1.04315,-0.691591,-0.154631,-0.181542,-0.809942,-0.366538,-0.597069,0.21028
26,40,-1.0472,-0.698132,-0.174533,-0.174533,-1.04315,-0.691591,-0.154631,-0.181542,-0.809942,-0.366538,-0.597069,0.21028
26,40,-1.0472,-0.698132,-0.174533,-0.174533,-1.04315,-0.691591,-0.154631,-0.181542,-0.809942,-0.366538,-0.597069,0.21028
26,40,-1.0472,-0.698132,-0.174533,-0.174533,-1.04315,-0.691591,-0.154631,-0.181542,-0.809942,-0.366538,-0.597069,0.21028
26,40,-1.0472,-0.698132,-0.174533,-0.174533,-1.04315,-0.691591,-0.154631,-0.181542,-0.809942,-0.366538,-0.597069,0.21028
26,40,-1.0472,-0.698132,-0.174533,-0.174533,-1.04315,-0.691591,-0.154631,-0.181542,-0.809942,-0.366538,-0.597069,0.21028
26,40,-1.0472,-0.698132,-0.174533,-0.174533,-1.04315,-0.691591,-0.154631,-0.181542,-0.809942,-0.366538,-0.597069,0.21028
26,40,-1.0472,-0.698132,-0.174533,-0.174533,-1.04315,-0.691591,-0.154631,-0.181542,-0.809942,-0.366538,-0.597069,0.21028
26,40,-1.0472,-0.698132,-0.174533,-0.174533,-1.04315,-0.691591,-0.154631,-0.181542,-0.809942,-0.366538,-0.597069,0.21028
26,40,-1.0472,-0.698132,-0.174533,-0.174533,-1.04315,-0.691591,-0.154631,-0.181542,-0.809942,-0.366538,-0.597069,0.21028
26,40,-1.0472,-0.698132,-0.174533,-0.174533,-1.04315,-0.691591,-0.154631,-0.181542,-0.809942,-0.366538,-0.597069,0.21028
26,40,-1.0472,-0.698132,-0.174533,-0.174533,-1.04315,-0.691591,-0.154631,-0.181542,-0.809942,-0.366538,-0.597069,0.21028
26,40,-1.0472,-0.698132,-0.174533,-0.174533,-1.04315,-0.691591,-0.154631,-0.181542,-0.809942,-0.366538,-0.597069,0.21028
26,40,-1.0472,-0.698132,-0.174533,-0.174533,-1.04315,-0.691591,-0.154631,-0.181542,-0.809942,-0.366538,-0.597069,0.21028
26,40,-1.0472,-0.698132,-0.174533,-0.174533,-1.04315,-0.691591,-0.154631,-0.181542,-0.809942,-0.366538,-0.597069,0.21028
26,40,-1.0472,-0.698132,-0.174533,-0.174533,-1.04315,-0.691591,-0.154631,-0.181542,-0.809942,-0.366538,-0.597069,0.21028
26,40,-1.0472,-0.698132,-0.174533,-0.174533,-1.04315,-0.691591,-0.154631,-0.181542,-0.809942,-0.366538,-0.597069,0.21028
26,40,-1.0472,-0.698132,-0.174533,-0.174533,-1.04315,-0.691591,-0.154631,-0.181542,-0.809942,-0.366538,-0.597069,0.21028
26,40,-1.0472,-0.698132,-0.174533,-0.174533,-1.04315,-0.691591,-0.154631,-0.181542,-0.809942,-0.366538,-0.597069,0.21028
26,40,-1.0472,-0.698132,-0.174533,-0.174533,-1.04315,-0.691591,-0.154631,-0.181542,-0.809942,-0.366538,-0.597069,0.21028
26,40,-1.0472,-0.698132,-0.174533,-0.174533,-1.04315,-0.691591,-0.154631,-0.181542,-0.809942,-0.366538,-0.597069,0.21028
26,40,-1.0472,-0.698132,-0.174533,-0.174533,-1.04315,-0.691591,-0.154631,-0.181542,-0.809942,-0.366538,-0.597069,0.21028
26,40,-1.0472,-0.698132,-0.174533,-0.174533,-1.04315,-0.691591,-0.154631,-0.181542,-0.809942,-0.366538,-0.597069,0.21028
26,40,-1.0472,-0.698132,-0.174533,-0.174533,-1.04315,-0.691591,-0.154631,-0.181542,-0.809942,-0.366538,-0.597069,0.21028
26,40,-1.0472,-0.698132,-0.174533,-0.174533,-1.04315,-0.691591,-0.154631,-0.181542,-0.809942,-0.366538,-0.597069,0.21028
26,40,-1.0472,-0.698132,-0.174533,-0.174533,-1.04315,-0.691591,-0.154631,-0.181542,-0.809942,-0.366538,-0.597069,0.21028
26,40,-1.0472,-0.698132,-0.174533,-0.174533,-1.04315,-0.691591,-0.154631,-0.181542,-0.809942,-0.366538,-0.597069,0.21028
26,40,-1.0472,-0.698132,-0.174533,-0.174533,-1.04315,-0.691591,-0.154631,-0.181542,-0.809942,-0.366538,-0.597069,0.21028
26,40,-1.0472,-0.698132,-0.174533,-0.174533,-1.04315,-0.691591,-0.154631,-0.181542,-0.809942,-0.366538,-0.597069,0.21028
26,40,-1.0472,-0.698132,-0.174533,-0.174533,-1.04315,-0.691591,-0.154631,-0.181542,-0.809942,-0.366538,-0.597069,0.21028
26,40,-1.0472,-0.698132,-0.174533,-0.174533,-1.04315,-0.691591,-0.154631,-0.181542,-0.809942,-0.366538,-0.597069,0.21028
26,40,-1.0472,-0.698132,-0.174533,-0.174533,-1.04315,-0.691591,-0.154631,-0.181542,-0.809942,-0.366538,-0.597069,0.21028
26,40,-1.0472,-0.698132,-0.174533,-0.174533,-1.04315,-0.691591,-0.154631,-0.181542,-0.809942,-0.366538,-0.597069,0.21028
26,40,-1.0472,-0.698132,-0.174533,-0.174533,-1.04315,-0.691591,-0.154631,-0.181542,-0.809942,-0.366538,-0.597069,0.21028
26,40,-1.0472,-0.698132,-0.174533,-0.174533,-1.04315,-0.691591,-0.154631,-0.181542,-0.809942,-0.366538,-0.597069,0.21028
26,40,-1.0472,-0.698132,-0.174533,-0.174533,-1.04315,-0.691591,-0.154631,-0.181542,-0.809942,-0.366538,-0.597069,0.21028
26,40,-1.0472,-0.698132,-0.174533,-0.174533,-1.04315,-0.691591,-0.154631,-0.181542,-0.809942,-0.366538,-0.597069,0.21028
26,40,-1.0472,-0.698132,-0.174533,-0.174533,-1.04315,-0.691591,-0.154631,-0.181542,-0.809942,-0.366538,-0.597069,0.21028
26,40,-1.0472,-0.698132,-0.174533,-0.174533,-1.04315,-0.691591,-0.154631,-0.181542,-0.809942,-0.366538,-0.597069,0.21028
26,40,-1.0472,-0.698132,-0.174533,-0.174533,-1.04315,-0.691591,-0.154631,-0.181542,-0.809942,-0.366538,-0.597069,0.21028
26,40,-1.0472,-0.698132,-0.174533,-0.174533,-1.04315,-0.691591,-0.154631,-0.181542,-0.809942,-0.366538,-0.597069,0.21028
26,40,-1.0472,-0.698132,-0.174533,-0.174533,-1.04315,-0.691591,-0.154631,-0.181542,-0.809942,-0.366538,-0.597069,0.21028
26,40,-1.0472,-0.698132,-0.174533,-0.174533,-1.04315,-0.691591,-0.154631,-0.181542,-0.809942,-0.366538,-0.597069,0.21028
26,40,-1.0472,-0.698132,-0.174533,-0.174533,-1.04315,-0.691591,-0.154631,-0.181542,-0.809942,-0.366538,-0.597069,0.21028
26,40,-1.0472,-0.698132,-0.174533,-0.174533,-1.04315,-0.691591,-0.154631,-0.181542,-0.809942,-0.366538,-0.597069,0.21028
26,40,-1.0472,-0.698132,-0.174533,-0.174533,-1.04315,-0.691591,-0.154631,-0.181542,-0.809942,-0.366538,-0.597069,0.21028
26,40,-1.0472,-0.698132,-0.174533,-0.174533,-1.04315,-0.691591,-0.154631,-0.181542,-0.809942,-0.366538,-0.597069,0.21028
26,40,-1.0472,-0.698132,-0.174533,-0.174533,-1.04315,-0.691591,-0.154631,-0.181542,-0.809942,-0.366538,-0.597069,0.21028
26,40,-1.0472,-0.698132,-0.174533,-0.174533,-1.04315,-0.691591,-0.154631,-0.181542,-0.809942,-0.366538,-0.597069,0.21028
26,40,-1.0472,-0.698132,-0.174533,-0.174533,-1.04315,-0.691591,-0.154631,-0.181542,-0.809942,-0.366538,-0.597069,0.21028
26,40,-1.0472,-0.698132,-0.174533,-0.174533,-1.04315,-0.691591,-0.154631,-0.181542,-0.809942,-0.366538,-0.597069,0.21028
26,40,-1.0472,-0.698132,-0.174533,-0.174533,-1.04315,-0.691591,-0.154631,-0.181542,-0.809942,-0.366538,-0.597069,0.21028
26,40,-1.0472,-0.698132,-0.174533,-0.174533,-1.04315,-0.691591,-0.154631,-0.181542,-0.809942,-0.366538,-0.597069,0.21028
26,40,-1.0472,-0.698132,-0.174533,-0.174533,-1.04315,-0.691591,-0.154631,-0.181542,-0.809942,-0.366538,-0.597069,0.21028
26,40,-1.0472,-0.698132,-0.174533,-0.174533,-1.04315,-0.691591,-0.154631,-0.181542,-0.809942,-0.366538,-0.597069,0.21028
26,40,-1.0472,-0.698132,-0.174533,-0.174533,-1.04315,-0.691591,-0.154631,-0.181542,-0.809942,-0.366538,-0.597069,0.21028
26,40,-1.0472,-0.698132,-0.174533,-0.174533,-1.04315,-0.691591,-0.154631,-0.181542,-0.809942,-0.366538,-0.597069,0.21028
26,40,-1.0472,-0.698132,-0.174533,-0.174533,-1.04315,-0.691591,-0.154631,-0.181542,-0.809942,-0.366538,-0.597069,0.21028
26,40,-1.0472,-0.698132,-0.174533,-0.174533,-1.04315,-0.691591,-0.154631,-0.181542,-0.809942,-0.366538,-0.597069,0.21028
26,40,-1.0472,-0.698132,-0.174533,-0.174533,-1.04315,-0.691591,-0.154631,-0.181542,-0.809942,-0.366538,-0.597069,0.21028
26,40,-1.0472,-0.698132,-0.174533,-0.174533,-1.04315,-0.691591,-0.154631,-0.181542,-0.809942,-0.366538,-0.597069,0.21028
26,40,-1.0472,-0.698132,-0.174533,-0.174533,-1.04315,-0.691591,-0.154631,-0.181542,-0.809942,-0.366538,-0.597069,0.21028
26,40,-1.0472,-0.698132,-0.174533,-0.174533,-1.04315,-0.691591,-0.154631,-0.181542,-0.809942,-0.366538,-0.597069,0.21028
26,40,-1.0472,-0.698132,-0.174533,-0.174533,-1.04315,-0.691591,-0.154631,-0.181542,-0.809942,-0.366538,-0.597069,0.21028
26,40,-1.0472,-0.698132,-0.174533,-0.174533,-1.04315,-0.691591,-0.154631,-0.181542,-0.809942,-0.366538,-0.597069,0.21028
26,40,-1.0472,-0.698132,-0.174533,-0.174533,-1.04315,-0.691591,-0.154631,-0.181542,-0.809942,-0.366538,-0.597069,0.21028
26,40,-1.0472,-0.698132,-0.174533,-0.174533,-1.04315,-0.691591,-0.154631,-0.181542,-0.809942,-0.366538,-0.597069,0.21028
26,40,-1.0472,-0.698132,-0.174533,-0.174533,-1.04315,-0.691591,-0.154631,-0.181542,-0.809942,-0.366538,-0.597069,0.21028
26,40,-1.0472,-0.698132,-0.174533,-0.174533,-1.04315,-0.691591,-0.154631,-0.181542,-0.809942,-0.366538,-0.597069,0.21028
26,40,-1.0472,-0.698132,-0.174533,-0.174533,-1.04315,-0.691591,-0.154631,-0.181542,-0.809942,-0.366538,-0.597069,0.21028
26,40,-1.0472,-0.698132,-0.174533,-0.174533,-1.04315,-0.691591,-0.154631,-0.181542,-0.809942,-0.366538,-0.597069,0.21028
26,40,-1.0472,-0.698132,-0.174533,-0.174533,-1.04315,-0.691591,-0.154631,-0.181542,-0.809942,-0.366538,-0.597069,0.21028
26,40,-1.0472,-0.698132,-0.174533,-0.174533,-1.04315,-0.691591,-0.154631,-0.181542,-0.809942,-0.366538,-0.597069,0.21028
26,40,-1.0472,-0.698132,-0.174533,-0.174533,-1.04315,-0.691591,-0.154631,-0.181542,-0.809942,-0.366538,-0.597069,0.21028
26,40,-1.0472,-0.698132,-0.174533,-0.174533,-1.04315,-0.691591,-0.154631,-0.181542,-0.809942,-0.366538,-0.597069,0.21028
26,40,-1.0472,-0.698132,-0.174533,-0.174533,-1.04315,-0.691591,-0.154631,-0.181542,-0.809942,-0.366538,-0.597069,0.21028
26,40,-1.0472,-0.698132,-0.174533,-0.174533,-1.04315,-0.691591,-0.154631,-0.181542,-0.809942,-0.366538,-0.597069,0.21028
26,40,-1.0472,-0.698132,-0.174533,-0.174533,-1.04315,-0.691591,-0.154631,-0.181542,-0.809942,-0.366538,-0.597069,0.21028
26,40,-1.0472,-0.698132,-0.174533,-0.174533,-1.04315,-0.691591,-0.154631,-0.181542,-0.809942,-0.366538,-0.597069,0.21028
26,40,-1.0472,-0.698132,-0.174533,-0.174533,-1.04315,-0.691591,-0.154631,-0.181542,-0.809942,-0.366538,-0.597069,0.21028
26,40,-1.0472,-0.698132,-0.174533,-0.174533,-1.04315,-0.691591,-0.154631,-0.181542,-0.809942,-0.366538,-0.597069,0.21028
26,40,-1.0472,-0.698132,-0.174533,-0.174533,-1.04315,-0.691591,-0.154631,-0.181542,-0.809942,-0.366538,-0.597069,0.21028
26,40,-1.0472,-0.698132,-0.174533,-0.174533,-1.04315,-0.691591,-0.154631,-0.181542,-0.809942,-0.366538,-0.597069,0.21028
26,40,-1.0472,-0.698132,-0.174533,-0.174533,-1.04315,-0.691591,-0.154631,-0.181542,-0.809942,-0.366538,-0.597069,0.21028
26,40,-1.0472,-0.698132,-0.174533,-0.174533,-1.04315,-0.691591,-0.154631,-0.181542,-0.809942,-0.366538,-0.597069,0.21028
26,40,-1.0472,-0.698132,-0.174533,-0.174533,-1.04315,-0.691591,-0.154631,-0.181542,-0.809942,-0.366538,-0.597069,0.21028
26,40,-1.0472,-0.698132,-0.174533,-0.174533,-1.04315,-0.691591,-0.154631,-0.181542,-0.809942,-0.366538,-0.597069,0.21028
26,40,-1.0472,-0.698132,-0.174533,-0.174533,-1.04315,-0.691591,-0.154631,-0.181542,-0.809942,-0.366538,-0.597069,0.21028
26,40,-1.0472,-0.698132,-0.174533,-0.174533,-1.04315,-0.691591,-0.154631,-0.181542,-0.809942,-0.366538,-0.597069,0.21028
26,40,-1.0472,-0.698132,-0.174533,-0.174533,-1.04315,-0.691591,-0.154631,-0.181542,-0.809942,-0.366538,-0.597069,0.21028
26,40,-1.0472,-0.698132,-0.174533,-0.174533,-1.04315,-0.691591,-0.154631,-0.181542,-0.809942,-0.366538,-0.597069,0.21028
26,40,-1.0472,-0.698132,-0.174533,-0.174533,-1.04315,-0.691591,-0.154631,-0.181542,-0.809942,-0.366538,-0.597069,0.21028
26,40,-1.0472,-0.698132,-0.174533,-0.174533,-1.04315,-0.691591,-0.154631,-0.181542,-0.809942,-0.366538,-0.597069,0.21028
26,40,-1.0472,-0.698132,-0.174533,-0.174533,-1.04315,-0.691591,-0.154631,-0.181542,-0.809942,-0.366538,-0.597069,0.21028
26,40,-1.0472,-0.698132,-0.174533,-0.174533,-1.04315,-0.691591,-0.154631,-0.181542,-0.809942,-0.366538,-0.597069,0.21028
26,40,-1.0472,-0.698132,-0.174533,-0.174533,-1.04315,-0.691591,-0.154631,-0.181542,-0.809942,-0.366538,-0.597069,0.21028
26,40,-1.0472,-0.698132,-0.174533,-0.174533,-1.04315,-0.691591,-0.154631,-0.181542,-0.809942,-0.366538,-0.597069,0.21028
26,40,-1.0472,-0.698132,-0.174533,-0.174533,-1.04315,-0.691591,-0.154631,-0.181542,-0.809942,-0.366538,-0.597069,0.21028
26,40,-1.0472,-0.698132,-0.174533,-0.174533,-1.04315,-0.691591,-0.154631,-0.181542,-0.809942,-0.366538,-0.597069,0.21028
26,40,-1.0472,-0.698132,-0.174533,-0.174533,-1.04315,-0.691591,-0.154631,-0.181542,-0.809942,-0.366538,-0.597069,0.21028
26,40,-1.0472,-0.698132,-0.174533,-0.174533,-1.04315,-0.691591,-0.154631,-0.181542,-0.809942,-0.366538,-0.597069,0.21028
26,40,-1.0472,-0.698132,-0.174533,-0.174533,-1.04315,-0.691591,-0.154566,-0.181501,-0.809942,-0.366538,-0.599007,0.209034
26,40,-1.0472,-0.698132,-0.174533,-0.174533,-1.04315,-0.691591,-0.154566,-0.181501,-0.809942,-0.366538,-0.599007,0.209034
26,40,-1.0472,-0.698132,-0.174533,-0.174533,-1.04315,-0.691591,-0.154566,-0.181501,-0.809942,-0.366538,-0.599007,0.209034
26,40,-1.0472,-0.698132,-0.174533,-0.174533,-1.04315,-0.691591,-0.154566,-0.181501,-0.809942,-0.366538,-0.599007,0.209034
26,40,-1.0472,-0.698132,-0.174533,-0.174533,-1.04315,-0.691591,-0.154566,-0.181501,-0.809942,-0.366538,-0.599007,0.209034
26,40,-1.0472,-0.698132,-0.174533,-0.174533,-1.04315,-0.691591,-0.154566,-0.181501,-0.809942,-0.366538,-0.599007,0.209034
26,40,-1.0472,-0.698132,-0.174533,-0.174533,-1.04315,-0.691591,-0.154566,-0.181501,-0.809942,-0.366538,-0.599007,0.209034
26,40,-1.0472,-0.698132,-0.174533,-0.174533,-1.04315,-0.691591,-0.154566,-0.181501,-0.809942,-0.366538,-0.599007,0.209034
26,40,-1.0472,-0.698132,-0.174533,-0.174533,-1.04315,-0.691591,-0.154566,-0.181501,-0.809942,-0.366538,-0.599007,0.209034
26,40,-1.0472,-0.698132,-0.174533,-0.174533,-1.04315,-0.691591,-0.154502,-0.181459,-0.809942,-0.366538,-0.600943,0.207789
26,40,-1.0472,-0.698132,-0.174533,-0.174533,-1.04315,-0.691591,-0.154502,-0.181459,-0.809942,-0.366538,-0.600943,0.207789
26,40,-1.0472,-0.698132,-0.174533,-0.174533,-1.04315,-0.691591,-0.154502,-0.181459,-0.809942,-0.366538,-0.600943,0.207789
26,40,-1.0472,-0.698132,-0.174533,-0.174533,-1.04315,-0.691591,-0.154502,-0.181459,-0.809942,-0.366538,-0.600943,0.207789
26,40,-1.0472,-0.698132,-0.174533,-0.174533,-1.04315,-0.691591,-0.154502,-0.181459,-0.809942,-0.366538,-0.600943,0.207789
26,40,-1.0472,-0.698132,-0.174533,-0.174533,-1.04315,-0.691591,-0.154502,-0.181459,-0.809942,-0.366538,-0.600943,0.207789
26,40,-1.0472,-0.698132,-0.174533,-0.174533,-1.04315,-0.691591,-0.154502,-0.181459,-0.809942,-0.366538,-0.600943,0.207789
26,40,-1.0472,-0.698132,-0.174533,-0.174533,-1.04315,-0.691591,-0.154502,-0.181459,-0.809942,-0.366538,-0.600943,0.207789
26,40,-1.0472,-0.698132,-0.174533,-0.174533,-1.04315,-0.69154,-0.154502,-0.181459,-0.809942,-0.36942,-0.600943,0.207789
26,40,-1.0472,-0.698132,-0.174533,-0.174533,-1.04315,-0.69154,-0.154502,-0.181459,-0.809942,-0.36942,-0.600943,0.207789
26,40,-1.0472,-0.698132,-0.174533,-0.174533,-1.04315,-0.69154,-0.154437,-0.181418,-0.809942,-0.36942,-0.603065,0.206424
26,40,-1.0472,-0.698132,-0.174533,-0.174533,-1.04315,-0.69154,-0.154437,-0.181418,-0.809942,-0.36942,-0.603065,0.206424
26,40,-1.0472,-0.698132,-0.174533,-0.174533,-1.04315,-0.69154,-0.154437,-0.181418,-0.809942,-0.36942,-0.603065,0.206424
26,40,-1.0472,-0.698132,-0.174533,-0.174533,-1.04315,-0.69154,-0.154437,-0.181418,-0.809942,-0.36942,-0.603065,0.206424
26,40,-1.0472,-0.698132,-0.174533,-0.174533,-1.04315,-0.69154,-0.154437,-0.181418,-0.809942,-0.36942,-0.603065,0.206424
26,40,-1.0472,-0.698132,-0.174533,-0.174533,-1.04315,-0.69154,-0.154437,-0.181418,-0.809942,-0.36942,-0.603065,0.206424
26,40,-1.0472,-0.698132,-0.174533,-0.174533,-1.04315,-0.69154,-0.154437,-0.181418,-0.809942,-0.36942,-0.603065,0.206424
26,40,-1.0472,-0.698132,-0.174533,-0.174533,-1.04315,-0.69154,-0.154437,-0.181418,-0.809942,-0.36942,-0.603065,0.206424
26,40,-1.0472,-0.698132,-0.174533,-0.174533,-1.04315,-0.69154,-0.154437,-0.181418,-0.809942,-0.36942,-0.603065,0.206424
26,40,-1.0472,-0.698132,-0.174533,-0.174533,-1.04315,-0.69154,-0.154437,-0.181418,-0.809942,-0.36942,-0.603065,0.206424
26,40,-1.0472,-0.698132,-0.174533,-0.174533,-1.04315,-0.69154,-0.154437,-0.181418,-0.809942,-0.36942,-0.603065,0.206424
26,40,-1.0472,-0.698132,-0.174533,-0.174533,-1.04315,-0.69154,-0.154437,-0.181418,-0.809942,-0.36942,-0.603065,0.206424
26,40,-1.0472,-0.698132,-0.174533,-0.174533,-1.04315,-0.69154,-0.154437,-0.181418,-0.809942,-0.36942,-0.603065,0.206424
26,40,-1.0472,-0.698132,-0.174533,-0.174533,-1.04315,-0.69154,-0.154437,-0.181418,-0.809942,-0.36942,-0.603065,0.206424
26,40,-1.0472,-0.698132,-0.174533,-0.174533,-1.04315,-0.69154,-0.154437,-0.181418,-0.809942,-0.36942,-0.603065,0.206424
26,40,-1.0472,-0.698132,-0.174533,-0.174533,-1.04315,-0.69154,-0.154437,-0.181418,-0.809942,-0.36942,-0.603065,0.206424
26,40,-1.0472,-0.698132,-0.174533,-0.174533,-1.04315,-0.69154,-0.154437,-0.181418,-0.809942,-0.36942,-0.603065,0.206424
26,40,-1.0472,-0.698132,-0.174533,-0.174533,-1.04315,-0.69154,-0.154437,-0.181418,-0.809942,-0.36942,-0.603065,0.206424
26,40,-1.0472,-0.698132,-0.174533,-0.174533,-1.04315,-0.69154,-0.154437,-0.181418,-0.809942,-0.36942,-0.603065,0.206424
26,40,-1.0472,-0.698132,-0.174533,-0.174533,-1.04315,-0.69154,-0.154437,-0.181418,-0.809942,-0.36942,-0.603065,0.206424
26,40,-1.0472,-0.698132,-0.174533,-0.174533,-1.04315,-0.69154,-0.154437,-0.181418,-0.809942,-0.36942,-0.603065,0.206424
26,40,-1.0472,-0.698132,-0.174533,-0.174533,-1.04315,-0.69154,-0.154437,-0.181418,-0.809942,-0.36942,-0.603065,0.206424
26,40,-1.0472,-0.698132,-0.174533,-0.174533,-1.04315,-0.69154,-0.154437,-0.181418,-0.809942,-0.36942,-0.603065,0.206424
26,40,-1.0472,-0.698132,-0.174533,-0.174533,-1.04315,-0.69154,-0.154437,-0.181418,-0.809942,-0.36942,-0.603065,0.206424
26,40,-1.0472,-0.698132,-0.174533,-0.174533,-1.04315,-0.69154,-0.154437,-0.181418,-0.809942,-0.36942,-0.603065,0.206424
26,40,-1.0472,-0.698132,-0.174533,-0.174533,-1.04315,-0.69154,-0.154437,-0.181418,-0.809942,-0.36942,-0.603065,0.206424
26,40,-1.0472,-0.698132,-0.174533,-0.174533,-1.04315,-0.69154,-0.154437,-0.181418,-0.809942,-0.36942,-0.603065,0.206424
26,40,-1.0472,-0.698132,-0.174533,-0.174533,-1.04315,-0.69154,-0.154437,-0.181418,-0.809942,-0.36942,-0.603065,0.206424
26,40,-1.0472,-0.698132,-0.174533,-0.174533,-1.04315,-0.69154,-0.154437,-0.181418,-0.809942,-0.36942,-0.603065,0.206424
26,40,-1.0472,-0.698132,-0.174533,-0.174533,-1.04315,-0.69154,-0.154437,-0.181418,-0.809942,-0.36942,-0.603065,0.206424
26,40,-1.0472,-0.698132,-0.174533,-0.174533,-1.04315,-0.69154,-0.154437,-0.181418,-0.809942,-0.36942,-0.603065,0.206424
26,40,-1.0472,-0.698132,-0.174533,-0.174533,-1.04315,-0.69154,-0.154437,-0.181418,-0.809942,-0.36942,-0.603065,0.206424
26,40,-1.0472,-0.698132,-0.174533,-0.174533,-1.04315,-0.69154,-0.154437,-0.181418,-0.809942,-0.36942,-0.603065,0.206424
26,40,-1.0472,-0.698132,-0.174533,-0.174533,-1.04315,-0.69154,-0.154437,-0.181418,-0.809942,-0.36942,-0.603065,0.206424
26,40,-1.0472,-0.698132,-0.174533,-0.174533,-1.04315,-0.69154,-0.154437,-0.181418,-0.809942,-0.36942,-0.603065,0.206424
26,40,-1.0472,-0.698132,-0.174533,-0.174533,-1.04315,-0.69154,-0.154437,-0.181418,-0.809942,-0.36942,-0.603065,0.206424
26,40,-1.0472,-0.698132,-0.174533,-0.174533,-1.04315,-0.69154,-0.154437,-0.181418,-0.809942,-0.36942,-0.603065,0.206424
26,40,-1.0472,-0.698132,-0.174533,-0.174533,-1.04315,-0.69154,-0.154437,-0.181418,-0.809942,-0.36942,-0.603065,0.206424
26,40,-1.0472,-0.698132,-0.174533,-0.174533,-1.04315,-0.69154,-0.154437,-0.181418,-0.809942,-0.36942,-0.603065,0.206424
26,40,-1.0472,-0.698132,-0.174533,-0.174533,-1.04315,-0.69154,-0.154437,-0.181418,-0.809942,-0.36942,-0.603065,0.206424
26,40,-1.0472,-0.698132,-0.174533,-0.174533,-1.04315,-0.69154,-0.154437,-0.181418,-0.809942,-0.36942,-0.603065,0.206424
26,40,-1.0472,-0.698132,-0.174533,-0.174533,-1.04315,-0.69154,-0.154437,-0.181418,-0.809942,-0.36942,-0.603065,0.206424
26,40,-1.0472,-0.698132,-0.174533,-0.174533,-1.04315,-0.69154,-0.154437,-0.181418,-0.809942,-0.36942,-0.603065,0.206424
26,40,-1.0472,-0.698132,-0.174533,-0.174533,-1.04315,-0.69154,-0.154437,-0.181418,-0.809942,-0.36942,-0.603065,0.206424
26,40,-1.0472,-0.698132,-0.174533,-0.174533,-1.04315,-0.69154,-0.154437,-0.181418,-0.809942,-0.36942,-0.603065,0.206424
26,40,-1.0472,-0.698132,-0.174533,-0.174533,-1.04315,-0.69154,-0.154437,-0.181418,-0.809942,-0.36942,-0.603065,0.206424
26,40,-1.0472,-0.698132,-0.174533,-0.174533,-1.04315,-0.69154,-0.154437,-0.181418,-0.809942,-0.36942,-0.603065,0.206424
26,40,-1.0472,-0.698132,-0.174533,-0.174533,-1.04315,-0.69154,-0.154437,-0.181418,-0.809942,-0.36942,-0.603065,0.206424
26,40,-1.0472,-0.698132,-0.174533,-0.174533,-1.04315,-0.69154,-0.154437,-0.181418,-0.809942,-0.36942,-0.603065,0.206424
26,40,-1.0472,-0.698132,-0.174533,-0.174533,-1.04315,-0.69154,-0.154437,-0.181418,-0.809942,-0.36942,-0.603065,0.206424
26,40,-1.0472,-0.698132,-0.174533,-0.174533,-1.04315,-0.69154,-0.154437,-0.181418,-0.809942,-0.36942,-0.603065,0.206424
26,40,-1.0472,-0.698132,-0.174533,-0.174533,-1.04315,-0.69154,-0.154437,-0.181418,-0.809942,-0.36942,-0.603065,0.206424
26,40,-1.0472,-0.698132,-0.174533,-0.174533,-1.04315,-0.69154,-0.154437,-0.181418,-0.809942,-0.36942,-0.603065,0.206424
26,40,-1.0472,-0.698132,-0.174533,-0.174533,-1.04315,-0.69154,-0.154437,-0.181418,-0.809942,-0.36942,-0.603065,0.206424
26,40,-1.0472,-0.698132,-0.174533,-0.174533,-1.04315,-0.69154,-0.154437,-0.181418,-0.809942,-0.36942,-0.603065,0.206424
26,40,-1.0472,-0.698132,-0.174533,-0.174533,-1.04315,-0.69154,-0.154437,-0.181418,-0.809942,-0.36942,-0.603065,0.206424
26,40,-1.0472,-0.698132,-0.174533,-0.174533,-1.04315,-0.69154,-0.154437,-0.181418,-0.809942,-0.36942,-0.603065,0.206424
26,40,-1.0472,-0.698132,-0.174533,-0.174533,-1.04315,-0.69154,-0.154437,-0.181418,-0.809942,-0.36942,-0.603065,0.206424
26,40,-1.0472,-0.698132,-0.174533,-0.174533,-1.04315,-0.69154,-0.154437,-0.181418,-0.809942,-0.36942,-0.603065,0.206424
26,40,-1.0472,-0.698132,-0.174533,-0.174533,-1.04315,-0.69154,-0.154437,-0.181418,-0.809942,-0.36942,-0.603065,0.206424
26,40,-1.0472,-0.698132,-0.174533,-0.174533,-1.04315,-0.69154,-0.154437,-0.181418,-0.809942,-0.36942,-0.603065,0.206424
26,40,-1.0472,-0.698132,-0.174533,-0.174533,-1.04315,-0.69154,-0.154437,-0.181418,-0.809942,-0.36942,-0.603065,0.206424
26,40,-1.0472,-0.698132,-0.174533,-0.174533,-1.04315,-0.69154,-0.154437,-0.181418,-0.809942,-0.36942,-0.603065,0.206424
26,40,-1.0472,-0.698132,-0.174533,-0.174533,-1.04315,-0.69154,-0.154437,-0.181418,-0.809942,-0.36942,-0.603065,0.206424
26,40,-1.0472,-0.698132,-0.174533,-0.174533,-1.04315,-0.69154,-0.154437,-0.181418,-0.809942,-0.36942,-0.603065,0.206424
26,40,-1.0472,-0.698132,-0.174533,-0.174533,-1.04315,-0.69154,-0.154437,-0.181418,-0.809942,-0.36942,-0.603065,0.206424
26,40,-1.0472,-0.698132,-0.174533,-0.174533,-1.04315,-0.69154,-0.154437,-0.181418,-0.809942,-0.36942,-0.603065,0.206424
26,40,-1.0472,-0.698132,-0.174533,-0.174533,-1.04315,-0.69154,-0.154437,-0.181418,-0.809942,-0.36942,-0.603065,0.206424
26,40,-1.0472,-0.698132,-0.174533,-0.174533,-1.04315,-0.69154,-0.154437,-0.181418,-0.809942,-0.36942,-0.603065,0.206424
26,40,-1.0472,-0.698132,-0.174533,-0.174533,-1.04315,-0.69154,-0.154437,-0.181418,-0.809942,-0.36942,-0.603065,0.206424
26,40,-1.0472,-0.698132,-0.174533,-0.174533,-1.04315,-0.69154,-0.154437,-0.181418,-0.809942,-0.36942,-0.603065,0.206424
26,40,-1.0472,-0.698132,-0.174533,-0.174533,-1.04315,-0.69154,-0.154437,-0.181418,-0.809942,-0.36942,-0.603065,0.206424
26,40,-1.0472,-0.698132,-0.174533,-0.174533,-1.04315,-0.69154,-0.154437,-0.181418,-0.809942,-0.36942,-0.603065,0.206424
26,40,-1.0472,-0.698132,-0.174533,-0.174533,-1.04315,-0.69154,-0.154437,-0.181418,-0.809942,-0.36942,-0.603065,0.206424
26,40,-1.0472,-0.698132,-0.174533,-0.174533,-1.04315,-0.69154,-0.154437,-0.181418,-0.809942,-0.36942,-0.603065,0.206424
26,40,-1.0472,-0.698132,-0.174533,-0.174533,-1.04315,-0.69154,-0.154437,-0.181418,-0.809942,-0.36942,-0.603065,0.206424
26,40,-1.0472,-0.698132,-0.174533,-0.174533,-1.04315,-0.69154,-0.154437,-0.181418,-0.809942,-0.36942,-0.603065,0.206424
26,40,-1.0472,-0.698132,-0.174533,-0.174533,-1.04315,-0.69154,-0.154437,-0.181418,-0.809942,-0.36942,-0.603065,0.206424
26,40,-1.0472,-0.698132,-0.174533,-0.174533,-1.04315,-0.69154,-0.154437,-0.181418,-0.809942,-0.36942,-0.603065,0.206424
26,40,-1.0472,-0.698132,-0.174533,-0.174533,-1.04315,-0.69154,-0.154437,-0.181418,-0.809942,-0.36942,-0.603065,0.206424
26,40,-1.0472,-0.698132,-0.174533,-0.174533,-1.04315,-0.69154,-0.154437,-0.181418,-0.809942,-0.36942,-0.603065,0.206424
26,40,-1.0472,-0.698132,-0.174533,-0.174533,-1.04315,-0.69154,-0.154437,-0.181418,-0.809942,-0.36942,-0.603065,0.206424
26,40,-1.0472,-0.698132,-0.174533,-0.174533,-1.04315,-0.69154,-0.154437,-0.181418,-0.809942,-0.36942,-0.603065,0.206424
26,40,-1.0472,-0.698132,-0.174533,-0.174533,-1.04315,-0.69154,-0.154437,-0.181418,-0.809942,-0.36942,-0.603065,0.206424
26,40,-1.0472,-0.698132,-0.174533,-0.174533,-1.04315,-0.69154,-0.154437,-0.181418,-0.809942,-0.36942,-0.603065,0.206424
26,40,-1.0472,-0.698132,-0.174533,-0.174533,-1.04315,-0.69154,-0.154437,-0.181418,-0.809942,-0.36942,-0.603065,0.206424
26,40,-1.0472,-0.698132,-0.174533,-0.174533,-1.04315,-0.69154,-0.154437,-0.181418,-0.809942,-0.36942,-0.603065,0.206424
26,40,-1.0472,-0.698132,-0.174533,-0.174533,-1.04315,-0.69154,-0.154437,-0.181418,-0.809942,-0.36942,-0.603065,0.206424
26,40,-1.0472,-0.698132,-0.174533,-0.174533,-1.04315,-0.69154,-0.154437,-0.181418,-0.809942,-0.36942,-0.603065,0.206424
26,40,-1.0472,-0.698132,-0.174533,-0.174533,-1.04315,-0.69154,-0.154437,-0.181418,-0.809942,-0.36942,-0.603065,0.206424
26,40,-1.0472,-0.698132,-0.174533,-0.174533,-1.04315,-0.69154,-0.154437,-0.181418,-0.809942,-0.36942,-0.603065,0.206424
26,40,-1.0472,-0.698132,-0.174533,-0.174533,-1.04315,-0.69154,-0.154437,-0.181418,-0.809942,-0.36942,-0.603065,0.206424
26,40,-1.0472,-0.698132,-0.174533,-0.174533,-1.04315,-0.69154,-0.154437,-0.181418,-0.809942,-0.36942,-0.603065,0.206424
26,40,-1.0472,-0.698132,-0.174533,-0.174533,-1.04315,-0.69154,-0.154437,-0.181418,-0.809942,-0.36942,-0.603065,0.206424
26,40,-1.0472,-0.698132,-0.174533,-0.174533,-1.04315,-0.69154,-0.154437,-0.181418,-0.809942,-0.36942,-0.603065,0.206424
26,40,-1.0472,-0.698132,-0.174533,-0.174533,-1.04315,-0.69154,-0.154437,-0.181418,-0.809942,-0.36942,-0.603065,0.206424
26,40,-1.0472,-0.698132,-0.174533,-0.174533,-1.04315,-0.69154,-0.154437,-0.181418,-0.809942,-0.36942,-0.603065,0.206424
26,40,-1.0472,-0.698132,-0.174533,-0.174533,-1.04315,-0.69154,-0.154437,-0.181418,-0.809942,-0.36942,-0.603065,0.206424
26,40,-1.0472,-0.698132,-0.174533,-0.174533,-1.04315,-0.69154,-0.154437,-0.181418,-0.809942,-0.36942,-0.603065,0.206424
26,40,-1.0472,-0.698132,-0.174533,-0.174533,-1.04315,-0.69154,-0.154437,-0.181418,-0.809942,-0.36942,-0.603065,0.206424
26,40,-1.0472,-0.698132,-0.174533,-0.174533,-1.04315,-0.69154,-0.154437,-0.181418,-0.809942,-0.36942,-0.603065,0.206424
26,40,-1.0472,-0.698132,-0.174533,-0.174533,-1.04315,-0.69154,-0.154437,-0.181418,-0.809942,-0.36942,-0.603065,0.206424
26,40,-1.0472,-0.698132,-0.174533,-0.174533,-1.04315,-0.69154,-0.154437,-0.181418,-0.809942,-0.36942,-0.603065,0.206424
26,40,-1.0472,-0.698132,-0.174533,-0.174533,-1.04315,-0.69154,-0.154437,-0.181418,-0.809942,-0.36942,-0.603065,0.206424
26,40,-1.0472,-0.698132,-0.174533,-0.174533,-1.04315,-0.69154,-0.154437,-0.181418,-0.809942,-0.36942,-0.603065,0.206424
26,40,-1.0472,-0.698132,-0.174533,-0.174533,-1.04315,-0.69154,-0.154437,-0.181418,-0.809942,-0.36942,-0.603065,0.206424
26,40,-1.0472,-0.698132,-0.174533,-0.174533,-1.04315,-0.69154,-0.154437,-0.181418,-0.809942,-0.36942,-0.603065,0.206424
26,40,-1.0472,-0.698132,-0.174533,-0.174533,-1.04315,-0.69154,-0.154437,-0.181418,-0.809942,-0.36942,-0.603065,0.206424
26,40,-1.0472,-0.698132,-0.174533,-0.174533,-1.04315,-0.69154,-0.154437,-0.181418,-0.809942,-0.36942,-0.603065,0.206424
26,40,-1.0472,-0.698132,-0.174533,-0.174533,-1.04315,-0.69154,-0.154437,-0.181418,-0.809942,-0.36942,-0.603065,0.206424
26,40,-1.0472,-0.698132,-0.174533,-0.174533,-1.04315,-0.69154,-0.154437,-0.181418,-0.809942,-0.36942,-0.603065,0.206424
26,40,-1.0472,-0.698132,-0.174533,-0.174533,-1.04315,-0.69154,-0.154437,-0.181418,-0.809942,-0.36942,-0.603065,0.206424
26,40,-1.0472,-0.698132,-0.174533,-0.174533,-1.04315,-0.69154,-0.154437,-0.181418,-0.809942,-0.36942,-0.603065,0.206424
26,40,-1.0472,-0.698132,-0.174533,-0.174533,-1.04315,-0.691489,-0.154437,-0.181418,-0.809942,-0.372204,-0.603065,0.206424
26,40,-1.0472,-0.698132,-0.174533,-0.174533,-1.04315,-0.691489,-0.154437,-0.181418,-0.809942,-0.372204,-0.603065,0.206424
26,40,-1.0472,-0.698132,-0.174533,-0.174533,-1.04315,-0.691489,-0.154437,-0.181418,-0.809942,-0.372204,-0.603065,0.206424
26,40,-1.0472,-0.698132,-0.174533,-0.174533,-1.04315,-0.691489,-0.154437,-0.181418,-0.809942,-0.372204,-0.603065,0.206424
26,40,-1.0472,-0.698132,-0.174533,-0.174533,-1.04315,-0.691489,-0.154437,-0.181418,-0.809942,-0.372204,-0.603065,0.206424
26,40,-1.0472,-0.698132,-0.174533,-0.174533,-1.04315,-0.691489,-0.154437,-0.181418,-0.809942,-0.372204,-0.603065,0.206424
26,40,-1.0472,-0.698132,-0.174533,-0.174533,-1.04315,-0.691489,-0.154437,-0.181418,-0.809942,-0.372204,-0.603065,0.206424
26,40,-1.0472,-0.698132,-0.174533,-0.174533,-1.04315,-0.691489,-0.154437,-0.181418,-0.809942,-0.372204,-0.603065,0.206424
26,40,-1.0472,-0.698132,-0.174533,-0.174533,-1.04315,-0.691489,-0.154437,-0.181418,-0.809942,-0.372204,-0.603065,0.206424
26,40,-1.0472,-0.698132,-0.174533,-0.174533,-1.04315,-0.691489,-0.154437,-0.181418,-0.809942,-0.372204,-0.603065,0.206424
26,40,-1.0472,-0.698132,-0.174533,-0.174533,-1.04315,-0.691489,-0.154437,-0.181418,-0.809942,-0.372204,-0.603065,0.206424
26,40,-1.0472,-0.698132,-0.174533,-0.174533,-1.04315,-0.691489,-0.154437,-0.181418,-0.809942,-0.372204,-0.603065,0.206424
26,40,-1.0472,-0.698132,-0.174533,-0.174533,-1.04315,-0.691489,-0.154437,-0.181418,-0.809942,-0.372204,-0.603065,0.206424
26,40,-1.0472,-0.698132,-0.174533,-0.174533,-1.04315,-0.691489,-0.154437,-0.181418,-0.809942,-0.372204,-0.603065,0.206424
26,40,-1.0472,-0.698132,-0.174533,-0.174533,-1.04315,-0.691489,-0.154437,-0.181418,-0.809942,-0.372204,-0.603065,0.206424
26,40,-1.0472,-0.698132,-0.174533,-0.174533,-1.04315,-0.691489,-0.154437,-0.181418,-0.809942,-0.372204,-0.603065,0.206424
26,40,-1.0472,-0.698132,-0.174533,-0.174533,-1.04315,-0.691489,-0.154437,-0.181418,-0.809942,-0.372204,-0.603065,0.206424
26,40,-1.0472,-0.698132,-0.174533,-0.174533,-1.04315,-0.691489,-0.154437,-0.181418,-0.809942,-0.372204,-0.603065,0.206424
26,40,-1.0472,-0.698132,-0.174533,-0.174533,-1.04315,-0.691489,-0.154437,-0.181418,-0.809942,-0.372204,-0.603065,0.206424
26,40,-1.0472,-0.698132,-0.174533,-0.174533,-1.04315,-0.691489,-0.154437,-0.181418,-0.809942,-0.372204,-0.603065,0.206424
26,40,-1.0472,-0.698132,-0.174533,-0.174533,-1.04315,-0.691489,-0.154437,-0.181418,-0.809942,-0.372204,-0.603065,0.206424
26,40,-1.0472,-0.698132,-0.174533,-0.174533,-1.04315,-0.691489,-0.154437,-0.181418,-0.809942,-0.372204,-0.603065,0.206424
26,40,-1.0472,-0.698132,-0.174533,-0.174533,-1.04315,-0.691489,-0.154437,-0.181418,-0.809942,-0.372204,-0.603065,0.206424
26,40,-1.0472,-0.698132,-0.174533,-0.174533,-1.04315,-0.691489,-0.154437,-0.181418,-0.809942,-0.372204,-0.603065,0.206424
26,40,-1.0472,-0.698132,-0.174533,-0.174533,-1.04315,-0.691489,-0.154437,-0.181418,-0.809942,-0.372204,-0.603065,0.206424
26,40,-1.0472,-0.698132,-0.174533,-0.174533,-1.04315,-0.691489,-0.154437,-0.181418,-0.809942,-0.372204,-0.603065,0.206424
26,40,-1.0472,-0.698132,-0.174533,-0.174533,-1.04315,-0.691489,-0.154437,-0.181418,-0.809942,-0.372204,-0.603065,0.206424
26,40,-1.0472,-0.698132,-0.174533,-0.174533,-1.04315,-0.691489,-0.154437,-0.181418,-0.809942,-0.372204,-0.603065,0.206424
26,40,-1.0472,-0.698132,-0.174533,-0.174533,-1.04315,-0.691489,-0.154437,-0.181418,-0.809942,-0.372204,-0.603065,0.206424
26,40,-1.0472,-0.698132,-0.174533,-0.174533,-1.04315,-0.691489,-0.154437,-0.181418,-0.809942,-0.372204,-0.603065,0.206424
26,40,-1.0472,-0.698132,-0.174533,-0.174533,-1.04315,-0.691489,-0.154437,-0.181418,-0.809942,-0.372204,-0.603065,0.206424
26,40,-1.0472,-0.698132,-0.174533,-0.174533,-1.04315,-0.691489,-0.154372,-0.181376,-0.809942,-0.372204,-0.605023,0.205164
26,40,-1.0472,-0.698132,-0.174533,-0.174533,-1.04315,-0.691489,-0.154372,-0.181376,-0.809942,-0.372204,-0.605023,0.205164
26,40,-1.0472,-0.698132,-0.174533,-0.174533,-1.04315,-0.691489,-0.154372,-0.181376,-0.809942,-0.372204,-0.605023,0.205164
26,40,-1.0472,-0.698132,-0.174533,-0.174533,-1.04315,-0.691489,-0.154372,-0.181376,-0.809942,-0.372204,-0.605023,0.205164
26,40,-1.0472,-0.698132,-0.174533,-0.174533,-1.04315,-0.691489,-0.154372,-0.181376,-0.809942,-0.372204,-0.605023,0.205164
26,40,-1.0472,-0.698132,-0.174533,-0.174533,-1.04315,-0.691489,-0.154372,-0.181376,-0.809942,-0.372204,-0.605023,0.205164
26,40,-1.0472,-0.698132,-0.174533,-0.174533,-1.04315,-0.691489,-0.154372,-0.181376,-0.809942,-0.372204,-0.605023,0.205164
26,40,-1.0472,-0.698132,-0.174533,-0.174533,-1.04315,-0.691489,-0.154372,-0.181376,-0.809942,-0.372204,-0.605023,0.205164
26,40,-1.0472,-0.698132,-0.174533,-0.174533,-1.04315,-0.691489,-0.154372,-0.181376,-0.809942,-0.372204,-0.605023,0.205164
26,40,-1.0472,-0.698132,-0.174533,-0.174533,-1.04315,-0.691489,-0.154372,-0.181376,-0.809942,-0.372204,-0.605023,0.205164
26,40,-1.0472,-0.698132,-0.174533,-0.174533,-1.04315,-0.691489,-0.154372,-0.181376,-0.809942,-0.372204,-0.605023,0.205164
26,40,-1.0472,-0.698132,-0.174533,-0.174533,-1.04315,-0.691489,-0.154372,-0.181376,-0.809942,-0.372204,-0.605023,0.205164
26,40,-1.0472,-0.698132,-0.174533,-0.174533,-1.04315,-0.691489,-0.154372,-0.181376,-0.809942,-0.372204,-0.605023,0.205164
26,40,-1.0472,-0.698132,-0.174533,-0.174533,-1.04315,-0.691489,-0.154372,-0.181376,-0.809942,-0.372204,-0.605023,0.205164
26,40,-1.0472,-0.698132,-0.174533,-0.174533,-1.04315,-0.691489,-0.154372,-0.181376,-0.809942,-0.372204,-0.605023,0.205164
26,40,-1.0472,-0.698132,-0.174533,-0.174533,-1.04315,-0.691489,-0.154372,-0.181376,-0.809942,-0.372204,-0.605023,0.205164
26,40,-1.0472,-0.698132,-0.174533,-0.174533,-1.04315,-0.691489,-0.154372,-0.181376,-0.809942,-0.372204,-0.605023,0.205164
26,40,-1.0472,-0.698132,-0.174533,-0.174533,-1.04315,-0.691489,-0.154372,-0.181376,-0.809942,-0.372204,-0.605023,0.205164
26,40,-1.0472,-0.698132,-0.174533,-0.174533,-1.04315,-0.691438,-0.154372,-0.181376,-0.809942,-0.37502,-0.605023,0.205164
26,40,-1.0472,-0.698132,-0.174533,-0.174533,-1.04315,-0.691438,-0.154372,-0.181376,-0.809942,-0.37502,-0.605023,0.205164
26,40,-1.0472,-0.698132,-0.174533,-0.174533,-1.04315,-0.691438,-0.154372,-0.181376,-0.809942,-0.37502,-0.605023,0.205164
26,40,-1.0472,-0.698132,-0.174533,-0.174533,-1.04315,-0.691438,-0.154372,-0.181376,-0.809942,-0.37502,-0.605023,0.205164
26,40,-1.0472,-0.698132,-0.174533,-0.174533,-1.04315,-0.691438,-0.154372,-0.181376,-0.809942,-0.37502,-0.605023,0.205164
26,40,-1.0472,-0.698132,-0.174533,-0.174533,-1.04315,-0.691438,-0.154372,-0.181376,-0.809942,-0.37502,-0.605023,0.205164
26,40,-1.0472,-0.698132,-0.174533,-0.174533,-1.04315,-0.691438,-0.154372,-0.181376,-0.809942,-0.37502,-0.605023,0.205164
26,40,-1.0472,-0.698132,-0.174533,-0.174533,-1.04315,-0.691438,-0.154372,-0.181376,-0.809942,-0.37502,-0.605023,0.205164
26,40,-1.0472,-0.698132,-0.174533,-0.174533,-1.04315,-0.691438,-0.154372,-0.181376,-0.809942,-0.37502,-0.605023,0.205164
26,40,-1.0472,-0.698132,-0.174533,-0.174533,-1.04315,-0.691438,-0.154372,-0.181376,-0.809942,-0.37502,-0.605023,0.205164
26,40,-1.0472,-0.698132,-0.174533,-0.174533,-1.04315,-0.691438,-0.154372,-0.181376,-0.809942,-0.37502,-0.605023,0.205164
26,40,-1.0472,-0.698132,-0.174533,-0.174533,-1.04315,-0.691438,-0.154372,-0.181376,-0.809942,-0.37502,-0.605023,0.205164
26,40,-1.0472,-0.698132,-0.174533,-0.174533,-1.04315,-0.691438,-0.154372,-0.181376,-0.809942,-0.37502,-0.605023,0.205164
26,40,-1.0472,-0.698132,-0.174533,-0.174533,-1.04315,-0.691438,-0.154372,-0.181376,-0.809942,-0.37502,-0.605023,0.205164
26,40,-1.0472,-0.698132,-0.174533,-0.174533,-1.04315,-0.691438,-0.154372,-0.181376,-0.809942,-0.37502,-0.605023,0.205164
