stim_pw [us],stim_amp [mA],com_elbow_fe [rad],com_forearm_ps [rad],com_wrist_fe [rad],com_wrist_ru [rad],act_elbow_fe [rad],act_forearm_ps [rad],act_wrist_fe [rad],act_wrist_ru [rad],elbow_fe_trq [Nm],forearm_ps_trq [Nm],wrist_fe_trq [Nm],wrist_ru_trq [Nm]
29,65,-0.654498,-0.814493,-0.174533,0.174533,-0.653793,-0.803593,-0.134015,0.143933,-0.0705631,-0.305185,-0.607764,0.459001
29,65,-0.654498,-0.814493,-0.174533,0.174533,-0.653793,-0.803593,-0.134015,0.143933,-0.0705631,-0.305185,-0.607764,0.459001
29,65,-0.654498,-0.814493,-0.174533,0.174533,-0.653793,-0.803593,-0.134015,0.143933,-0.0705631,-0.305185,-0.607764,0.459001
29,65,-0.654498,-0.814493,-0.174533,0.174533,-0.653793,-0.803593,-0.134015,0.143933,-0.0705631,-0.305185,-0.607764,0.459001
29,65,-0.654498,-0.814493,-0.174533,0.174533,-0.653793,-0.803593,-0.134015,0.143933,-0.0705631,-0.305185,-0.607764,0.459001
29,65,-0.654498,-0.814493,-0.174533,0.174533,-0.653793,-0.803593,-0.134015,0.143933,-0.0705631,-0.305185,-0.607764,0.459001
29,65,-0.654498,-0.814493,-0.174533,0.174533,-0.653793,-0.803593,-0.134015,0.143933,-0.0705631,-0.305185,-0.607764,0.459001
29,65,-0.654498,-0.814493,-0.174533,0.174533,-0.653793,-0.803593,-0.134015,0.143933,-0.0705631,-0.305185,-0.607764,0.459001
29,65,-0.654498,-0.814493,-0.174533,0.174533,-0.653793,-0.803593,-0.134015,0.143933,-0.0705631,-0.305185,-0.607764,0.459001
29,65,-0.654498,-0.814493,-0.174533,0.174533,-0.653793,-0.803593,-0.134015,0.143933,-0.0705631,-0.305185,-0.607764,0.459001
29,65,-0.654498,-0.814493,-0.174533,0.174533,-0.653793,-0.803593,-0.134015,0.143933,-0.0705631,-0.305185,-0.607764,0.459001
29,65,-0.654498,-0.814493,-0.174533,0.174533,-0.653793,-0.803593,-0.134015,0.143933,-0.0705631,-0.305185,-0.607764,0.459001
29,65,-0.654498,-0.814493,-0.174533,0.174533,-0.653793,-0.803593,-0.134015,0.143933,-0.0705631,-0.305185,-0.607764,0.459001
29,65,-0.654498,-0.814493,-0.174533,0.174533,-0.653793,-0.803593,-0.134015,0.143933,-0.0705631,-0.305185,-0.607764,0.459001
29,65,-0.654498,-0.814493,-0.174533,0.174533,-0.653793,-0.803593,-0.134015,0.143933,-0.0705631,-0.305185,-0.607764,0.459001
29,65,-0.654498,-0.814493,-0.174533,0.174533,-0.653793,-0.803593,-0.134015,0.143933,-0.0705631,-0.305185,-0.607764,0.459001
29,65,-0.654498,-0.814493,-0.174533,0.174533,-0.653793,-0.803593,-0.134015,0.143933,-0.0705631,-0.305185,-0.607764,0.459001
29,65,-0.654498,-0.814493,-0.174533,0.174533,-0.653793,-0.803593,-0.134015,0.143933,-0.0705631,-0.305185,-0.607764,0.459001
29,65,-0.654498,-0.814493,-0.174533,0.174533,-0.653793,-0.803593,-0.134015,0.143933,-0.0705631,-0.305185,-0.607764,0.459001
29,65,-0.654498,-0.814493,-0.174533,0.174533,-0.653793,-0.803593,-0.134015,0.143933,-0.0705631,-0.305185,-0.607764,0.459001
29,65,-0.654498,-0.814493,-0.174533,0.174533,-0.653793,-0.803593,-0.134015,0.143933,-0.0705631,-0.305185,-0.607764,0.459001
29,65,-0.654498,-0.814493,-0.174533,0.174533,-0.653793,-0.803593,-0.134015,0.143933,-0.0705631,-0.305185,-0.607764,0.459001
29,65,-0.654498,-0.814493,-0.174533,0.174533,-0.653793,-0.803593,-0.134015,0.143933,-0.0705631,-0.305185,-0.607764,0.459001
29,65,-0.654498,-0.814493,-0.174533,0.174533,-0.653793,-0.803593,-0.134015,0.143933,-0.0705631,-0.305185,-0.607764,0.459001
29,65,-0.654498,-0.814493,-0.174533,0.174533,-0.653793,-0.803593,-0.134015,0.143933,-0.0705631,-0.305185,-0.607764,0.459001
29,65,-0.654498,-0.814493,-0.174533,0.174533,-0.653793,-0.803593,-0.134015,0.143933,-0.0705631,-0.305185,-0.607764,0.459001
29,65,-0.654498,-0.814493,-0.174533,0.174533,-0.653793,-0.803593,-0.134015,0.143933,-0.0705631,-0.305185,-0.607764,0.459001
29,65,-0.654498,-0.814493,-0.174533,0.174533,-0.653793,-0.803593,-0.134015,0.143933,-0.0705631,-0.305185,-0.607764,0.459001
29,65,-0.654498,-0.814493,-0.174533,0.174533,-0.653793,-0.803593,-0.134015,0.143933,-0.0705631,-0.305185,-0.607764,0.459001
29,65,-0.654498,-0.814493,-0.174533,0.174533,-0.653793,-0.803593,-0.134015,0.143933,-0.0705631,-0.305185,-0.607764,0.459001
29,65,-0.654498,-0.814493,-0.174533,0.174533,-0.653793,-0.803593,-0.134015,0.143933,-0.0705631,-0.305185,-0.607764,0.459001
29,65,-0.654498,-0.814493,-0.174533,0.174533,-0.653793,-0.803593,-0.134015,0.143933,-0.0705631,-0.305185,-0.607764,0.459001
29,65,-0.654498,-0.814493,-0.174533,0.174533,-0.653793,-0.803593,-0.134015,0.143933,-0.0705631,-0.305185,-0.607764,0.459001
29,65,-0.654498,-0.814493,-0.174533,0.174533,-0.653793,-0.803593,-0.134015,0.143933,-0.0705631,-0.305185,-0.607764,0.459001
29,65,-0.654498,-0.814493,-0.174533,0.174533,-0.653793,-0.803593,-0.134015,0.143933,-0.0705631,-0.305185,-0.607764,0.459001
29,65,-0.654498,-0.814493,-0.174533,0.174533,-0.653793,-0.803593,-0.134015,0.143933,-0.0705631,-0.305185,-0.607764,0.459001
29,65,-0.654498,-0.814493,-0.174533,0.174533,-0.653793,-0.803593,-0.134015,0.143933,-0.0705631,-0.305185,-0.607764,0.459001
29,65,-0.654498,-0.814493,-0.174533,0.174533,-0.653793,-0.803593,-0.134015,0.143933,-0.0705631,-0.305185,-0.607764,0.459001
29,65,-0.654498,-0.814493,-0.174533,0.174533,-0.653793,-0.803593,-0.134015,0.143933,-0.0705631,-0.305185,-0.607764,0.459001
29,65,-0.654498,-0.814493,-0.174533,0.174533,-0.653793,-0.803593,-0.134015,0.143933,-0.0705631,-0.305185,-0.607764,0.459001
29,65,-0.654498,-0.814493,-0.174533,0.174533,-0.653793,-0.803593,-0.134015,0.143933,-0.0705631,-0.305185,-0.607764,0.459001
29,65,-0.654498,-0.814493,-0.174533,0.174533,-0.653793,-0.803593,-0.134015,0.143933,-0.0705631,-0.305185,-0.607764,0.459001
29,65,-0.654498,-0.814493,-0.174533,0.174533,-0.653793,-0.803593,-0.134015,0.143933,-0.0705631,-0.305185,-0.607764,0.459001
29,65,-0.654498,-0.814493,-0.174533,0.174533,-0.653793,-0.803593,-0.134015,0.143933,-0.0705631,-0.305185,-0.607764,0.459001
29,65,-0.654498,-0.814493,-0.174533,0.174533,-0.653793,-0.803593,-0.134015,0.143933,-0.0705631,-0.305185,-0.607764,0.459001
29,65,-0.654498,-0.814493,-0.174533,0.174533,-0.653793,-0.803593,-0.134015,0.143933,-0.0705631,-0.305185,-0.607764,0.459001
29,65,-0.654498,-0.814493,-0.174533,0.174533,-0.653793,-0.803593,-0.134015,0.143933,-0.0705631,-0.305185,-0.607764,0.459001
29,65,-0.654498,-0.814493,-0.174533,0.174533,-0.653793,-0.803593,-0.134015,0.143933,-0.0705631,-0.305185,-0.607764,0.459001
29,65,-0.654498,-0.814493,-0.174533,0.174533,-0.653793,-0.803593,-0.134015,0.143933,-0.0705631,-0.305185,-0.607764,0.459001
29,65,-0.654498,-0.814493,-0.174533,0.174533,-0.653793,-0.803593,-0.134015,0.143933,-0.0705631,-0.305185,-0.607764,0.459001
29,65,-0.654498,-0.814493,-0.174533,0.174533,-0.653793,-0.803593,-0.134015,0.143933,-0.0705631,-0.305185,-0.607764,0.459001
29,65,-0.654498,-0.814493,-0.174533,0.174533,-0.653793,-0.803593,-0.134015,0.143933,-0.0705631,-0.305185,-0.607764,0.459001
29,65,-0.654498,-0.814493,-0.174533,0.174533,-0.653793,-0.803593,-0.134015,0.143933,-0.0705631,-0.305185,-0.607764,0.459001
29,65,-0.654498,-0.814493,-0.174533,0.174533,-0.653793,-0.803593,-0.134015,0.143933,-0.0705631,-0.305185,-0.607764,0.459001
29,65,-0.654498,-0.814493,-0.174533,0.174533,-0.653793,-0.803593,-0.134015,0.143933,-0.0705631,-0.305185,-0.607764,0.459001
29,65,-0.654498,-0.814493,-0.174533,0.174533,-0.653793,-0.803593,-0.134015,0.143933,-0.0705631,-0.305185,-0.607764,0.459001
29,65,-0.654498,-0.814493,-0.174533,0.174533,-0.653793,-0.803593,-0.134015,0.143933,-0.0705631,-0.305185,-0.607764,0.459001
29,65,-0.654498,-0.814493,-0.174533,0.174533,-0.653793,-0.803593,-0.134015,0.143933,-0.0705631,-0.305185,-0.607764,0.459001
29,65,-0.654498,-0.814493,-0.174533,0.174533,-0.653793,-0.803593,-0.134015,0.143933,-0.0705631,-0.305185,-0.607764,0.459001
29,65,-0.654498,-0.814493,-0.174533,0.174533,-0.653793,-0.803593,-0.134015,0.143933,-0.0705631,-0.305185,-0.607764,0.459001
29,65,-0.654498,-0.814493,-0.174533,0.174533,-0.653793,-0.803593,-0.134015,0.143933,-0.0705631,-0.305185,-0.607764,0.459001
29,65,-0.654498,-0.814493,-0.174533,0.174533,-0.653793,-0.803593,-0.134015,0.143933,-0.0705631,-0.305185,-0.607764,0.459001
29,65,-0.654498,-0.814493,-0.174533,0.174533,-0.653793,-0.803593,-0.134015,0.143933,-0.0705631,-0.305185,-0.607764,0.459001
29,65,-0.654498,-0.814493,-0.174533,0.174533,-0.653793,-0.803593,-0.134015,0.143933,-0.0705631,-0.305185,-0.607764,0.459001
29,65,-0.654498,-0.814493,-0.174533,0.174533,-0.653793,-0.803593,-0.134015,0.143933,-0.0705631,-0.305185,-0.607764,0.459001
29,65,-0.654498,-0.814493,-0.174533,0.174533,-0.653793,-0.803593,-0.134015,0.143933,-0.0705631,-0.305185,-0.607764,0.459001
29,65,-0.654498,-0.814493,-0.174533,0.174533,-0.653793,-0.803593,-0.134015,0.143933,-0.0705631,-0.305185,-0.607764,0.459001
29,65,-0.654498,-0.814493,-0.174533,0.174533,-0.653793,-0.803593,-0.134015,0.143933,-0.0705631,-0.305185,-0.607764,0.459001
29,65,-0.654498,-0.814493,-0.174533,0.174533,-0.653793,-0.803593,-0.134015,0.143933,-0.0705631,-0.305185,-0.607764,0.459001
29,65,-0.654498,-0.814493,-0.174533,0.174533,-0.653793,-0.803593,-0.134015,0.143933,-0.0705631,-0.305185,-0.607764,0.459001
29,65,-0.654498,-0.814493,-0.174533,0.174533,-0.653793,-0.803593,-0.134015,0.143933,-0.0705631,-0.305185,-0.607764,0.459001
29,65,-0.654498,-0.814493,-0.174533,0.174533,-0.653793,-0.803593,-0.134015,0.143933,-0.0705631,-0.305185,-0.607764,0.459001
29,65,-0.654498,-0.814493,-0.174533,0.174533,-0.653793,-0.803593,-0.134015,0.143933,-0.0705631,-0.305185,-0.607764,0.459001
29,65,-0.654498,-0.814493,-0.174533,0.174533,-0.653793,-0.803593,-0.134015,0.143933,-0.0705631,-0.305185,-0.607764,0.459001
29,65,-0.654498,-0.814493,-0.174533,0.174533,-0.653793,-0.803593,-0.134015,0.143933,-0.0705631,-0.305185,-0.607764,0.459001
29,65,-0.654498,-0.814493,-0.174533,0.174533,-0.653793,-0.803593,-0.134015,0.143933,-0.0705631,-0.305185,-0.607764,0.459001
29,65,-0.654498,-0.814493,-0.174533,0.174533,-0.653793,-0.803593,-0.134015,0.143933,-0.0705631,-0.305185,-0.607764,0.459001
29,65,-0.654498,-0.814493,-0.174533,0.174533,-0.653793,-0.803593,-0.134015,0.143933,-0.0705631,-0.305185,-0.607764,0.459001
29,65,-0.654498,-0.814493,-0.174533,0.174533,-0.653793,-0.803593,-0.134015,0.143933,-0.0705631,-0.305185,-0.607764,0.459001
29,65,-0.654498,-0.814493,-0.174533,0.174533,-0.653793,-0.803593,-0.134015,0.143933,-0.0705631,-0.305185,-0.607764,0.459001
29,65,-0.654498,-0.814493,-0.174533,0.174533,-0.653793,-0.803593,-0.134015,0.143933,-0.0705631,-0.305185,-0.607764,0.459001
29,65,-0.654498,-0.814493,-0.174533,0.174533,-0.653793,-0.803593,-0.134015,0.143933,-0.0705631,-0.305185,-0.607764,0.459001
29,65,-0.654498,-0.814493,-0.174533,0.174533,-0.653793,-0.803593,-0.134015,0.143933,-0.0705631,-0.305185,-0.607764,0.459001
29,65,-0.654498,-0.814493,-0.174533,0.174533,-0.653793,-0.803593,-0.134015,0.143933,-0.0705631,-0.305185,-0.607764,0.459001
29,65,-0.654498,-0.814493,-0.174533,0.174533,-0.653793,-0.803593,-0.134015,0.143933,-0.0705631,-0.305185,-0.607764,0.459001
29,65,-0.654498,-0.814493,-0.174533,0.174533,-0.653793,-0.803593,-0.134015,0.143933,-0.0705631,-0.305185,-0.607764,0.459001
29,65,-0.654498,-0.814493,-0.174533,0.174533,-0.653793,-0.803593,-0.134015,0.143933,-0.0705631,-0.305185,-0.607764,0.459001
29,65,-0.654498,-0.814493,-0.174533,0.174533,-0.653793,-0.803593,-0.134015,0.143933,-0.0705631,-0.305185,-0.607764,0.459001
29,65,-0.654498,-0.814493,-0.174533,0.174533,-0.653793,-0.803593,-0.134015,0.143933,-0.0705631,-0.305185,-0.607764,0.459001
29,65,-0.654498,-0.814493,-0.174533,0.174533,-0.653793,-0.803593,-0.134015,0.143933,-0.0705631,-0.305185,-0.607764,0.459001
29,65,-0.654498,-0.814493,-0.174533,0.174533,-0.653793,-0.803593,-0.134015,0.143933,-0.0705631,-0.305185,-0.607764,0.459001
29,65,-0.654498,-0.814493,-0.174533,0.174533,-0.653793,-0.803593,-0.134015,0.143933,-0.0705631,-0.305185,-0.607764,0.459001
29,65,-0.654498,-0.814493,-0.174533,0.174533,-0.653793,-0.803593,-0.134015,0.143933,-0.0705631,-0.305185,-0.607764,0.459001
29,65,-0.654498,-0.814493,-0.174533,0.174533,-0.653793,-0.803593,-0.134015,0.143933,-0.0705631,-0.305185,-0.607764,0.459001
29,65,-0.654498,-0.814493,-0.174533,0.174533,-0.653793,-0.803593,-0.134015,0.143933,-0.0705631,-0.305185,-0.607764,0.459001
29,65,-0.654498,-0.814493,-0.174533,0.174533,-0.653793,-0.803593,-0.134015,0.143933,-0.0705631,-0.305185,-0.607764,0.459001
29,65,-0.654498,-0.814493,-0.174533,0.174533,-0.653793,-0.803593,-0.134015,0.143933,-0.0705631,-0.305185,-0.607764,0.459001
29,65,-0.654498,-0.814493,-0.174533,0.174533,-0.653793,-0.803593,-0.134015,0.143933,-0.0705631,-0.305185,-0.607764,0.459001
29,65,-0.654498,-0.814493,-0.174533,0.174533,-0.653793,-0.803593,-0.134015,0.143933,-0.0705631,-0.305185,-0.607764,0.459001
29,65,-0.654498,-0.814493,-0.174533,0.174533,-0.653793,-0.803593,-0.134015,0.143933,-0.0705631,-0.305185,-0.607764,0.459001
29,65,-0.654498,-0.814493,-0.174533,0.174533,-0.653793,-0.803593,-0.134015,0.143933,-0.0705631,-0.305185,-0.607764,0.459001
29,65,-0.654498,-0.814493,-0.174533,0.174533,-0.653793,-0.803593,-0.134015,0.143933,-0.0705631,-0.305185,-0.607764,0.459001
29,65,-0.654498,-0.814493,-0.174533,0.174533,-0.653793,-0.803593,-0.134015,0.143933,-0.0705631,-0.305185,-0.607764,0.459001
29,65,-0.654498,-0.814493,-0.174533,0.174533,-0.653793,-0.803593,-0.134015,0.143933,-0.0705631,-0.305185,-0.607764,0.459001
29,65,-0.654498,-0.814493,-0.174533,0.174533,-0.653793,-0.803593,-0.134015,0.143933,-0.0705631,-0.305185,-0.607764,0.459001
29,65,-0.654498,-0.814493,-0.174533,0.174533,-0.653793,-0.803593,-0.134015,0.143933,-0.0705631,-0.305185,-0.607764,0.459001
29,65,-0.654498,-0.814493,-0.174533,0.174533,-0.653793,-0.803593,-0.134015,0.143933,-0.0705631,-0.305185,-0.607764,0.459001
29,65,-0.654498,-0.814493,-0.174533,0.174533,-0.653793,-0.803593,-0.134015,0.143933,-0.0705631,-0.305185,-0.607764,0.459001
29,65,-0.654498,-0.814493,-0.174533,0.174533,-0.653793,-0.803593,-0.134015,0.143933,-0.0705631,-0.305185,-0.607764,0.459001
29,65,-0.654498,-0.814493,-0.174533,0.174533,-0.653793,-0.803593,-0.134015,0.143933,-0.0705631,-0.305185,-0.607764,0.459001
29,65,-0.654498,-0.814493,-0.174533,0.174533,-0.653793,-0.803593,-0.134015,0.143933,-0.0705631,-0.305185,-0.607764,0.459001
29,65,-0.654498,-0.814493,-0.174533,0.174533,-0.653793,-0.803593,-0.134015,0.143933,-0.0705631,-0.305185,-0.607764,0.459001
29,65,-0.654498,-0.814493,-0.174533,0.174533,-0.653793,-0.803593,-0.134015,0.143933,-0.0705631,-0.305185,-0.607764,0.459001
29,65,-0.654498,-0.814493,-0.174533,0.174533,-0.653793,-0.803593,-0.134015,0.143933,-0.0705631,-0.305185,-0.607764,0.459001
29,65,-0.654498,-0.814493,-0.174533,0.174533,-0.653793,-0.803593,-0.134015,0.143933,-0.0705631,-0.305185,-0.607764,0.459001
29,65,-0.654498,-0.814493,-0.174533,0.174533,-0.653793,-0.803593,-0.134015,0.143933,-0.0705631,-0.305185,-0.607764,0.459001
29,65,-0.654498,-0.814493,-0.174533,0.174533,-0.653793,-0.803593,-0.134015,0.143933,-0.0705631,-0.305185,-0.607764,0.459001
29,65,-0.654498,-0.814493,-0.174533,0.174533,-0.653793,-0.803593,-0.134015,0.143933,-0.0705631,-0.305185,-0.607764,0.459001
29,65,-0.654498,-0.814493,-0.174533,0.174533,-0.653793,-0.803593,-0.134015,0.143933,-0.0705631,-0.305185,-0.607764,0.459001
29,65,-0.654498,-0.814493,-0.174533,0.174533,-0.653793,-0.803593,-0.134015,0.143933,-0.0705631,-0.305185,-0.607764,0.459001
29,65,-0.654498,-0.814493,-0.174533,0.174533,-0.653793,-0.803593,-0.134015,0.143933,-0.0705631,-0.305185,-0.607764,0.459001
29,65,-0.654498,-0.814493,-0.174533,0.174533,-0.653793,-0.803593,-0.134015,0.143933,-0.0705631,-0.305185,-0.607764,0.459001
29,65,-0.654498,-0.814493,-0.174533,0.174533,-0.653793,-0.803593,-0.134015,0.143933,-0.0705631,-0.305185,-0.607764,0.459001
29,65,-0.654498,-0.814493,-0.174533,0.174533,-0.653793,-0.803593,-0.134015,0.143933,-0.0705631,-0.305185,-0.607764,0.459001
29,65,-0.654498,-0.814493,-0.174533,0.174533,-0.653793,-0.803593,-0.134015,0.143933,-0.0705631,-0.305185,-0.607764,0.459001
29,65,-0.654498,-0.814493,-0.174533,0.174533,-0.653793,-0.803593,-0.134015,0.143933,-0.0705631,-0.305185,-0.607764,0.459001
29,65,-0.654498,-0.814493,-0.174533,0.174533,-0.653793,-0.803593,-0.134015,0.143933,-0.0705631,-0.305185,-0.607764,0.459001
29,65,-0.654498,-0.814493,-0.174533,0.174533,-0.653793,-0.803593,-0.134015,0.143933,-0.0705631,-0.305185,-0.607764,0.459001
29,65,-0.654498,-0.814493,-0.174533,0.174533,-0.653793,-0.803593,-0.134015,0.143933,-0.0705631,-0.305185,-0.607764,0.459001
29,65,-0.654498,-0.814493,-0.174533,0.174533,-0.653793,-0.803593,-0.134015,0.143933,-0.0705631,-0.305185,-0.607764,0.459001
29,65,-0.654498,-0.814493,-0.174533,0.174533,-0.653793,-0.803593,-0.134015,0.143933,-0.0705631,-0.305185,-0.607764,0.459001
29,65,-0.654498,-0.814493,-0.174533,0.174533,-0.653793,-0.803593,-0.134015,0.143933,-0.0705631,-0.305185,-0.607764,0.459001
29,65,-0.654498,-0.814493,-0.174533,0.174533,-0.653793,-0.803593,-0.134015,0.143933,-0.0705631,-0.305185,-0.607764,0.459001
29,65,-0.654498,-0.814493,-0.174533,0.174533,-0.653793,-0.803593,-0.134015,0.143933,-0.0705631,-0.305185,-0.607764,0.459001
29,65,-0.654498,-0.814493,-0.174533,0.174533,-0.653793,-0.803593,-0.134015,0.143933,-0.0705631,-0.305185,-0.607764,0.459001
29,65,-0.654498,-0.814493,-0.174533,0.174533,-0.653793,-0.803593,-0.134015,0.143933,-0.0705631,-0.305185,-0.607764,0.459001
29,65,-0.654498,-0.814493,-0.174533,0.174533,-0.653793,-0.803593,-0.134015,0.143933,-0.0705631,-0.305185,-0.607764,0.459001
29,65,-0.654498,-0.814493,-0.174533,0.174533,-0.653793,-0.803593,-0.134015,0.143933,-0.0705631,-0.305185,-0.607764,0.459001
29,65,-0.654498,-0.814493,-0.174533,0.174533,-0.653793,-0.803593,-0.134015,0.143933,-0.0705631,-0.305185,-0.607764,0.459001
29,65,-0.654498,-0.814493,-0.174533,0.174533,-0.653793,-0.803593,-0.134015,0.143933,-0.0705631,-0.305185,-0.607764,0.459001
29,65,-0.654498,-0.814493,-0.174533,0.174533,-0.653793,-0.803593,-0.134015,0.143933,-0.0705631,-0.305185,-0.607764,0.459001
29,65,-0.654498,-0.814493,-0.174533,0.174533,-0.653793,-0.803593,-0.134015,0.143933,-0.0705631,-0.305185,-0.607764,0.459001
29,65,-0.654498,-0.814493,-0.174533,0.174533,-0.653793,-0.803593,-0.134015,0.143933,-0.0705631,-0.305185,-0.607764,0.459001
29,65,-0.654498,-0.814493,-0.174533,0.174533,-0.653793,-0.803593,-0.134015,0.143933,-0.0705631,-0.305185,-0.607764,0.459001
29,65,-0.654498,-0.814493,-0.174533,0.174533,-0.653793,-0.803593,-0.134015,0.143933,-0.0705631,-0.305185,-0.607764,0.459001
29,65,-0.654498,-0.814493,-0.174533,0.174533,-0.653793,-0.803593,-0.134015,0.143933,-0.0705631,-0.305185,-0.607764,0.459001
29,65,-0.654498,-0.814493,-0.174533,0.174533,-0.653793,-0.803593,-0.134015,0.143933,-0.0705631,-0.305185,-0.607764,0.459001
29,65,-0.654498,-0.814493,-0.174533,0.174533,-0.653793,-0.803593,-0.134015,0.143933,-0.0705631,-0.305185,-0.607764,0.459001
29,65,-0.654498,-0.814493,-0.174533,0.174533,-0.653793,-0.803593,-0.134015,0.143933,-0.0705631,-0.305185,-0.607764,0.459001
29,65,-0.654498,-0.814493,-0.174533,0.174533,-0.653793,-0.803593,-0.134015,0.143933,-0.0705631,-0.305185,-0.607764,0.459001
29,65,-0.654498,-0.814493,-0.174533,0.174533,-0.653793,-0.803593,-0.134015,0.143933,-0.0705631,-0.305185,-0.607764,0.459001
29,65,-0.654498,-0.814493,-0.174533,0.174533,-0.653793,-0.803593,-0.134015,0.143933,-0.0705631,-0.305185,-0.607764,0.459001
29,65,-0.654498,-0.814493,-0.174533,0.174533,-0.653793,-0.803593,-0.134015,0.143933,-0.0705631,-0.305185,-0.607764,0.459001
29,65,-0.654498,-0.814493,-0.174533,0.174533,-0.653793,-0.803593,-0.134015,0.143933,-0.0705631,-0.305185,-0.607764,0.459001
29,65,-0.654498,-0.814493,-0.174533,0.174533,-0.653793,-0.803593,-0.134015,0.143933,-0.0705631,-0.305185,-0.607764,0.459001
29,65,-0.654498,-0.814493,-0.174533,0.174533,-0.653793,-0.803593,-0.134015,0.143933,-0.0705631,-0.305185,-0.607764,0.459001
29,65,-0.654498,-0.814493,-0.174533,0.174533,-0.653793,-0.803593,-0.134015,0.143933,-0.0705631,-0.305185,-0.607764,0.459001
29,65,-0.654498,-0.814493,-0.174533,0.174533,-0.653793,-0.803593,-0.134015,0.143933,-0.0705631,-0.305185,-0.607764,0.459001
29,65,-0.654498,-0.814493,-0.174533,0.174533,-0.653793,-0.803593,-0.134015,0.143933,-0.0705631,-0.305185,-0.607764,0.459001
29,65,-0.654498,-0.814493,-0.174533,0.174533,-0.653793,-0.803593,-0.134015,0.143933,-0.0705631,-0.305185,-0.607764,0.459001
29,65,-0.654498,-0.814493,-0.174533,0.174533,-0.653793,-0.803593,-0.134015,0.143933,-0.0705631,-0.305185,-0.607764,0.459001
29,65,-0.654498,-0.814493,-0.174533,0.174533,-0.653793,-0.803593,-0.134015,0.143933,-0.0705631,-0.305185,-0.607764,0.459001
29,65,-0.654498,-0.814493,-0.174533,0.174533,-0.653793,-0.803593,-0.134015,0.143933,-0.0705631,-0.305185,-0.607764,0.459001
29,65,-0.654498,-0.814493,-0.174533,0.174533,-0.653793,-0.803593,-0.134015,0.143933,-0.0705631,-0.305185,-0.607764,0.459001
29,65,-0.654498,-0.814493,-0.174533,0.174533,-0.653793,-0.803593,-0.134015,0.143933,-0.0705631,-0.305185,-0.607764,0.459001
29,65,-0.654498,-0.814493,-0.174533,0.174533,-0.653793,-0.803593,-0.134015,0.143933,-0.0705631,-0.305185,-0.607764,0.459001
29,65,-0.654498,-0.814493,-0.174533,0.174533,-0.653793,-0.803593,-0.134015,0.143933,-0.0705631,-0.305185,-0.607764,0.459001
29,65,-0.654498,-0.814493,-0.174533,0.174533,-0.653793,-0.803593,-0.134015,0.143933,-0.0705631,-0.305185,-0.607764,0.459001
29,65,-0.654498,-0.814493,-0.174533,0.174533,-0.653793,-0.803593,-0.134015,0.143933,-0.0705631,-0.305185,-0.607764,0.459001
29,65,-0.654498,-0.814493,-0.174533,0.174533,-0.653793,-0.803593,-0.134015,0.143933,-0.0705631,-0.305185,-0.607764,0.459001
29,65,-0.654498,-0.814493,-0.174533,0.174533,-0.653793,-0.803593,-0.134015,0.143933,-0.0705631,-0.305185,-0.607764,0.459001
29,65,-0.654498,-0.814493,-0.174533,0.174533,-0.653793,-0.803593,-0.134015,0.143933,-0.0705631,-0.305185,-0.607764,0.459001
29,65,-0.654498,-0.814493,-0.174533,0.174533,-0.653793,-0.803593,-0.134015,0.143933,-0.0705631,-0.305185,-0.607764,0.459001
29,65,-0.654498,-0.814493,-0.174533,0.174533,-0.653793,-0.803593,-0.134015,0.143933,-0.0705631,-0.305185,-0.607764,0.459001
29,65,-0.654498,-0.814493,-0.174533,0.174533,-0.653793,-0.803593,-0.134015,0.143933,-0.0705631,-0.305185,-0.607764,0.459001
29,65,-0.654498,-0.814493,-0.174533,0.174533,-0.653793,-0.803593,-0.134015,0.143933,-0.0705631,-0.305185,-0.607764,0.459001
29,65,-0.654498,-0.814493,-0.174533,0.174533,-0.653793,-0.803593,-0.134015,0.143933,-0.0705631,-0.305185,-0.607764,0.459001
29,65,-0.654498,-0.814493,-0.174533,0.174533,-0.653793,-0.803593,-0.134015,0.143933,-0.0705631,-0.305185,-0.607764,0.459001
29,65,-0.654498,-0.814493,-0.174533,0.174533,-0.653793,-0.803593,-0.134015,0.143933,-0.0705631,-0.305185,-0.607764,0.459001
29,65,-0.654498,-0.814493,-0.174533,0.174533,-0.653793,-0.803593,-0.134015,0.143933,-0.0705631,-0.305185,-0.607764,0.459001
29,65,-0.654498,-0.814493,-0.174533,0.174533,-0.653793,-0.803593,-0.134015,0.143933,-0.0705631,-0.305185,-0.607764,0.459001
29,65,-0.654498,-0.814493,-0.174533,0.174533,-0.653793,-0.803593,-0.134015,0.143933,-0.0705631,-0.305185,-0.607764,0.459001
29,65,-0.654498,-0.814493,-0.174533,0.174533,-0.653793,-0.803593,-0.134015,0.143933,-0.0705631,-0.305185,-0.607764,0.459001
29,65,-0.654498,-0.814493,-0.174533,0.174533,-0.653793,-0.803593,-0.134015,0.143933,-0.0705631,-0.305185,-0.607764,0.459001
29,65,-0.654498,-0.814493,-0.174533,0.174533,-0.653793,-0.803593,-0.134015,0.143933,-0.0705631,-0.305185,-0.607764,0.459001
29,65,-0.654498,-0.814493,-0.174533,0.174533,-0.653793,-0.803593,-0.134015,0.143933,-0.0705631,-0.305185,-0.607764,0.459001
29,65,-0.654498,-0.814493,-0.174533,0.174533,-0.653793,-0.803593,-0.134015,0.143933,-0.0705631,-0.305185,-0.607764,0.459001
29,65,-0.654498,-0.814493,-0.174533,0.174533,-0.653793,-0.803593,-0.134015,0.143933,-0.0705631,-0.305185,-0.607764,0.459001
29,65,-0.654498,-0.814493,-0.174533,0.174533,-0.653793,-0.803593,-0.134015,0.143933,-0.0705631,-0.305185,-0.607764,0.459001
29,65,-0.654498,-0.814493,-0.174533,0.174533,-0.653793,-0.803593,-0.134015,0.143933,-0.0705631,-0.305185,-0.607764,0.459001
29,65,-0.654498,-0.814493,-0.174533,0.174533,-0.653793,-0.803593,-0.134015,0.143933,-0.0705631,-0.305185,-0.607764,0.459001
29,65,-0.654498,-0.814493,-0.174533,0.174533,-0.653793,-0.803593,-0.134015,0.143933,-0.0705631,-0.305185,-0.607764,0.459001
29,65,-0.654498,-0.814493,-0.174533,0.174533,-0.653793,-0.803593,-0.134015,0.143933,-0.0705631,-0.305185,-0.607764,0.459001
29,65,-0.654498,-0.814493,-0.174533,0.174533,-0.653793,-0.803593,-0.134015,0.143933,-0.0705631,-0.305185,-0.607764,0.459001
29,65,-0.654498,-0.814493,-0.174533,0.174533,-0.653793,-0.803593,-0.134015,0.143933,-0.0705631,-0.305185,-0.607764,0.459001
29,65,-0.654498,-0.814493,-0.174533,0.174533,-0.653793,-0.803593,-0.134015,0.143933,-0.0705631,-0.305185,-0.607764,0.459001
29,65,-0.654498,-0.814493,-0.174533,0.174533,-0.653793,-0.803593,-0.134015,0.143933,-0.0705631,-0.305185,-0.607764,0.459001
29,65,-0.654498,-0.814493,-0.174533,0.174533,-0.653793,-0.803593,-0.134015,0.143933,-0.0705631,-0.305185,-0.607764,0.459001
29,65,-0.654498,-0.814493,-0.174533,0.174533,-0.653793,-0.803593,-0.134015,0.143933,-0.0705631,-0.305185,-0.607764,0.459001
29,65,-0.654498,-0.814493,-0.174533,0.174533,-0.653793,-0.803593,-0.134015,0.143933,-0.0705631,-0.305185,-0.607764,0.459001
29,65,-0.654498,-0.814493,-0.174533,0.174533,-0.653793,-0.803593,-0.134015,0.143933,-0.0705631,-0.305185,-0.607764,0.459001
29,65,-0.654498,-0.814493,-0.174533,0.174533,-0.653793,-0.803593,-0.134015,0.143933,-0.0705631,-0.305185,-0.607764,0.459001
29,65,-0.654498,-0.814493,-0.174533,0.174533,-0.653793,-0.803593,-0.134015,0.143933,-0.0705631,-0.305185,-0.607764,0.459001
29,65,-0.654498,-0.814493,-0.174533,0.174533,-0.653793,-0.803593,-0.134015,0.143933,-0.0705631,-0.305185,-0.607764,0.459001
29,65,-0.654498,-0.814493,-0.174533,0.174533,-0.653793,-0.803593,-0.134015,0.143933,-0.0705631,-0.305185,-0.607764,0.459001
29,65,-0.654498,-0.814493,-0.174533,0.174533,-0.653793,-0.803593,-0.134015,0.143933,-0.0705631,-0.305185,-0.607764,0.459001
29,65,-0.654498,-0.814493,-0.174533,0.174533,-0.653793,-0.803593,-0.134015,0.143933,-0.0705631,-0.305185,-0.607764,0.459001
29,65,-0.654498,-0.814493,-0.174533,0.174533,-0.653793,-0.803593,-0.134015,0.143933,-0.0705631,-0.305185,-0.607764,0.459001
29,65,-0.654498,-0.814493,-0.174533,0.174533,-0.653793,-0.803593,-0.134015,0.143933,-0.0705631,-0.305185,-0.607764,0.459001
29,65,-0.654498,-0.814493,-0.174533,0.174533,-0.653793,-0.803593,-0.134015,0.143933,-0.0705631,-0.305185,-0.607764,0.459001
29,65,-0.654498,-0.814493,-0.174533,0.174533,-0.653793,-0.803593,-0.134015,0.143933,-0.0705631,-0.305185,-0.607764,0.459001
29,65,-0.654498,-0.814493,-0.174533,0.174533,-0.653793,-0.803593,-0.134015,0.143933,-0.0705631,-0.305185,-0.607764,0.459001
29,65,-0.654498,-0.814493,-0.174533,0.174533,-0.653793,-0.803593,-0.134015,0.143933,-0.0705631,-0.305185,-0.607764,0.459001
29,65,-0.654498,-0.814493,-0.174533,0.174533,-0.653793,-0.803593,-0.134015,0.143933,-0.0705631,-0.305185,-0.607764,0.459001
29,65,-0.654498,-0.814493,-0.174533,0.174533,-0.653793,-0.803593,-0.134015,0.143933,-0.0705631,-0.305185,-0.607764,0.459001
29,65,-0.654498,-0.814493,-0.174533,0.174533,-0.653793,-0.803593,-0.134015,0.143933,-0.0705631,-0.305185,-0.607764,0.459001
29,65,-0.654498,-0.814493,-0.174533,0.174533,-0.653793,-0.803593,-0.134065,0.143891,-0.0705631,-0.305185,-0.607026,0.459633
29,65,-0.654498,-0.814493,-0.174533,0.174533,-0.653793,-0.803593,-0.134065,0.143891,-0.0705631,-0.305185,-0.607026,0.459633
29,65,-0.654498,-0.814493,-0.174533,0.174533,-0.653793,-0.803593,-0.134065,0.143891,-0.0705631,-0.305185,-0.607026,0.459633
29,65,-0.654498,-0.814493,-0.174533,0.174533,-0.653793,-0.803593,-0.134065,0.143891,-0.0705631,-0.305185,-0.607026,0.459633
29,65,-0.654498,-0.814493,-0.174533,0.174533,-0.653793,-0.803593,-0.134065,0.143891,-0.0705631,-0.305185,-0.607026,0.459633
29,65,-0.654498,-0.814493,-0.174533,0.174533,-0.653793,-0.803593,-0.134065,0.143891,-0.0705631,-0.305185,-0.607026,0.459633
29,65,-0.654498,-0.814493,-0.174533,0.174533,-0.653793,-0.803593,-0.134065,0.143891,-0.0705631,-0.305185,-0.607026,0.459633
29,65,-0.654498,-0.814493,-0.174533,0.174533,-0.653793,-0.803593,-0.134065,0.143891,-0.0705631,-0.305185,-0.607026,0.459633
29,65,-0.654498,-0.814493,-0.174533,0.174533,-0.653793,-0.803593,-0.134065,0.143891,-0.0705631,-0.305185,-0.607026,0.459633
29,65,-0.654498,-0.814493,-0.174533,0.174533,-0.653793,-0.803593,-0.134065,0.143891,-0.0705631,-0.305185,-0.607026,0.459633
29,65,-0.654498,-0.814493,-0.174533,0.174533,-0.653793,-0.803593,-0.134065,0.143891,-0.0705631,-0.305185,-0.607026,0.459633
29,65,-0.654498,-0.814493,-0.174533,0.174533,-0.653793,-0.803593,-0.134065,0.143891,-0.0705631,-0.305185,-0.607026,0.459633
29,65,-0.654498,-0.814493,-0.174533,0.174533,-0.653793,-0.803593,-0.134065,0.143891,-0.0705631,-0.305185,-0.607026,0.459633
29,65,-0.654498,-0.814493,-0.174533,0.174533,-0.653793,-0.803593,-0.134065,0.143891,-0.0705631,-0.305185,-0.607026,0.459633
29,65,-0.654498,-0.814493,-0.174533,0.174533,-0.653793,-0.803593,-0.134065,0.143891,-0.0705631,-0.305185,-0.607026,0.459633
29,65,-0.654498,-0.814493,-0.174533,0.174533,-0.653793,-0.803593,-0.134065,0.143891,-0.0705631,-0.305185,-0.607026,0.459633
29,65,-0.654498,-0.814493,-0.174533,0.174533,-0.653793,-0.803593,-0.134065,0.143891,-0.0705631,-0.305185,-0.607026,0.459633
29,65,-0.654498,-0.814493,-0.174533,0.174533,-0.653793,-0.803593,-0.134065,0.143891,-0.0705631,-0.305185,-0.607026,0.459633
29,65,-0.654498,-0.814493,-0.174533,0.174533,-0.653793,-0.803593,-0.134065,0.143891,-0.0705631,-0.305185,-0.607026,0.459633
29,65,-0.654498,-0.814493,-0.174533,0.174533,-0.653793,-0.803593,-0.134065,0.143891,-0.0705631,-0.305185,-0.607026,0.459633
29,65,-0.654498,-0.814493,-0.174533,0.174533,-0.653793,-0.803593,-0.134065,0.143891,-0.0705631,-0.305185,-0.607026,0.459633
29,65,-0.654498,-0.814493,-0.174533,0.174533,-0.653793,-0.803593,-0.134065,0.143891,-0.0705631,-0.305185,-0.607026,0.459633
29,65,-0.654498,-0.814493,-0.174533,0.174533,-0.653793,-0.803593,-0.134065,0.143891,-0.0705631,-0.305185,-0.607026,0.459633
29,65,-0.654498,-0.814493,-0.174533,0.174533,-0.653793,-0.803593,-0.134065,0.143891,-0.0705631,-0.305185,-0.607026,0.459633
29,65,-0.654498,-0.814493,-0.174533,0.174533,-0.653793,-0.803593,-0.134065,0.143891,-0.0705631,-0.305185,-0.607026,0.459633
29,65,-0.654498,-0.814493,-0.174533,0.174533,-0.653793,-0.803593,-0.134065,0.143891,-0.0705631,-0.305185,-0.607026,0.459633
29,65,-0.654498,-0.814493,-0.174533,0.174533,-0.653793,-0.803593,-0.134065,0.143891,-0.0705631,-0.305185,-0.607026,0.459633
29,65,-0.654498,-0.814493,-0.174533,0.174533,-0.653793,-0.803593,-0.134065,0.143891,-0.0705631,-0.305185,-0.607026,0.459633
29,65,-0.654498,-0.814493,-0.174533,0.174533,-0.653793,-0.803593,-0.134065,0.143891,-0.0705631,-0.305185,-0.607026,0.459633
29,65,-0.654498,-0.814493,-0.174533,0.174533,-0.653793,-0.803593,-0.134065,0.143891,-0.0705631,-0.305185,-0.607026,0.459633
29,65,-0.654498,-0.814493,-0.174533,0.174533,-0.653793,-0.803593,-0.134065,0.143891,-0.0705631,-0.305185,-0.607026,0.459633
29,65,-0.654498,-0.814493,-0.174533,0.174533,-0.653793,-0.803593,-0.134065,0.143891,-0.0705631,-0.305185,-0.607026,0.459633
29,65,-0.654498,-0.814493,-0.174533,0.174533,-0.653793,-0.803593,-0.134065,0.143891,-0.0705631,-0.305185,-0.607026,0.459633
29,65,-0.654498,-0.814493,-0.174533,0.174533,-0.653793,-0.803593,-0.134065,0.143891,-0.0705631,-0.305185,-0.607026,0.459633
29,65,-0.654498,-0.814493,-0.174533,0.174533,-0.653793,-0.803593,-0.134065,0.143891,-0.0705631,-0.305185,-0.607026,0.459633
29,65,-0.654498,-0.814493,-0.174533,0.174533,-0.653793,-0.803593,-0.134065,0.143891,-0.0705631,-0.305185,-0.607026,0.459633
29,65,-0.654498,-0.814493,-0.174533,0.174533,-0.653793,-0.803593,-0.134065,0.143891,-0.0705631,-0.305185,-0.607026,0.459633
29,65,-0.654498,-0.814493,-0.174533,0.174533,-0.653793,-0.803593,-0.134065,0.143891,-0.0705631,-0.305185,-0.607026,0.459633
29,65,-0.654498,-0.814493,-0.174533,0.174533,-0.653793,-0.803593,-0.134065,0.143891,-0.0705631,-0.305185,-0.607026,0.459633
29,65,-0.654498,-0.814493,-0.174533,0.174533,-0.653793,-0.803593,-0.134065,0.143891,-0.0705631,-0.305185,-0.607026,0.459633
29,65,-0.654498,-0.814493,-0.174533,0.174533,-0.653793,-0.803593,-0.134065,0.143891,-0.0705631,-0.305185,-0.607026,0.459633
29,65,-0.654498,-0.814493,-0.174533,0.174533,-0.653793,-0.803593,-0.134065,0.143891,-0.0705631,-0.305185,-0.607026,0.459633
29,65,-0.654498,-0.814493,-0.174533,0.174533,-0.653793,-0.803593,-0.134065,0.143891,-0.0705631,-0.305185,-0.607026,0.459633
29,65,-0.654498,-0.814493,-0.174533,0.174533,-0.653793,-0.803593,-0.134065,0.143891,-0.0705631,-0.305185,-0.607026,0.459633
29,65,-0.654498,-0.814493,-0.174533,0.174533,-0.653793,-0.803593,-0.134065,0.143891,-0.0705631,-0.305185,-0.607026,0.459633
29,65,-0.654498,-0.814493,-0.174533,0.174533,-0.653793,-0.803593,-0.134065,0.143891,-0.0705631,-0.305185,-0.607026,0.459633
29,65,-0.654498,-0.814493,-0.174533,0.174533,-0.653793,-0.803593,-0.134065,0.143891,-0.0705631,-0.305185,-0.607026,0.459633
29,65,-0.654498,-0.814493,-0.174533,0.174533,-0.653793,-0.803593,-0.134065,0.143891,-0.0705631,-0.305185,-0.607026,0.459633
29,65,-0.654498,-0.814493,-0.174533,0.174533,-0.653793,-0.803593,-0.134065,0.143891,-0.0705631,-0.305185,-0.607026,0.459633
29,65,-0.654498,-0.814493,-0.174533,0.174533,-0.653793,-0.803593,-0.134065,0.143891,-0.0705631,-0.305185,-0.607026,0.459633
29,65,-0.654498,-0.814493,-0.174533,0.174533,-0.653793,-0.803593,-0.134065,0.143891,-0.0705631,-0.305185,-0.607026,0.459633
29,65,-0.654498,-0.814493,-0.174533,0.174533,-0.653793,-0.803593,-0.134065,0.143891,-0.0705631,-0.305185,-0.607026,0.459633
29,65,-0.654498,-0.814493,-0.174533,0.174533,-0.653793,-0.803593,-0.134065,0.143891,-0.0705631,-0.305185,-0.607026,0.459633
29,65,-0.654498,-0.814493,-0.174533,0.174533,-0.653793,-0.803593,-0.134065,0.143891,-0.0705631,-0.305185,-0.607026,0.459633
29,65,-0.654498,-0.814493,-0.174533,0.174533,-0.653793,-0.803593,-0.134065,0.143891,-0.0705631,-0.305185,-0.607026,0.459633
29,65,-0.654498,-0.814493,-0.174533,0.174533,-0.653793,-0.803593,-0.134065,0.143891,-0.0705631,-0.305185,-0.607026,0.459633
29,65,-0.654498,-0.814493,-0.174533,0.174533,-0.653793,-0.803593,-0.134065,0.143891,-0.0705631,-0.305185,-0.607026,0.459633
29,65,-0.654498,-0.814493,-0.174533,0.174533,-0.653793,-0.803593,-0.134065,0.143891,-0.0705631,-0.305185,-0.607026,0.459633
29,65,-0.654498,-0.814493,-0.174533,0.174533,-0.653793,-0.803593,-0.134065,0.143891,-0.0705631,-0.305185,-0.607026,0.459633
29,65,-0.654498,-0.814493,-0.174533,0.174533,-0.653793,-0.803593,-0.134065,0.143891,-0.0705631,-0.305185,-0.607026,0.459633
29,65,-0.654498,-0.814493,-0.174533,0.174533,-0.653793,-0.803593,-0.134065,0.143891,-0.0705631,-0.305185,-0.607026,0.459633
29,65,-0.654498,-0.814493,-0.174533,0.174533,-0.653793,-0.803593,-0.134065,0.143891,-0.0705631,-0.305185,-0.607026,0.459633
29,65,-0.654498,-0.814493,-0.174533,0.174533,-0.653793,-0.803593,-0.134065,0.143891,-0.0705631,-0.305185,-0.607026,0.459633
29,65,-0.654498,-0.814493,-0.174533,0.174533,-0.653793,-0.803593,-0.134065,0.143891,-0.0705631,-0.305185,-0.607026,0.459633
29,65,-0.654498,-0.814493,-0.174533,0.174533,-0.653793,-0.803593,-0.134065,0.143891,-0.0705631,-0.305185,-0.607026,0.459633
29,65,-0.654498,-0.814493,-0.174533,0.174533,-0.653793,-0.803593,-0.134065,0.143891,-0.0705631,-0.305185,-0.607026,0.459633
29,65,-0.654498,-0.814493,-0.174533,0.174533,-0.653793,-0.803593,-0.134065,0.143891,-0.0705631,-0.305185,-0.607026,0.459633
29,65,-0.654498,-0.814493,-0.174533,0.174533,-0.653793,-0.803593,-0.134065,0.143891,-0.0705631,-0.305185,-0.607026,0.459633
29,65,-0.654498,-0.814493,-0.174533,0.174533,-0.653793,-0.803593,-0.134065,0.143891,-0.0705631,-0.305185,-0.607026,0.459633
29,65,-0.654498,-0.814493,-0.174533,0.174533,-0.653793,-0.803593,-0.134065,0.143891,-0.0705631,-0.305185,-0.607026,0.459633
29,65,-0.654498,-0.814493,-0.174533,0.174533,-0.653793,-0.803593,-0.134065,0.143891,-0.0705631,-0.305185,-0.607026,0.459633
29,65,-0.654498,-0.814493,-0.174533,0.174533,-0.653793,-0.803593,-0.134065,0.143891,-0.0705631,-0.305185,-0.607026,0.459633
29,65,-0.654498,-0.814493,-0.174533,0.174533,-0.653793,-0.803593,-0.134065,0.143891,-0.0705631,-0.305185,-0.607026,0.459633
29,65,-0.654498,-0.814493,-0.174533,0.174533,-0.653793,-0.803593,-0.134065,0.143891,-0.0705631,-0.305185,-0.607026,0.459633
29,65,-0.654498,-0.814493,-0.174533,0.174533,-0.653793,-0.803593,-0.134065,0.143891,-0.0705631,-0.305185,-0.607026,0.459633
29,65,-0.654498,-0.814493,-0.174533,0.174533,-0.653793,-0.803593,-0.134065,0.143891,-0.0705631,-0.305185,-0.607026,0.459633
29,65,-0.654498,-0.814493,-0.174533,0.174533,-0.653793,-0.803593,-0.134065,0.143891,-0.0705631,-0.305185,-0.607026,0.459633
29,65,-0.654498,-0.814493,-0.174533,0.174533,-0.653793,-0.803593,-0.134065,0.143891,-0.0705631,-0.305185,-0.607026,0.459633
29,65,-0.654498,-0.814493,-0.174533,0.174533,-0.653793,-0.803593,-0.134065,0.143891,-0.0705631,-0.305185,-0.607026,0.459633
29,65,-0.654498,-0.814493,-0.174533,0.174533,-0.653793,-0.803593,-0.134065,0.143891,-0.0705631,-0.305185,-0.607026,0.459633
29,65,-0.654498,-0.814493,-0.174533,0.174533,-0.653793,-0.803593,-0.134065,0.143891,-0.0705631,-0.305185,-0.607026,0.459633
29,65,-0.654498,-0.814493,-0.174533,0.174533,-0.653793,-0.803593,-0.134065,0.143891,-0.0705631,-0.305185,-0.607026,0.459633
29,65,-0.654498,-0.814493,-0.174533,0.174533,-0.653793,-0.803593,-0.134065,0.143891,-0.0705631,-0.305185,-0.607026,0.459633
29,65,-0.654498,-0.814493,-0.174533,0.174533,-0.653793,-0.803593,-0.134065,0.143891,-0.0705631,-0.305185,-0.607026,0.459633
29,65,-0.654498,-0.814493,-0.174533,0.174533,-0.653793,-0.803593,-0.134065,0.143891,-0.0705631,-0.305185,-0.607026,0.459633
29,65,-0.654498,-0.814493,-0.174533,0.174533,-0.653793,-0.803593,-0.134065,0.143891,-0.0705631,-0.305185,-0.607026,0.459633
29,65,-0.654498,-0.814493,-0.174533,0.174533,-0.653793,-0.803593,-0.134065,0.143891,-0.0705631,-0.305185,-0.607026,0.459633
29,65,-0.654498,-0.814493,-0.174533,0.174533,-0.653793,-0.803593,-0.134065,0.143891,-0.0705631,-0.305185,-0.607026,0.459633
29,65,-0.654498,-0.814493,-0.174533,0.174533,-0.653793,-0.803593,-0.134065,0.143891,-0.0705631,-0.305185,-0.607026,0.459633
29,65,-0.654498,-0.814493,-0.174533,0.174533,-0.653793,-0.803593,-0.134061,0.14382,-0.0705631,-0.305185,-0.607084,0.460688
29,65,-0.654498,-0.814493,-0.174533,0.174533,-0.653793,-0.803593,-0.134061,0.14382,-0.0705631,-0.305185,-0.607084,0.460688
29,65,-0.654498,-0.814493,-0.174533,0.174533,-0.653793,-0.803593,-0.134061,0.14382,-0.0705631,-0.305185,-0.607084,0.460688
29,65,-0.654498,-0.814493,-0.174533,0.174533,-0.653793,-0.803593,-0.134061,0.14382,-0.0705631,-0.305185,-0.607084,0.460688
29,65,-0.654498,-0.814493,-0.174533,0.174533,-0.653793,-0.803593,-0.134061,0.14382,-0.0705631,-0.305185,-0.607084,0.460688
29,65,-0.654498,-0.814493,-0.174533,0.174533,-0.653793,-0.803593,-0.134061,0.14382,-0.0705631,-0.305185,-0.607084,0.460688
29,65,-0.654498,-0.814493,-0.174533,0.174533,-0.653793,-0.803593,-0.134061,0.14382,-0.0705631,-0.305185,-0.607084,0.460688
29,65,-0.654498,-0.814493,-0.174533,0.174533,-0.653793,-0.803593,-0.134061,0.14382,-0.0705631,-0.305185,-0.607084,0.460688
29,65,-0.654498,-0.814493,-0.174533,0.174533,-0.653793,-0.803593,-0.134061,0.14382,-0.0705631,-0.305185,-0.607084,0.460688
29,65,-0.654498,-0.814493,-0.174533,0.174533,-0.653793,-0.803593,-0.134061,0.14382,-0.0705631,-0.305185,-0.607084,0.460688
29,65,-0.654498,-0.814493,-0.174533,0.174533,-0.653793,-0.803593,-0.134061,0.14382,-0.0705631,-0.305185,-0.607084,0.460688
29,65,-0.654498,-0.814493,-0.174533,0.174533,-0.653793,-0.803593,-0.134061,0.14382,-0.0705631,-0.305185,-0.607084,0.460688
29,65,-0.654498,-0.814493,-0.174533,0.174533,-0.653793,-0.803593,-0.134061,0.14382,-0.0705631,-0.305185,-0.607084,0.460688
29,65,-0.654498,-0.814493,-0.174533,0.174533,-0.653793,-0.803593,-0.134061,0.14382,-0.0705631,-0.305185,-0.607084,0.460688
29,65,-0.654498,-0.814493,-0.174533,0.174533,-0.653793,-0.803593,-0.134061,0.14382,-0.0705631,-0.305185,-0.607084,0.460688
29,65,-0.654498,-0.814493,-0.174533,0.174533,-0.653793,-0.803593,-0.134061,0.14382,-0.0705631,-0.305185,-0.607084,0.460688
29,65,-0.654498,-0.814493,-0.174533,0.174533,-0.653793,-0.803593,-0.134061,0.14382,-0.0705631,-0.305185,-0.607084,0.460688
29,65,-0.654498,-0.814493,-0.174533,0.174533,-0.653793,-0.803593,-0.134061,0.14382,-0.0705631,-0.305185,-0.607084,0.460688
29,65,-0.654498,-0.814493,-0.174533,0.174533,-0.653793,-0.803593,-0.134061,0.14382,-0.0705631,-0.305185,-0.607084,0.460688
29,65,-0.654498,-0.814493,-0.174533,0.174533,-0.653793,-0.803593,-0.134061,0.14382,-0.0705631,-0.305185,-0.607084,0.460688
29,65,-0.654498,-0.814493,-0.174533,0.174533,-0.653793,-0.803593,-0.134061,0.14382,-0.0705631,-0.305185,-0.607084,0.460688
29,65,-0.654498,-0.814493,-0.174533,0.174533,-0.653793,-0.803593,-0.134061,0.14382,-0.0705631,-0.305185,-0.607084,0.460688
29,65,-0.654498,-0.814493,-0.174533,0.174533,-0.653793,-0.803593,-0.134061,0.14382,-0.0705631,-0.305185,-0.607084,0.460688
29,65,-0.654498,-0.814493,-0.174533,0.174533,-0.653793,-0.803593,-0.134061,0.14382,-0.0705631,-0.305185,-0.607084,0.460688
29,65,-0.654498,-0.814493,-0.174533,0.174533,-0.653793,-0.803593,-0.134061,0.14382,-0.0705631,-0.305185,-0.607084,0.460688
29,65,-0.654498,-0.814493,-0.174533,0.174533,-0.653793,-0.803593,-0.134061,0.14382,-0.0705631,-0.305185,-0.607084,0.460688
29,65,-0.654498,-0.814493,-0.174533,0.174533,-0.653793,-0.803593,-0.134061,0.14382,-0.0705631,-0.305185,-0.607084,0.460688
29,65,-0.654498,-0.814493,-0.174533,0.174533,-0.653793,-0.803593,-0.134061,0.14382,-0.0705631,-0.305185,-0.607084,0.460688
29,65,-0.654498,-0.814493,-0.174533,0.174533,-0.653793,-0.803593,-0.134061,0.14382,-0.0705631,-0.305185,-0.607084,0.460688
29,65,-0.654498,-0.814493,-0.174533,0.174533,-0.653793,-0.803593,-0.134061,0.14382,-0.0705631,-0.305185,-0.607084,0.460688
29,65,-0.654498,-0.814493,-0.174533,0.174533,-0.653793,-0.803593,-0.134061,0.14382,-0.0705631,-0.305185,-0.607084,0.460688
29,65,-0.654498,-0.814493,-0.174533,0.174533,-0.653793,-0.803593,-0.134061,0.14382,-0.0705631,-0.305185,-0.607084,0.460688
29,65,-0.654498,-0.814493,-0.174533,0.174533,-0.653793,-0.803593,-0.134061,0.14382,-0.0705631,-0.305185,-0.607084,0.460688
29,65,-0.654498,-0.814493,-0.174533,0.174533,-0.653793,-0.803593,-0.134061,0.14382,-0.0705631,-0.305185,-0.607084,0.460688
29,65,-0.654498,-0.814493,-0.174533,0.174533,-0.653793,-0.803593,-0.134061,0.14382,-0.0705631,-0.305185,-0.607084,0.460688
29,65,-0.654498,-0.814493,-0.174533,0.174533,-0.653793,-0.803593,-0.134061,0.14382,-0.0705631,-0.305185,-0.607084,0.460688
29,65,-0.654498,-0.814493,-0.174533,0.174533,-0.653793,-0.803593,-0.134061,0.14382,-0.0705631,-0.305185,-0.607084,0.460688
29,65,-0.654498,-0.814493,-0.174533,0.174533,-0.653793,-0.803593,-0.134061,0.14382,-0.0705631,-0.305185,-0.607084,0.460688
29,65,-0.654498,-0.814493,-0.174533,0.174533,-0.653793,-0.803593,-0.134061,0.14382,-0.0705631,-0.305185,-0.607084,0.460688
29,65,-0.654498,-0.814493,-0.174533,0.174533,-0.653793,-0.803593,-0.134061,0.14382,-0.0705631,-0.305185,-0.607084,0.460688
29,65,-0.654498,-0.814493,-0.174533,0.174533,-0.653793,-0.803593,-0.134061,0.14382,-0.0705631,-0.305185,-0.607084,0.460688
29,65,-0.654498,-0.814493,-0.174533,0.174533,-0.653793,-0.803593,-0.134057,0.14375,-0.0705631,-0.305185,-0.607142,0.461744
29,65,-0.654498,-0.814493,-0.174533,0.174533,-0.653793,-0.803593,-0.134057,0.14375,-0.0705631,-0.305185,-0.607142,0.461744
29,65,-0.654498,-0.814493,-0.174533,0.174533,-0.653793,-0.803593,-0.134057,0.14375,-0.0705631,-0.305185,-0.607142,0.461744
29,65,-0.654498,-0.814493,-0.174533,0.174533,-0.653793,-0.803593,-0.134057,0.14375,-0.0705631,-0.305185,-0.607142,0.461744
29,65,-0.654498,-0.814493,-0.174533,0.174533,-0.653793,-0.803593,-0.134057,0.14375,-0.0705631,-0.305185,-0.607142,0.461744
29,65,-0.654498,-0.814493,-0.174533,0.174533,-0.653793,-0.803593,-0.134057,0.14375,-0.0705631,-0.305185,-0.607142,0.461744
29,65,-0.654498,-0.814493,-0.174533,0.174533,-0.653793,-0.803593,-0.134057,0.14375,-0.0705631,-0.305185,-0.607142,0.461744
29,65,-0.654498,-0.814493,-0.174533,0.174533,-0.653793,-0.803593,-0.134057,0.14375,-0.0705631,-0.305185,-0.607142,0.461744
29,65,-0.654498,-0.814493,-0.174533,0.174533,-0.653793,-0.803593,-0.134057,0.14375,-0.0705631,-0.305185,-0.607142,0.461744
29,65,-0.654498,-0.814493,-0.174533,0.174533,-0.653793,-0.803593,-0.134057,0.14375,-0.0705631,-0.305185,-0.607142,0.461744
29,65,-0.654498,-0.814493,-0.174533,0.174533,-0.653793,-0.803593,-0.134057,0.14375,-0.0705631,-0.305185,-0.607142,0.461744
29,65,-0.654498,-0.814493,-0.174533,0.174533,-0.653793,-0.803593,-0.134057,0.14375,-0.0705631,-0.305185,-0.607142,0.461744
29,65,-0.654498,-0.814493,-0.174533,0.174533,-0.653793,-0.803593,-0.134057,0.14375,-0.0705631,-0.305185,-0.607142,0.461744
29,65,-0.654498,-0.814493,-0.174533,0.174533,-0.653793,-0.803593,-0.134057,0.14375,-0.0705631,-0.305185,-0.607142,0.461744
29,65,-0.654498,-0.814493,-0.174533,0.174533,-0.653793,-0.803593,-0.134057,0.14375,-0.0705631,-0.305185,-0.607142,0.461744
29,65,-0.654498,-0.814493,-0.174533,0.174533,-0.653793,-0.803593,-0.134057,0.14375,-0.0705631,-0.305185,-0.607142,0.461744
29,65,-0.654498,-0.814493,-0.174533,0.174533,-0.653793,-0.803593,-0.134057,0.14375,-0.0705631,-0.305185,-0.607142,0.461744
29,65,-0.654498,-0.814493,-0.174533,0.174533,-0.653793,-0.803593,-0.134106,0.143708,-0.0705631,-0.305185,-0.606404,0.462376
29,65,-0.654498,-0.814493,-0.174533,0.174533,-0.653793,-0.803593,-0.134106,0.143708,-0.0705631,-0.305185,-0.606404,0.462376
29,65,-0.654498,-0.814493,-0.174533,0.174533,-0.653793,-0.803593,-0.134106,0.143708,-0.0705631,-0.305185,-0.606404,0.462376
29,65,-0.654498,-0.814493,-0.174533,0.174533,-0.653793,-0.803593,-0.134106,0.143708,-0.0705631,-0.305185,-0.606404,0.462376
29,65,-0.654498,-0.814493,-0.174533,0.174533,-0.653793,-0.803593,-0.134106,0.143708,-0.0705631,-0.305185,-0.606404,0.462376
29,65,-0.654498,-0.814493,-0.174533,0.174533,-0.653793,-0.803593,-0.134106,0.143708,-0.0705631,-0.305185,-0.606404,0.462376
29,65,-0.654498,-0.814493,-0.174533,0.174533,-0.653793,-0.803593,-0.134106,0.143708,-0.0705631,-0.305185,-0.606404,0.462376
29,65,-0.654498,-0.814493,-0.174533,0.174533,-0.653793,-0.803593,-0.134106,0.143708,-0.0705631,-0.305185,-0.606404,0.462376
29,65,-0.654498,-0.814493,-0.174533,0.174533,-0.653793,-0.803593,-0.134106,0.143708,-0.0705631,-0.305185,-0.606404,0.462376
29,65,-0.654498,-0.814493,-0.174533,0.174533,-0.653793,-0.803593,-0.134106,0.143708,-0.0705631,-0.305185,-0.606404,0.462376
29,65,-0.654498,-0.814493,-0.174533,0.174533,-0.653793,-0.803593,-0.134106,0.143708,-0.0705631,-0.305185,-0.606404,0.462376
29,65,-0.654498,-0.814493,-0.174533,0.174533,-0.653793,-0.803593,-0.134106,0.143708,-0.0705631,-0.305185,-0.606404,0.462376
29,65,-0.654498,-0.814493,-0.174533,0.174533,-0.653793,-0.803593,-0.134106,0.143708,-0.0705631,-0.305185,-0.606404,0.462376
29,65,-0.654498,-0.814493,-0.174533,0.174533,-0.653793,-0.803593,-0.134106,0.143708,-0.0705631,-0.305185,-0.606404,0.462376
29,65,-0.654498,-0.814493,-0.174533,0.174533,-0.653793,-0.803593,-0.134106,0.143708,-0.0705631,-0.305185,-0.606404,0.462376
29,65,-0.654498,-0.814493,-0.174533,0.174533,-0.653793,-0.803593,-0.134106,0.143708,-0.0705631,-0.305185,-0.606404,0.462376
29,65,-0.654498,-0.814493,-0.174533,0.174533,-0.653793,-0.803593,-0.134106,0.143708,-0.0705631,-0.305185,-0.606404,0.462376
29,65,-0.654498,-0.814493,-0.174533,0.174533,-0.653793,-0.803593,-0.134106,0.143708,-0.0705631,-0.305185,-0.606404,0.462376
29,65,-0.654498,-0.814493,-0.174533,0.174533,-0.653793,-0.803593,-0.134106,0.143708,-0.0705631,-0.305185,-0.606404,0.462376
29,65,-0.654498,-0.814493,-0.174533,0.174533,-0.653793,-0.803593,-0.134106,0.143708,-0.0705631,-0.305185,-0.606404,0.462376
29,65,-0.654498,-0.814493,-0.174533,0.174533,-0.653793,-0.803593,-0.134106,0.143708,-0.0705631,-0.305185,-0.606404,0.462376
29,65,-0.654498,-0.814493,-0.174533,0.174533,-0.653793,-0.803593,-0.134106,0.143708,-0.0705631,-0.305185,-0.606404,0.462376
29,65,-0.654498,-0.814493,-0.174533,0.174533,-0.653793,-0.803593,-0.134106,0.143708,-0.0705631,-0.305185,-0.606404,0.462376
29,65,-0.654498,-0.814493,-0.174533,0.174533,-0.653793,-0.803593,-0.134106,0.143708,-0.0705631,-0.305185,-0.606404,0.462376
29,65,-0.654498,-0.814493,-0.174533,0.174533,-0.653793,-0.803593,-0.134106,0.143708,-0.0705631,-0.305185,-0.606404,0.462376
29,65,-0.654498,-0.814493,-0.174533,0.174533,-0.653793,-0.803593,-0.134106,0.143708,-0.0705631,-0.305185,-0.606404,0.462376
29,65,-0.654498,-0.814493,-0.174533,0.174533,-0.653793,-0.803593,-0.134102,0.143637,-0.0705631,-0.305185,-0.606462,0.463431
29,65,-0.654498,-0.814493,-0.174533,0.174533,-0.653793,-0.803593,-0.134102,0.143637,-0.0705631,-0.305185,-0.606462,0.463431
29,65,-0.654498,-0.814493,-0.174533,0.174533,-0.653793,-0.803593,-0.134102,0.143637,-0.0705631,-0.305185,-0.606462,0.463431
29,65,-0.654498,-0.814493,-0.174533,0.174533,-0.653793,-0.803593,-0.134102,0.143637,-0.0705631,-0.305185,-0.606462,0.463431
29,65,-0.654498,-0.814493,-0.174533,0.174533,-0.653793,-0.803593,-0.134102,0.143637,-0.0705631,-0.305185,-0.606462,0.463431
29,65,-0.654498,-0.814493,-0.174533,0.174533,-0.653793,-0.803593,-0.134102,0.143637,-0.0705631,-0.305185,-0.606462,0.463431
29,65,-0.654498,-0.814493,-0.174533,0.174533,-0.653793,-0.803593,-0.134102,0.143637,-0.0705631,-0.305185,-0.606462,0.463431
29,65,-0.654498,-0.814493,-0.174533,0.174533,-0.653793,-0.803593,-0.134102,0.143637,-0.0705631,-0.305185,-0.606462,0.463431
29,65,-0.654498,-0.814493,-0.174533,0.174533,-0.653793,-0.803593,-0.134102,0.143637,-0.0705631,-0.305185,-0.606462,0.463431
29,65,-0.654498,-0.814493,-0.174533,0.174533,-0.653793,-0.803593,-0.134102,0.143637,-0.0705631,-0.305185,-0.606462,0.463431
29,65,-0.654498,-0.814493,-0.174533,0.174533,-0.653793,-0.803593,-0.134102,0.143637,-0.0705631,-0.305185,-0.606462,0.463431
29,65,-0.654498,-0.814493,-0.174533,0.174533,-0.653793,-0.803593,-0.134102,0.143637,-0.0705631,-0.305185,-0.606462,0.463431
29,65,-0.654498,-0.814493,-0.174533,0.174533,-0.653793,-0.803593,-0.134102,0.143637,-0.0705631,-0.305185,-0.606462,0.463431
29,65,-0.654498,-0.814493,-0.174533,0.174533,-0.653793,-0.803593,-0.134102,0.143637,-0.0705631,-0.305185,-0.606462,0.463431
29,65,-0.654498,-0.814493,-0.174533,0.174533,-0.653793,-0.803593,-0.134102,0.143637,-0.0705631,-0.305185,-0.606462,0.463431
29,65,-0.654498,-0.814493,-0.174533,0.174533,-0.653793,-0.803593,-0.134102,0.143637,-0.0705631,-0.305185,-0.606462,0.463431
29,65,-0.654498,-0.814493,-0.174533,0.174533,-0.653793,-0.803593,-0.134102,0.143637,-0.0705631,-0.305185,-0.606462,0.463431
29,65,-0.654498,-0.814493,-0.174533,0.174533,-0.653793,-0.803593,-0.134102,0.143637,-0.0705631,-0.305185,-0.606462,0.463431
29,65,-0.654498,-0.814493,-0.174533,0.174533,-0.653793,-0.803593,-0.134102,0.143637,-0.0705631,-0.305185,-0.606462,0.463431
29,65,-0.654498,-0.814493,-0.174533,0.174533,-0.653793,-0.803593,-0.134102,0.143637,-0.0705631,-0.305185,-0.606462,0.463431
29,65,-0.654498,-0.814493,-0.174533,0.174533,-0.653793,-0.803593,-0.134102,0.143637,-0.0705631,-0.305185,-0.606462,0.463431
29,65,-0.654498,-0.814493,-0.174533,0.174533,-0.653793,-0.803593,-0.134102,0.143637,-0.0705631,-0.305185,-0.606462,0.463431
29,65,-0.654498,-0.814493,-0.174533,0.174533,-0.653793,-0.803593,-0.134102,0.143637,-0.0705631,-0.305185,-0.606462,0.463431
29,65,-0.654498,-0.814493,-0.174533,0.174533,-0.653793,-0.803593,-0.134102,0.143637,-0.0705631,-0.305185,-0.606462,0.463431
29,65,-0.654498,-0.814493,-0.174533,0.174533,-0.653793,-0.803593,-0.134102,0.143637,-0.0705631,-0.305185,-0.606462,0.463431
29,65,-0.654498,-0.814493,-0.174533,0.174533,-0.653793,-0.803593,-0.134102,0.143637,-0.0705631,-0.305185,-0.606462,0.463431
29,65,-0.654498,-0.814493,-0.174533,0.174533,-0.653793,-0.803593,-0.134102,0.143637,-0.0705631,-0.305185,-0.606462,0.463431
29,65,-0.654498,-0.814493,-0.174533,0.174533,-0.653793,-0.803593,-0.134102,0.143637,-0.0705631,-0.305185,-0.606462,0.463431
29,65,-0.654498,-0.814493,-0.174533,0.174533,-0.653793,-0.803593,-0.134102,0.143637,-0.0705631,-0.305185,-0.606462,0.463431
29,65,-0.654498,-0.814493,-0.174533,0.174533,-0.653793,-0.803593,-0.134102,0.143637,-0.0705631,-0.305185,-0.606462,0.463431
29,65,-0.654498,-0.814493,-0.174533,0.174533,-0.653793,-0.803593,-0.134102,0.143637,-0.0705631,-0.305185,-0.606462,0.463431
29,65,-0.654498,-0.814493,-0.174533,0.174533,-0.653793,-0.803593,-0.134102,0.143637,-0.0705631,-0.305185,-0.606462,0.463431
29,65,-0.654498,-0.814493,-0.174533,0.174533,-0.653793,-0.803593,-0.134102,0.143637,-0.0705631,-0.305185,-0.606462,0.463431
29,65,-0.654498,-0.814493,-0.174533,0.174533,-0.653793,-0.803593,-0.134102,0.143637,-0.0705631,-0.305185,-0.606462,0.463431
29,65,-0.654498,-0.814493,-0.174533,0.174533,-0.653793,-0.803593,-0.134102,0.143637,-0.0705631,-0.305185,-0.606462,0.463431
29,65,-0.654498,-0.814493,-0.174533,0.174533,-0.653793,-0.803593,-0.134102,0.143637,-0.0705631,-0.305185,-0.606462,0.463431
29,65,-0.654498,-0.814493,-0.174533,0.174533,-0.653793,-0.803593,-0.134102,0.143637,-0.0705631,-0.305185,-0.606462,0.463431
29,65,-0.654498,-0.814493,-0.174533,0.174533,-0.653793,-0.803593,-0.134102,0.143637,-0.0705631,-0.305185,-0.606462,0.463431
29,65,-0.654498,-0.814493,-0.174533,0.174533,-0.653793,-0.803593,-0.134102,0.143637,-0.0705631,-0.305185,-0.606462,0.463431
29,65,-0.654498,-0.814493,-0.174533,0.174533,-0.653793,-0.803593,-0.134102,0.143637,-0.0705631,-0.305185,-0.606462,0.463431
29,65,-0.654498,-0.814493,-0.174533,0.174533,-0.653793,-0.803593,-0.134102,0.143637,-0.0705631,-0.305185,-0.606462,0.463431
29,65,-0.654498,-0.814493,-0.174533,0.174533,-0.653793,-0.803593,-0.134102,0.143637,-0.0705631,-0.305185,-0.606462,0.463431
29,65,-0.654498,-0.814493,-0.174533,0.174533,-0.653793,-0.803593,-0.134102,0.143637,-0.0705631,-0.305185,-0.606462,0.463431
29,65,-0.654498,-0.814493,-0.174533,0.174533,-0.653793,-0.803593,-0.134102,0.143637,-0.0705631,-0.305185,-0.606462,0.463431
29,65,-0.654498,-0.814493,-0.174533,0.174533,-0.653793,-0.803593,-0.134102,0.143637,-0.0705631,-0.305185,-0.606462,0.463431
29,65,-0.654498,-0.814493,-0.174533,0.174533,-0.653793,-0.803593,-0.134102,0.143637,-0.0705631,-0.305185,-0.606462,0.463431
29,65,-0.654498,-0.814493,-0.174533,0.174533,-0.653793,-0.803593,-0.134102,0.143637,-0.0705631,-0.305185,-0.606462,0.463431
29,65,-0.654498,-0.814493,-0.174533,0.174533,-0.653793,-0.803593,-0.134102,0.143637,-0.0705631,-0.305185,-0.606462,0.463431
29,65,-0.654498,-0.814493,-0.174533,0.174533,-0.653793,-0.803593,-0.134102,0.143637,-0.0705631,-0.305185,-0.606462,0.463431
29,65,-0.654498,-0.814493,-0.174533,0.174533,-0.653793,-0.803593,-0.134102,0.143637,-0.0705631,-0.305185,-0.606462,0.463431
29,65,-0.654498,-0.814493,-0.174533,0.174533,-0.653793,-0.803593,-0.134102,0.143637,-0.0705631,-0.305185,-0.606462,0.463431
29,65,-0.654498,-0.814493,-0.174533,0.174533,-0.653793,-0.803593,-0.134102,0.143637,-0.0705631,-0.305185,-0.606462,0.463431
29,65,-0.654498,-0.814493,-0.174533,0.174533,-0.653793,-0.803593,-0.134102,0.143637,-0.0705631,-0.305185,-0.606462,0.463431
29,65,-0.654498,-0.814493,-0.174533,0.174533,-0.653793,-0.803593,-0.134102,0.143637,-0.0705631,-0.305185,-0.606462,0.463431
29,65,-0.654498,-0.814493,-0.174533,0.174533,-0.653793,-0.803593,-0.134102,0.143637,-0.0705631,-0.305185,-0.606462,0.463431
29,65,-0.654498,-0.814493,-0.174533,0.174533,-0.653793,-0.803593,-0.134102,0.143637,-0.0705631,-0.305185,-0.606462,0.463431
29,65,-0.654498,-0.814493,-0.174533,0.174533,-0.653793,-0.803593,-0.134102,0.143637,-0.0705631,-0.305185,-0.606462,0.463431
29,65,-0.654498,-0.814493,-0.174533,0.174533,-0.653793,-0.803593,-0.134102,0.143637,-0.0705631,-0.305185,-0.606462,0.463431
29,65,-0.654498,-0.814493,-0.174533,0.174533,-0.653793,-0.803593,-0.134102,0.143637,-0.0705631,-0.305185,-0.606462,0.463431
29,65,-0.654498,-0.814493,-0.174533,0.174533,-0.653793,-0.803593,-0.134098,0.143567,-0.0705631,-0.305185,-0.60652,0.464487
29,65,-0.654498,-0.814493,-0.174533,0.174533,-0.653793,-0.803593,-0.134098,0.143567,-0.0705631,-0.305185,-0.60652,0.464487
29,65,-0.654498,-0.814493,-0.174533,0.174533,-0.653793,-0.803593,-0.134098,0.143567,-0.0705631,-0.305185,-0.60652,0.464487
29,65,-0.654498,-0.814493,-0.174533,0.174533,-0.653793,-0.803593,-0.134098,0.143567,-0.0705631,-0.305185,-0.60652,0.464487
29,65,-0.654498,-0.814493,-0.174533,0.174533,-0.653793,-0.803593,-0.134098,0.143567,-0.0705631,-0.305185,-0.60652,0.464487
29,65,-0.654498,-0.814493,-0.174533,0.174533,-0.653793,-0.803593,-0.134098,0.143567,-0.0705631,-0.305185,-0.60652,0.464487
29,65,-0.654498,-0.814493,-0.174533,0.174533,-0.653793,-0.803593,-0.134098,0.143567,-0.0705631,-0.305185,-0.60652,0.464487
29,65,-0.654498,-0.814493,-0.174533,0.174533,-0.653793,-0.803593,-0.134098,0.143567,-0.0705631,-0.305185,-0.60652,0.464487
29,65,-0.654498,-0.814493,-0.174533,0.174533,-0.653793,-0.803593,-0.134098,0.143567,-0.0705631,-0.305185,-0.60652,0.464487
29,65,-0.654498,-0.814493,-0.174533,0.174533,-0.653793,-0.803593,-0.134098,0.143567,-0.0705631,-0.305185,-0.60652,0.464487
29,65,-0.654498,-0.814493,-0.174533,0.174533,-0.653793,-0.803593,-0.134098,0.143567,-0.0705631,-0.305185,-0.60652,0.464487
29,65,-0.654498,-0.814493,-0.174533,0.174533,-0.653793,-0.803593,-0.134098,0.143567,-0.0705631,-0.305185,-0.60652,0.464487
29,65,-0.654498,-0.814493,-0.174533,0.174533,-0.653793,-0.803593,-0.134098,0.143567,-0.0705631,-0.305185,-0.60652,0.464487
29,65,-0.654498,-0.814493,-0.174533,0.174533,-0.653793,-0.803593,-0.134098,0.143567,-0.0705631,-0.305185,-0.60652,0.464487
29,65,-0.654498,-0.814493,-0.174533,0.174533,-0.653793,-0.803593,-0.134098,0.143567,-0.0705631,-0.305185,-0.60652,0.464487
29,65,-0.654498,-0.814493,-0.174533,0.174533,-0.653793,-0.803593,-0.134098,0.143567,-0.0705631,-0.305185,-0.60652,0.464487
29,65,-0.654498,-0.814493,-0.174533,0.174533,-0.653793,-0.803593,-0.134098,0.143567,-0.0705631,-0.305185,-0.60652,0.464487
29,65,-0.654498,-0.814493,-0.174533,0.174533,-0.653793,-0.803593,-0.134098,0.143567,-0.0705631,-0.305185,-0.60652,0.464487
29,65,-0.654498,-0.814493,-0.174533,0.174533,-0.653793,-0.803593,-0.134098,0.143567,-0.0705631,-0.305185,-0.60652,0.464487
29,65,-0.654498,-0.814493,-0.174533,0.174533,-0.653793,-0.803593,-0.134098,0.143567,-0.0705631,-0.305185,-0.60652,0.464487
29,65,-0.654498,-0.814493,-0.174533,0.174533,-0.653793,-0.803593,-0.134098,0.143567,-0.0705631,-0.305185,-0.60652,0.464487
29,65,-0.654498,-0.814493,-0.174533,0.174533,-0.653793,-0.803593,-0.134098,0.143567,-0.0705631,-0.305185,-0.60652,0.464487
29,65,-0.654498,-0.814493,-0.174533,0.174533,-0.653793,-0.803593,-0.134094,0.143497,-0.0705631,-0.305185,-0.606578,0.465542
29,65,-0.654498,-0.814493,-0.174533,0.174533,-0.653793,-0.803593,-0.134094,0.143497,-0.0705631,-0.305185,-0.606578,0.465542
29,65,-0.654498,-0.814493,-0.174533,0.174533,-0.653793,-0.803593,-0.134094,0.143497,-0.0705631,-0.305185,-0.606578,0.465542
29,65,-0.654498,-0.814493,-0.174533,0.174533,-0.653793,-0.803593,-0.134094,0.143497,-0.0705631,-0.305185,-0.606578,0.465542
29,65,-0.654498,-0.814493,-0.174533,0.174533,-0.653793,-0.803593,-0.134094,0.143497,-0.0705631,-0.305185,-0.606578,0.465542
29,65,-0.654498,-0.814493,-0.174533,0.174533,-0.653793,-0.803593,-0.134094,0.143497,-0.0705631,-0.305185,-0.606578,0.465542
29,65,-0.654498,-0.814493,-0.174533,0.174533,-0.653793,-0.803593,-0.134094,0.143497,-0.0705631,-0.305185,-0.606578,0.465542
29,65,-0.654498,-0.814493,-0.174533,0.174533,-0.653793,-0.803593,-0.134094,0.143497,-0.0705631,-0.305185,-0.606578,0.465542
29,65,-0.654498,-0.814493,-0.174533,0.174533,-0.653793,-0.803593,-0.134094,0.143497,-0.0705631,-0.305185,-0.606578,0.465542
29,65,-0.654498,-0.814493,-0.174533,0.174533,-0.653793,-0.803593,-0.134094,0.143497,-0.0705631,-0.305185,-0.606578,0.465542
29,65,-0.654498,-0.814493,-0.174533,0.174533,-0.653793,-0.803593,-0.134094,0.143497,-0.0705631,-0.305185,-0.606578,0.465542
29,65,-0.654498,-0.814493,-0.174533,0.174533,-0.653793,-0.803593,-0.134094,0.143497,-0.0705631,-0.305185,-0.606578,0.465542
29,65,-0.654498,-0.814493,-0.174533,0.174533,-0.653793,-0.803593,-0.134094,0.143497,-0.0705631,-0.305185,-0.606578,0.465542
29,65,-0.654498,-0.814493,-0.174533,0.174533,-0.653793,-0.803593,-0.134094,0.143497,-0.0705631,-0.305185,-0.606578,0.465542
29,65,-0.654498,-0.814493,-0.174533,0.174533,-0.653793,-0.803593,-0.134094,0.143497,-0.0705631,-0.305185,-0.606578,0.465542
29,65,-0.654498,-0.814493,-0.174533,0.174533,-0.653793,-0.803593,-0.134094,0.143497,-0.0705631,-0.305185,-0.606578,0.465542
29,65,-0.654498,-0.814493,-0.174533,0.174533,-0.653793,-0.803593,-0.134094,0.143497,-0.0705631,-0.305185,-0.606578,0.465542
29,65,-0.654498,-0.814493,-0.174533,0.174533,-0.653793,-0.803593,-0.134094,0.143497,-0.0705631,-0.305185,-0.606578,0.465542
29,65,-0.654498,-0.814493,-0.174533,0.174533,-0.653793,-0.803593,-0.134094,0.143497,-0.0705631,-0.305185,-0.606578,0.465542
29,65,-0.654498,-0.814493,-0.174533,0.174533,-0.653793,-0.803593,-0.134094,0.143497,-0.0705631,-0.305185,-0.606578,0.465542
29,65,-0.654498,-0.814493,-0.174533,0.174533,-0.653793,-0.803593,-0.134094,0.143497,-0.0705631,-0.305185,-0.606578,0.465542
29,65,-0.654498,-0.814493,-0.174533,0.174533,-0.653793,-0.803593,-0.134094,0.143497,-0.0705631,-0.305185,-0.606578,0.465542
29,65,-0.654498,-0.814493,-0.174533,0.174533,-0.653793,-0.803593,-0.134094,0.143497,-0.0705631,-0.305185,-0.606578,0.465542
29,65,-0.654498,-0.814493,-0.174533,0.174533,-0.653793,-0.803593,-0.134094,0.143497,-0.0705631,-0.305185,-0.606578,0.465542
29,65,-0.654498,-0.814493,-0.174533,0.174533,-0.653793,-0.803593,-0.134094,0.143497,-0.0705631,-0.305185,-0.606578,0.465542
29,65,-0.654498,-0.814493,-0.174533,0.174533,-0.653793,-0.803593,-0.134094,0.143497,-0.0705631,-0.305185,-0.606578,0.465542
29,65,-0.654498,-0.814493,-0.174533,0.174533,-0.653793,-0.803593,-0.134094,0.143497,-0.0705631,-0.305185,-0.606578,0.465542
29,65,-0.654498,-0.814493,-0.174533,0.174533,-0.653793,-0.803593,-0.134094,0.143497,-0.0705631,-0.305185,-0.606578,0.465542
29,65,-0.654498,-0.814493,-0.174533,0.174533,-0.653793,-0.803593,-0.134094,0.143497,-0.0705631,-0.305185,-0.606578,0.465542
29,65,-0.654498,-0.814493,-0.174533,0.174533,-0.653793,-0.803593,-0.134094,0.143497,-0.0705631,-0.305185,-0.606578,0.465542
29,65,-0.654498,-0.814493,-0.174533,0.174533,-0.653793,-0.803593,-0.134094,0.143497,-0.0705631,-0.305185,-0.606578,0.465542
29,65,-0.654498,-0.814493,-0.174533,0.174533,-0.653793,-0.803593,-0.134094,0.143497,-0.0705631,-0.305185,-0.606578,0.465542
29,65,-0.654498,-0.814493,-0.174533,0.174533,-0.653793,-0.803593,-0.134094,0.143497,-0.0705631,-0.305185,-0.606578,0.465542
29,65,-0.654498,-0.814493,-0.174533,0.174533,-0.653793,-0.803593,-0.134091,0.143426,-0.0705631,-0.305185,-0.606636,0.466598
29,65,-0.654498,-0.814493,-0.174533,0.174533,-0.653793,-0.803593,-0.134091,0.143426,-0.0705631,-0.305185,-0.606636,0.466598
29,65,-0.654498,-0.814493,-0.174533,0.174533,-0.653793,-0.803593,-0.134091,0.143426,-0.0705631,-0.305185,-0.606636,0.466598
29,65,-0.654498,-0.814493,-0.174533,0.174533,-0.653793,-0.803593,-0.134091,0.143426,-0.0705631,-0.305185,-0.606636,0.466598
29,65,-0.654498,-0.814493,-0.174533,0.174533,-0.653793,-0.803593,-0.134091,0.143426,-0.0705631,-0.305185,-0.606636,0.466598
29,65,-0.654498,-0.814493,-0.174533,0.174533,-0.653793,-0.803593,-0.134091,0.143426,-0.0705631,-0.305185,-0.606636,0.466598
29,65,-0.654498,-0.814493,-0.174533,0.174533,-0.653793,-0.803593,-0.134091,0.143426,-0.0705631,-0.305185,-0.606636,0.466598
29,65,-0.654498,-0.814493,-0.174533,0.174533,-0.653793,-0.803593,-0.134091,0.143426,-0.0705631,-0.305185,-0.606636,0.466598
29,65,-0.654498,-0.814493,-0.174533,0.174533,-0.653793,-0.803593,-0.134091,0.143426,-0.0705631,-0.305185,-0.606636,0.466598
29,65,-0.654498,-0.814493,-0.174533,0.174533,-0.653793,-0.803593,-0.134091,0.143426,-0.0705631,-0.305185,-0.606636,0.466598
29,65,-0.654498,-0.814493,-0.174533,0.174533,-0.653793,-0.803593,-0.134091,0.143426,-0.0705631,-0.305185,-0.606636,0.466598
29,65,-0.654498,-0.814493,-0.174533,0.174533,-0.653793,-0.803593,-0.134091,0.143426,-0.0705631,-0.305185,-0.606636,0.466598
29,65,-0.654498,-0.814493,-0.174533,0.174533,-0.653793,-0.803593,-0.134091,0.143426,-0.0705631,-0.305185,-0.606636,0.466598
29,65,-0.654498,-0.814493,-0.174533,0.174533,-0.653793,-0.803593,-0.134091,0.143426,-0.0705631,-0.305185,-0.606636,0.466598
29,65,-0.654498,-0.814493,-0.174533,0.174533,-0.653793,-0.803593,-0.134091,0.143426,-0.0705631,-0.305185,-0.606636,0.466598
29,65,-0.654498,-0.814493,-0.174533,0.174533,-0.653793,-0.803593,-0.134091,0.143426,-0.0705631,-0.305185,-0.606636,0.466598
29,65,-0.654498,-0.814493,-0.174533,0.174533,-0.653793,-0.803593,-0.134091,0.143426,-0.0705631,-0.305185,-0.606636,0.466598
29,65,-0.654498,-0.814493,-0.174533,0.174533,-0.653793,-0.803593,-0.134091,0.143426,-0.0705631,-0.305185,-0.606636,0.466598
29,65,-0.654498,-0.814493,-0.174533,0.174533,-0.653793,-0.803593,-0.134091,0.143426,-0.0705631,-0.305185,-0.606636,0.466598
29,65,-0.654498,-0.814493,-0.174533,0.174533,-0.653793,-0.803593,-0.134091,0.143426,-0.0705631,-0.305185,-0.606636,0.466598
29,65,-0.654498,-0.814493,-0.174533,0.174533,-0.653793,-0.803593,-0.134091,0.143426,-0.0705631,-0.305185,-0.606636,0.466598
29,65,-0.654498,-0.814493,-0.174533,0.174533,-0.653793,-0.803593,-0.134091,0.143426,-0.0705631,-0.305185,-0.606636,0.466598
29,65,-0.654498,-0.814493,-0.174533,0.174533,-0.653793,-0.803593,-0.134091,0.143426,-0.0705631,-0.305185,-0.606636,0.466598
29,65,-0.654498,-0.814493,-0.174533,0.174533,-0.653793,-0.803593,-0.134091,0.143426,-0.0705631,-0.305185,-0.606636,0.466598
29,65,-0.654498,-0.814493,-0.174533,0.174533,-0.653793,-0.803593,-0.134091,0.143426,-0.0705631,-0.305185,-0.606636,0.466598
29,65,-0.654498,-0.814493,-0.174533,0.174533,-0.653793,-0.803593,-0.134091,0.143426,-0.0705631,-0.305185,-0.606636,0.466598
29,65,-0.654498,-0.814493,-0.174533,0.174533,-0.653793,-0.803593,-0.134091,0.143426,-0.0705631,-0.305185,-0.606636,0.466598
29,65,-0.654498,-0.814493,-0.174533,0.174533,-0.653793,-0.803593,-0.134091,0.143426,-0.0705631,-0.305185,-0.606636,0.466598
29,65,-0.654498,-0.814493,-0.174533,0.174533,-0.653793,-0.803593,-0.134091,0.143426,-0.0705631,-0.305185,-0.606636,0.466598
29,65,-0.654498,-0.814493,-0.174533,0.174533,-0.653793,-0.803593,-0.134091,0.143426,-0.0705631,-0.305185,-0.606636,0.466598
29,65,-0.654498,-0.814493,-0.174533,0.174533,-0.653793,-0.803593,-0.134091,0.143426,-0.0705631,-0.305185,-0.606636,0.466598
29,65,-0.654498,-0.814493,-0.174533,0.174533,-0.653793,-0.803593,-0.134091,0.143426,-0.0705631,-0.305185,-0.606636,0.466598
29,65,-0.654498,-0.814493,-0.174533,0.174533,-0.653793,-0.803593,-0.134091,0.143426,-0.0705631,-0.305185,-0.606636,0.466598
29,65,-0.654498,-0.814493,-0.174533,0.174533,-0.653793,-0.803593,-0.134091,0.143426,-0.0705631,-0.305185,-0.606636,0.466598
29,65,-0.654498,-0.814493,-0.174533,0.174533,-0.653793,-0.803593,-0.134091,0.143426,-0.0705631,-0.305185,-0.606636,0.466598
29,65,-0.654498,-0.814493,-0.174533,0.174533,-0.653793,-0.803593,-0.134091,0.143426,-0.0705631,-0.305185,-0.606636,0.466598
29,65,-0.654498,-0.814493,-0.174533,0.174533,-0.653793,-0.803593,-0.134091,0.143426,-0.0705631,-0.305185,-0.606636,0.466598
29,65,-0.654498,-0.814493,-0.174533,0.174533,-0.653793,-0.803593,-0.134091,0.143426,-0.0705631,-0.305185,-0.606636,0.466598
29,65,-0.654498,-0.814493,-0.174533,0.174533,-0.653793,-0.803593,-0.134091,0.143426,-0.0705631,-0.305185,-0.606636,0.466598
29,65,-0.654498,-0.814493,-0.174533,0.174533,-0.653793,-0.803593,-0.134091,0.143426,-0.0705631,-0.305185,-0.606636,0.466598
29,65,-0.654498,-0.814493,-0.174533,0.174533,-0.653793,-0.803593,-0.134091,0.143426,-0.0705631,-0.305185,-0.606636,0.466598
29,65,-0.654498,-0.814493,-0.174533,0.174533,-0.653793,-0.803593,-0.134091,0.143426,-0.0705631,-0.305185,-0.606636,0.466598
29,65,-0.654498,-0.814493,-0.174533,0.174533,-0.653793,-0.803593,-0.134091,0.143426,-0.0705631,-0.305185,-0.606636,0.466598
29,65,-0.654498,-0.814493,-0.174533,0.174533,-0.653793,-0.803593,-0.134091,0.143426,-0.0705631,-0.305185,-0.606636,0.466598
29,65,-0.654498,-0.814493,-0.174533,0.174533,-0.653793,-0.803593,-0.134091,0.143426,-0.0705631,-0.305185,-0.606636,0.466598
29,65,-0.654498,-0.814493,-0.174533,0.174533,-0.653793,-0.803593,-0.134091,0.143426,-0.0705631,-0.305185,-0.606636,0.466598
29,65,-0.654498,-0.814493,-0.174533,0.174533,-0.653793,-0.803593,-0.134091,0.143426,-0.0705631,-0.305185,-0.606636,0.466598
29,65,-0.654498,-0.814493,-0.174533,0.174533,-0.653793,-0.803593,-0.134091,0.143426,-0.0705631,-0.305185,-0.606636,0.466598
29,65,-0.654498,-0.814493,-0.174533,0.174533,-0.653793,-0.803593,-0.134091,0.143426,-0.0705631,-0.305185,-0.606636,0.466598
29,65,-0.654498,-0.814493,-0.174533,0.174533,-0.653793,-0.803593,-0.134091,0.143426,-0.0705631,-0.305185,-0.606636,0.466598
29,65,-0.654498,-0.814493,-0.174533,0.174533,-0.653793,-0.803593,-0.134091,0.143426,-0.0705631,-0.305185,-0.606636,0.466598
29,65,-0.654498,-0.814493,-0.174533,0.174533,-0.653793,-0.803593,-0.134091,0.143426,-0.0705631,-0.305185,-0.606636,0.466598
29,65,-0.654498,-0.814493,-0.174533,0.174533,-0.653793,-0.803593,-0.134091,0.143426,-0.0705631,-0.305185,-0.606636,0.466598
29,65,-0.654498,-0.814493,-0.174533,0.174533,-0.653793,-0.803593,-0.134091,0.143426,-0.0705631,-0.305185,-0.606636,0.466598
29,65,-0.654498,-0.814493,-0.174533,0.174533,-0.653793,-0.803593,-0.134091,0.143426,-0.0705631,-0.305185,-0.606636,0.466598
29,65,-0.654498,-0.814493,-0.174533,0.174533,-0.653793,-0.803593,-0.134091,0.143426,-0.0705631,-0.305185,-0.606636,0.466598
29,65,-0.654498,-0.814493,-0.174533,0.174533,-0.653793,-0.803593,-0.134091,0.143426,-0.0705631,-0.305185,-0.606636,0.466598
29,65,-0.654498,-0.814493,-0.174533,0.174533,-0.653793,-0.803593,-0.134091,0.143426,-0.0705631,-0.305185,-0.606636,0.466598
29,65,-0.654498,-0.814493,-0.174533,0.174533,-0.653793,-0.803593,-0.134091,0.143426,-0.0705631,-0.305185,-0.606636,0.466598
29,65,-0.654498,-0.814493,-0.174533,0.174533,-0.653793,-0.803593,-0.134091,0.143426,-0.0705631,-0.305185,-0.606636,0.466598
29,65,-0.654498,-0.814493,-0.174533,0.174533,-0.653793,-0.803593,-0.134091,0.143426,-0.0705631,-0.305185,-0.606636,0.466598
29,65,-0.654498,-0.814493,-0.174533,0.174533,-0.653793,-0.803593,-0.134091,0.143426,-0.0705631,-0.305185,-0.606636,0.466598
29,65,-0.654498,-0.814493,-0.174533,0.174533,-0.653793,-0.803593,-0.134091,0.143426,-0.0705631,-0.305185,-0.606636,0.466598
29,65,-0.654498,-0.814493,-0.174533,0.174533,-0.653793,-0.803593,-0.134091,0.143426,-0.0705631,-0.305185,-0.606636,0.466598
29,65,-0.654498,-0.814493,-0.174533,0.174533,-0.653793,-0.803593,-0.134091,0.143426,-0.0705631,-0.305185,-0.606636,0.466598
29,65,-0.654498,-0.814493,-0.174533,0.174533,-0.653793,-0.803593,-0.134091,0.143426,-0.0705631,-0.305185,-0.606636,0.466598
29,65,-0.654498,-0.814493,-0.174533,0.174533,-0.653793,-0.803593,-0.134091,0.143426,-0.0705631,-0.305185,-0.606636,0.466598
29,65,-0.654498,-0.814493,-0.174533,0.174533,-0.653793,-0.803593,-0.134091,0.143426,-0.0705631,-0.305185,-0.606636,0.466598
29,65,-0.654498,-0.814493,-0.174533,0.174533,-0.653793,-0.803593,-0.134091,0.143426,-0.0705631,-0.305185,-0.606636,0.466598
29,65,-0.654498,-0.814493,-0.174533,0.174533,-0.653793,-0.803593,-0.134091,0.143426,-0.0705631,-0.305185,-0.606636,0.466598
29,65,-0.654498,-0.814493,-0.174533,0.174533,-0.653793,-0.803593,-0.134091,0.143426,-0.0705631,-0.305185,-0.606636,0.466598
29,65,-0.654498,-0.814493,-0.174533,0.174533,-0.653793,-0.803593,-0.134091,0.143426,-0.0705631,-0.305185,-0.606636,0.466598
29,65,-0.654498,-0.814493,-0.174533,0.174533,-0.653793,-0.803593,-0.134091,0.143426,-0.0705631,-0.305185,-0.606636,0.466598
29,65,-0.654498,-0.814493,-0.174533,0.174533,-0.653793,-0.803593,-0.134091,0.143426,-0.0705631,-0.305185,-0.606636,0.466598
29,65,-0.654498,-0.814493,-0.174533,0.174533,-0.653793,-0.803593,-0.134091,0.143426,-0.0705631,-0.305185,-0.606636,0.466598
29,65,-0.654498,-0.814493,-0.174533,0.174533,-0.653793,-0.803593,-0.134091,0.143426,-0.0705631,-0.305185,-0.606636,0.466598
29,65,-0.654498,-0.814493,-0.174533,0.174533,-0.653793,-0.803593,-0.134091,0.143426,-0.0705631,-0.305185,-0.606636,0.466598
29,65,-0.654498,-0.814493,-0.174533,0.174533,-0.653793,-0.803593,-0.134091,0.143426,-0.0705631,-0.305185,-0.606636,0.466598
29,65,-0.654498,-0.814493,-0.174533,0.174533,-0.653793,-0.803593,-0.134091,0.143426,-0.0705631,-0.305185,-0.606636,0.466598
29,65,-0.654498,-0.814493,-0.174533,0.174533,-0.653793,-0.803593,-0.134091,0.143426,-0.0705631,-0.305185,-0.606636,0.466598
29,65,-0.654498,-0.814493,-0.174533,0.174533,-0.653793,-0.803593,-0.134091,0.143426,-0.0705631,-0.305185,-0.606636,0.466598
29,65,-0.654498,-0.814493,-0.174533,0.174533,-0.653793,-0.803593,-0.134091,0.143426,-0.0705631,-0.305185,-0.606636,0.466598
29,65,-0.654498,-0.814493,-0.174533,0.174533,-0.653793,-0.803593,-0.134091,0.143426,-0.0705631,-0.305185,-0.606636,0.466598
29,65,-0.654498,-0.814493,-0.174533,0.174533,-0.653793,-0.803593,-0.134091,0.143426,-0.0705631,-0.305185,-0.606636,0.466598
29,65,-0.654498,-0.814493,-0.174533,0.174533,-0.653793,-0.803593,-0.134091,0.143426,-0.0705631,-0.305185,-0.606636,0.466598
29,65,-0.654498,-0.814493,-0.174533,0.174533,-0.653793,-0.803593,-0.134091,0.143426,-0.0705631,-0.305185,-0.606636,0.466598
29,65,-0.654498,-0.814493,-0.174533,0.174533,-0.653793,-0.803593,-0.134091,0.143426,-0.0705631,-0.305185,-0.606636,0.466598
29,65,-0.654498,-0.814493,-0.174533,0.174533,-0.653793,-0.803593,-0.134091,0.143426,-0.0705631,-0.305185,-0.606636,0.466598
29,65,-0.654498,-0.814493,-0.174533,0.174533,-0.653793,-0.803593,-0.134091,0.143426,-0.0705631,-0.305185,-0.606636,0.466598
29,65,-0.654498,-0.814493,-0.174533,0.174533,-0.653793,-0.803593,-0.134091,0.143426,-0.0705631,-0.305185,-0.606636,0.466598
29,65,-0.654498,-0.814493,-0.174533,0.174533,-0.653793,-0.803593,-0.134091,0.143426,-0.0705631,-0.305185,-0.606636,0.466598
29,65,-0.654498,-0.814493,-0.174533,0.174533,-0.653793,-0.803593,-0.134091,0.143426,-0.0705631,-0.305185,-0.606636,0.466598
29,65,-0.654498,-0.814493,-0.174533,0.174533,-0.653793,-0.803593,-0.134091,0.143426,-0.0705631,-0.305185,-0.606636,0.466598
29,65,-0.654498,-0.814493,-0.174533,0.174533,-0.653793,-0.803593,-0.134091,0.143426,-0.0705631,-0.305185,-0.606636,0.466598
29,65,-0.654498,-0.814493,-0.174533,0.174533,-0.653793,-0.803593,-0.134091,0.143426,-0.0705631,-0.305185,-0.606636,0.466598
29,65,-0.654498,-0.814493,-0.174533,0.174533,-0.653793,-0.803593,-0.134091,0.143426,-0.0705631,-0.305185,-0.606636,0.466598
29,65,-0.654498,-0.814493,-0.174533,0.174533,-0.653793,-0.803593,-0.134091,0.143426,-0.0705631,-0.305185,-0.606636,0.466598
29,65,-0.654498,-0.814493,-0.174533,0.174533,-0.653793,-0.803593,-0.134091,0.143426,-0.0705631,-0.305185,-0.606636,0.466598
29,65,-0.654498,-0.814493,-0.174533,0.174533,-0.653793,-0.803593,-0.134091,0.143426,-0.0705631,-0.305185,-0.606636,0.466598
29,65,-0.654498,-0.814493,-0.174533,0.174533,-0.653793,-0.803593,-0.134091,0.143426,-0.0705631,-0.305185,-0.606636,0.466598
29,65,-0.654498,-0.814493,-0.174533,0.174533,-0.653793,-0.803593,-0.134091,0.143426,-0.0705631,-0.305185,-0.606636,0.466598
29,65,-0.654498,-0.814493,-0.174533,0.174533,-0.653793,-0.803593,-0.134091,0.143426,-0.0705631,-0.305185,-0.606636,0.466598
29,65,-0.654498,-0.814493,-0.174533,0.174533,-0.653793,-0.803593,-0.134091,0.143426,-0.0705631,-0.305185,-0.606636,0.466598
29,65,-0.654498,-0.814493,-0.174533,0.174533,-0.653793,-0.803593,-0.134091,0.143426,-0.0705631,-0.305185,-0.606636,0.466598
29,65,-0.654498,-0.814493,-0.174533,0.174533,-0.653793,-0.803593,-0.134091,0.143426,-0.0705631,-0.305185,-0.606636,0.466598
29,65,-0.654498,-0.814493,-0.174533,0.174533,-0.653793,-0.803593,-0.134091,0.143426,-0.0705631,-0.305185,-0.606636,0.466598
29,65,-0.654498,-0.814493,-0.174533,0.174533,-0.653793,-0.803593,-0.134091,0.143426,-0.0705631,-0.305185,-0.606636,0.466598
29,65,-0.654498,-0.814493,-0.174533,0.174533,-0.653793,-0.803593,-0.134091,0.143426,-0.0705631,-0.305185,-0.606636,0.466598
29,65,-0.654498,-0.814493,-0.174533,0.174533,-0.653793,-0.803593,-0.134091,0.143426,-0.0705631,-0.305185,-0.606636,0.466598
29,65,-0.654498,-0.814493,-0.174533,0.174533,-0.653793,-0.803593,-0.134091,0.143426,-0.0705631,-0.305185,-0.606636,0.466598
29,65,-0.654498,-0.814493,-0.174533,0.174533,-0.653793,-0.803593,-0.134091,0.143426,-0.0705631,-0.305185,-0.606636,0.466598
29,65,-0.654498,-0.814493,-0.174533,0.174533,-0.653793,-0.803593,-0.134091,0.143426,-0.0705631,-0.305185,-0.606636,0.466598
29,65,-0.654498,-0.814493,-0.174533,0.174533,-0.653793,-0.803593,-0.134091,0.143426,-0.0705631,-0.305185,-0.606636,0.466598
29,65,-0.654498,-0.814493,-0.174533,0.174533,-0.653793,-0.803593,-0.134091,0.143426,-0.0705631,-0.305185,-0.606636,0.466598
29,65,-0.654498,-0.814493,-0.174533,0.174533,-0.653793,-0.803593,-0.134091,0.143426,-0.0705631,-0.305185,-0.606636,0.466598
29,65,-0.654498,-0.814493,-0.174533,0.174533,-0.653793,-0.803593,-0.134091,0.143426,-0.0705631,-0.305185,-0.606636,0.466598
29,65,-0.654498,-0.814493,-0.174533,0.174533,-0.653793,-0.803593,-0.134091,0.143426,-0.0705631,-0.305185,-0.606636,0.466598
29,65,-0.654498,-0.814493,-0.174533,0.174533,-0.653793,-0.803593,-0.134091,0.143426,-0.0705631,-0.305185,-0.606636,0.466598
29,65,-0.654498,-0.814493,-0.174533,0.174533,-0.653793,-0.803593,-0.134091,0.143426,-0.0705631,-0.305185,-0.606636,0.466598
29,65,-0.654498,-0.814493,-0.174533,0.174533,-0.653793,-0.803593,-0.134087,0.143356,-0.0705631,-0.305185,-0.606694,0.467653
29,65,-0.654498,-0.814493,-0.174533,0.174533,-0.653793,-0.803593,-0.134087,0.143356,-0.0705631,-0.305185,-0.606694,0.467653
29,65,-0.654498,-0.814493,-0.174533,0.174533,-0.653793,-0.803593,-0.134087,0.143356,-0.0705631,-0.305185,-0.606694,0.467653
29,65,-0.654498,-0.814493,-0.174533,0.174533,-0.653793,-0.803593,-0.134087,0.143356,-0.0705631,-0.305185,-0.606694,0.467653
29,65,-0.654498,-0.814493,-0.174533,0.174533,-0.653793,-0.803593,-0.134087,0.143356,-0.0705631,-0.305185,-0.606694,0.467653
29,65,-0.654498,-0.814493,-0.174533,0.174533,-0.653793,-0.803593,-0.134087,0.143356,-0.0705631,-0.305185,-0.606694,0.467653
29,65,-0.654498,-0.814493,-0.174533,0.174533,-0.653793,-0.803593,-0.134087,0.143356,-0.0705631,-0.305185,-0.606694,0.467653
29,65,-0.654498,-0.814493,-0.174533,0.174533,-0.653793,-0.803593,-0.134087,0.143356,-0.0705631,-0.305185,-0.606694,0.467653
29,65,-0.654498,-0.814493,-0.174533,0.174533,-0.653793,-0.803593,-0.134087,0.143356,-0.0705631,-0.305185,-0.606694,0.467653
29,65,-0.654498,-0.814493,-0.174533,0.174533,-0.653793,-0.803593,-0.134087,0.143356,-0.0705631,-0.305185,-0.606694,0.467653
29,65,-0.654498,-0.814493,-0.174533,0.174533,-0.653793,-0.803593,-0.134087,0.143356,-0.0705631,-0.305185,-0.606694,0.467653
29,65,-0.654498,-0.814493,-0.174533,0.174533,-0.653793,-0.803593,-0.134087,0.143356,-0.0705631,-0.305185,-0.606694,0.467653
29,65,-0.654498,-0.814493,-0.174533,0.174533,-0.653793,-0.803593,-0.134087,0.143356,-0.0705631,-0.305185,-0.606694,0.467653
29,65,-0.654498,-0.814493,-0.174533,0.174533,-0.653793,-0.803593,-0.134087,0.143356,-0.0705631,-0.305185,-0.606694,0.467653
29,65,-0.654498,-0.814493,-0.174533,0.174533,-0.653793,-0.803593,-0.134087,0.143356,-0.0705631,-0.305185,-0.606694,0.467653
29,65,-0.654498,-0.814493,-0.174533,0.174533,-0.653793,-0.803593,-0.134087,0.143356,-0.0705631,-0.305185,-0.606694,0.467653
29,65,-0.654498,-0.814493,-0.174533,0.174533,-0.653793,-0.803593,-0.134087,0.143356,-0.0705631,-0.305185,-0.606694,0.467653
29,65,-0.654498,-0.814493,-0.174533,0.174533,-0.653793,-0.803593,-0.134087,0.143356,-0.0705631,-0.305185,-0.606694,0.467653
29,65,-0.654498,-0.814493,-0.174533,0.174533,-0.653793,-0.803593,-0.134087,0.143356,-0.0705631,-0.305185,-0.606694,0.467653
29,65,-0.654498,-0.814493,-0.174533,0.174533,-0.653793,-0.803593,-0.134087,0.143356,-0.0705631,-0.305185,-0.606694,0.467653
29,65,-0.654498,-0.814493,-0.174533,0.174533,-0.653793,-0.803593,-0.134087,0.143356,-0.0705631,-0.305185,-0.606694,0.467653
29,65,-0.654498,-0.814493,-0.174533,0.174533,-0.653793,-0.803593,-0.134087,0.143356,-0.0705631,-0.305185,-0.606694,0.467653
29,65,-0.654498,-0.814493,-0.174533,0.174533,-0.653793,-0.803593,-0.134087,0.143356,-0.0705631,-0.305185,-0.606694,0.467653
29,65,-0.654498,-0.814493,-0.174533,0.174533,-0.653793,-0.803593,-0.134087,0.143356,-0.0705631,-0.305185,-0.606694,0.467653
29,65,-0.654498,-0.814493,-0.174533,0.174533,-0.653793,-0.803593,-0.134087,0.143356,-0.0705631,-0.305185,-0.606694,0.467653
29,65,-0.654498,-0.814493,-0.174533,0.174533,-0.653793,-0.803593,-0.134087,0.143356,-0.0705631,-0.305185,-0.606694,0.467653
29,65,-0.654498,-0.814493,-0.174533,0.174533,-0.653793,-0.803593,-0.134087,0.143356,-0.0705631,-0.305185,-0.606694,0.467653
29,65,-0.654498,-0.814493,-0.174533,0.174533,-0.653793,-0.803593,-0.134087,0.143356,-0.0705631,-0.305185,-0.606694,0.467653
29,65,-0.654498,-0.814493,-0.174533,0.174533,-0.653793,-0.803593,-0.134087,0.143356,-0.0705631,-0.305185,-0.606694,0.467653
29,65,-0.654498,-0.814493,-0.174533,0.174533,-0.653793,-0.803593,-0.134087,0.143356,-0.0705631,-0.305185,-0.606694,0.467653
29,65,-0.654498,-0.814493,-0.174533,0.174533,-0.653793,-0.803593,-0.134087,0.143356,-0.0705631,-0.305185,-0.606694,0.467653
29,65,-0.654498,-0.814493,-0.174533,0.174533,-0.653793,-0.803593,-0.134087,0.143356,-0.0705631,-0.305185,-0.606694,0.467653
29,65,-0.654498,-0.814493,-0.174533,0.174533,-0.653793,-0.803593,-0.134087,0.143356,-0.0705631,-0.305185,-0.606694,0.467653
29,65,-0.654498,-0.814493,-0.174533,0.174533,-0.653793,-0.803593,-0.134087,0.143356,-0.0705631,-0.305185,-0.606694,0.467653
29,65,-0.654498,-0.814493,-0.174533,0.174533,-0.653793,-0.803593,-0.134087,0.143356,-0.0705631,-0.305185,-0.606694,0.467653
29,65,-0.654498,-0.814493,-0.174533,0.174533,-0.653793,-0.803593,-0.134087,0.143356,-0.0705631,-0.305185,-0.606694,0.467653
29,65,-0.654498,-0.814493,-0.174533,0.174533,-0.653793,-0.803593,-0.134087,0.143356,-0.0705631,-0.305185,-0.606694,0.467653
29,65,-0.654498,-0.814493,-0.174533,0.174533,-0.653793,-0.803593,-0.134083,0.143286,-0.0705631,-0.305185,-0.606752,0.468708
29,65,-0.654498,-0.814493,-0.174533,0.174533,-0.653793,-0.803593,-0.134083,0.143286,-0.0705631,-0.305185,-0.606752,0.468708
29,65,-0.654498,-0.814493,-0.174533,0.174533,-0.653793,-0.803593,-0.134083,0.143286,-0.0705631,-0.305185,-0.606752,0.468708
29,65,-0.654498,-0.814493,-0.174533,0.174533,-0.653793,-0.803593,-0.134083,0.143286,-0.0705631,-0.305185,-0.606752,0.468708
29,65,-0.654498,-0.814493,-0.174533,0.174533,-0.653793,-0.803593,-0.134083,0.143286,-0.0705631,-0.305185,-0.606752,0.468708
29,65,-0.654498,-0.814493,-0.174533,0.174533,-0.653793,-0.803593,-0.134083,0.143286,-0.0705631,-0.305185,-0.606752,0.468708
29,65,-0.654498,-0.814493,-0.174533,0.174533,-0.653793,-0.803593,-0.134083,0.143286,-0.0705631,-0.305185,-0.606752,0.468708
29,65,-0.654498,-0.814493,-0.174533,0.174533,-0.653793,-0.803593,-0.134083,0.143286,-0.0705631,-0.305185,-0.606752,0.468708
29,65,-0.654498,-0.814493,-0.174533,0.174533,-0.653793,-0.803593,-0.134083,0.143286,-0.0705631,-0.305185,-0.606752,0.468708
29,65,-0.654498,-0.814493,-0.174533,0.174533,-0.653793,-0.803593,-0.134083,0.143286,-0.0705631,-0.305185,-0.606752,0.468708
29,65,-0.654498,-0.814493,-0.174533,0.174533,-0.653793,-0.803593,-0.134083,0.143286,-0.0705631,-0.305185,-0.606752,0.468708
29,65,-0.654498,-0.814493,-0.174533,0.174533,-0.653793,-0.803593,-0.134083,0.143286,-0.0705631,-0.305185,-0.606752,0.468708
29,65,-0.654498,-0.814493,-0.174533,0.174533,-0.653793,-0.803593,-0.134083,0.143286,-0.0705631,-0.305185,-0.606752,0.468708
29,65,-0.654498,-0.814493,-0.174533,0.174533,-0.653793,-0.803593,-0.134083,0.143286,-0.0705631,-0.305185,-0.606752,0.468708
29,65,-0.654498,-0.814493,-0.174533,0.174533,-0.653793,-0.803593,-0.134083,0.143286,-0.0705631,-0.305185,-0.606752,0.468708
29,65,-0.654498,-0.814493,-0.174533,0.174533,-0.653793,-0.803593,-0.134083,0.143286,-0.0705631,-0.305185,-0.606752,0.468708
29,65,-0.654498,-0.814493,-0.174533,0.174533,-0.653793,-0.803593,-0.134083,0.143286,-0.0705631,-0.305185,-0.606752,0.468708
29,65,-0.654498,-0.814493,-0.174533,0.174533,-0.653793,-0.803593,-0.134083,0.143286,-0.0705631,-0.305185,-0.606752,0.468708
29,65,-0.654498,-0.814493,-0.174533,0.174533,-0.653793,-0.803593,-0.134083,0.143286,-0.0705631,-0.305185,-0.606752,0.468708
29,65,-0.654498,-0.814493,-0.174533,0.174533,-0.653793,-0.803593,-0.134083,0.143286,-0.0705631,-0.305185,-0.606752,0.468708
29,65,-0.654498,-0.814493,-0.174533,0.174533,-0.653793,-0.803593,-0.134083,0.143286,-0.0705631,-0.305185,-0.606752,0.468708
29,65,-0.654498,-0.814493,-0.174533,0.174533,-0.653793,-0.803593,-0.134083,0.143286,-0.0705631,-0.305185,-0.606752,0.468708
29,65,-0.654498,-0.814493,-0.174533,0.174533,-0.653793,-0.803593,-0.134083,0.143286,-0.0705631,-0.305185,-0.606752,0.468708
29,65,-0.654498,-0.814493,-0.174533,0.174533,-0.653793,-0.803593,-0.134083,0.143286,-0.0705631,-0.305185,-0.606752,0.468708
29,65,-0.654498,-0.814493,-0.174533,0.174533,-0.653793,-0.803593,-0.134083,0.143286,-0.0705631,-0.305185,-0.606752,0.468708
29,65,-0.654498,-0.814493,-0.174533,0.174533,-0.653793,-0.803593,-0.134083,0.143286,-0.0705631,-0.305185,-0.606752,0.468708
29,65,-0.654498,-0.814493,-0.174533,0.174533,-0.653793,-0.803593,-0.134083,0.143286,-0.0705631,-0.305185,-0.606752,0.468708
29,65,-0.654498,-0.814493,-0.174533,0.174533,-0.653793,-0.803593,-0.134083,0.143286,-0.0705631,-0.305185,-0.606752,0.468708
29,65,-0.654498,-0.814493,-0.174533,0.174533,-0.653793,-0.803593,-0.134083,0.143286,-0.0705631,-0.305185,-0.606752,0.468708
29,65,-0.654498,-0.814493,-0.174533,0.174533,-0.653793,-0.803593,-0.134083,0.143286,-0.0705631,-0.305185,-0.606752,0.468708
29,65,-0.654498,-0.814493,-0.174533,0.174533,-0.653793,-0.803593,-0.134083,0.143286,-0.0705631,-0.305185,-0.606752,0.468708
29,65,-0.654498,-0.814493,-0.174533,0.174533,-0.653793,-0.803593,-0.134132,0.143244,-0.0705631,-0.305185,-0.606014,0.46934
29,65,-0.654498,-0.814493,-0.174533,0.174533,-0.653793,-0.803593,-0.134132,0.143244,-0.0705631,-0.305185,-0.606014,0.46934
29,65,-0.654498,-0.814493,-0.174533,0.174533,-0.653793,-0.803593,-0.134132,0.143244,-0.0705631,-0.305185,-0.606014,0.46934
29,65,-0.654498,-0.814493,-0.174533,0.174533,-0.653793,-0.803593,-0.134132,0.143244,-0.0705631,-0.305185,-0.606014,0.46934
29,65,-0.654498,-0.814493,-0.174533,0.174533,-0.653793,-0.803593,-0.134132,0.143244,-0.0705631,-0.305185,-0.606014,0.46934
29,65,-0.654498,-0.814493,-0.174533,0.174533,-0.653793,-0.803593,-0.134132,0.143244,-0.0705631,-0.305185,-0.606014,0.46934
29,65,-0.654498,-0.814493,-0.174533,0.174533,-0.653793,-0.803593,-0.134132,0.143244,-0.0705631,-0.305185,-0.606014,0.46934
29,65,-0.654498,-0.814493,-0.174533,0.174533,-0.653793,-0.803593,-0.134132,0.143244,-0.0705631,-0.305185,-0.606014,0.46934
29,65,-0.654498,-0.814493,-0.174533,0.174533,-0.653793,-0.803593,-0.134132,0.143244,-0.0705631,-0.305185,-0.606014,0.46934
29,65,-0.654498,-0.814493,-0.174533,0.174533,-0.653793,-0.803593,-0.134132,0.143244,-0.0705631,-0.305185,-0.606014,0.46934
29,65,-0.654498,-0.814493,-0.174533,0.174533,-0.653793,-0.803593,-0.134132,0.143244,-0.0705631,-0.305185,-0.606014,0.46934
29,65,-0.654498,-0.814493,-0.174533,0.174533,-0.653793,-0.803593,-0.134132,0.143244,-0.0705631,-0.305185,-0.606014,0.46934
29,65,-0.654498,-0.814493,-0.174533,0.174533,-0.653793,-0.803593,-0.134132,0.143244,-0.0705631,-0.305185,-0.606014,0.46934
29,65,-0.654498,-0.814493,-0.174533,0.174533,-0.653793,-0.803593,-0.134132,0.143244,-0.0705631,-0.305185,-0.606014,0.46934
29,65,-0.654498,-0.814493,-0.174533,0.174533,-0.653793,-0.803593,-0.134132,0.143244,-0.0705631,-0.305185,-0.606014,0.46934
29,65,-0.654498,-0.814493,-0.174533,0.174533,-0.653793,-0.803593,-0.134132,0.143244,-0.0705631,-0.305185,-0.606014,0.46934
29,65,-0.654498,-0.814493,-0.174533,0.174533,-0.653793,-0.803593,-0.134132,0.143244,-0.0705631,-0.305185,-0.606014,0.46934
29,65,-0.654498,-0.814493,-0.174533,0.174533,-0.653793,-0.803593,-0.134132,0.143244,-0.0705631,-0.305185,-0.606014,0.46934
29,65,-0.654498,-0.814493,-0.174533,0.174533,-0.653793,-0.803593,-0.134132,0.143244,-0.0705631,-0.305185,-0.606014,0.46934
29,65,-0.654498,-0.814493,-0.174533,0.174533,-0.653793,-0.803593,-0.134132,0.143244,-0.0705631,-0.305185,-0.606014,0.46934
29,65,-0.654498,-0.814493,-0.174533,0.174533,-0.653793,-0.803593,-0.134132,0.143244,-0.0705631,-0.305185,-0.606014,0.46934
29,65,-0.654498,-0.814493,-0.174533,0.174533,-0.653793,-0.803593,-0.134132,0.143244,-0.0705631,-0.305185,-0.606014,0.46934
29,65,-0.654498,-0.814493,-0.174533,0.174533,-0.653793,-0.803593,-0.134132,0.143244,-0.0705631,-0.305185,-0.606014,0.46934
29,65,-0.654498,-0.814493,-0.174533,0.174533,-0.653793,-0.803593,-0.134132,0.143244,-0.0705631,-0.305185,-0.606014,0.46934
29,65,-0.654498,-0.814493,-0.174533,0.174533,-0.653793,-0.803593,-0.134132,0.143244,-0.0705631,-0.305185,-0.606014,0.46934
29,65,-0.654498,-0.814493,-0.174533,0.174533,-0.653793,-0.803593,-0.134132,0.143244,-0.0705631,-0.305185,-0.606014,0.46934
29,65,-0.654498,-0.814493,-0.174533,0.174533,-0.653793,-0.803593,-0.134132,0.143244,-0.0705631,-0.305185,-0.606014,0.46934
29,65,-0.654498,-0.814493,-0.174533,0.174533,-0.653793,-0.803593,-0.134132,0.143244,-0.0705631,-0.305185,-0.606014,0.46934
29,65,-0.654498,-0.814493,-0.174533,0.174533,-0.653793,-0.803593,-0.134132,0.143244,-0.0705631,-0.305185,-0.606014,0.46934
29,65,-0.654498,-0.814493,-0.174533,0.174533,-0.653793,-0.803593,-0.134132,0.143244,-0.0705631,-0.305185,-0.606014,0.46934
29,65,-0.654498,-0.814493,-0.174533,0.174533,-0.653793,-0.803644,-0.134132,0.143244,-0.0705631,-0.303761,-0.606014,0.46934
29,65,-0.654498,-0.814493,-0.174533,0.174533,-0.653793,-0.803644,-0.134132,0.143244,-0.0705631,-0.303761,-0.606014,0.46934
29,65,-0.654498,-0.814493,-0.174533,0.174533,-0.653793,-0.803644,-0.134132,0.143244,-0.0705631,-0.303761,-0.606014,0.46934
29,65,-0.654498,-0.814493,-0.174533,0.174533,-0.653793,-0.803644,-0.134132,0.143244,-0.0705631,-0.303761,-0.606014,0.46934
29,65,-0.654498,-0.814493,-0.174533,0.174533,-0.653793,-0.803644,-0.134132,0.143244,-0.0705631,-0.303761,-0.606014,0.46934
29,65,-0.654498,-0.814493,-0.174533,0.174533,-0.653793,-0.803644,-0.134132,0.143244,-0.0705631,-0.303761,-0.606014,0.46934
29,65,-0.654498,-0.814493,-0.174533,0.174533,-0.653793,-0.803644,-0.134132,0.143244,-0.0705631,-0.303761,-0.606014,0.46934
29,65,-0.654498,-0.814493,-0.174533,0.174533,-0.653793,-0.803644,-0.134132,0.143244,-0.0705631,-0.303761,-0.606014,0.46934
29,65,-0.654498,-0.814493,-0.174533,0.174533,-0.653793,-0.803644,-0.134132,0.143244,-0.0705631,-0.303761,-0.606014,0.46934
29,65,-0.654498,-0.814493,-0.174533,0.174533,-0.653793,-0.803644,-0.134132,0.143244,-0.0705631,-0.303761,-0.606014,0.46934
29,65,-0.654498,-0.814493,-0.174533,0.174533,-0.653793,-0.803644,-0.134132,0.143244,-0.0705631,-0.303761,-0.606014,0.46934
29,65,-0.654498,-0.814493,-0.174533,0.174533,-0.653793,-0.803644,-0.134132,0.143244,-0.0705631,-0.303761,-0.606014,0.46934
29,65,-0.654498,-0.814493,-0.174533,0.174533,-0.653793,-0.803644,-0.134132,0.143244,-0.0705631,-0.303761,-0.606014,0.46934
29,65,-0.654498,-0.814493,-0.174533,0.174533,-0.653793,-0.803644,-0.134132,0.143244,-0.0705631,-0.303761,-0.606014,0.46934
29,65,-0.654498,-0.814493,-0.174533,0.174533,-0.653793,-0.803644,-0.134132,0.143244,-0.0705631,-0.303761,-0.606014,0.46934
29,65,-0.654498,-0.814493,-0.174533,0.174533,-0.653793,-0.803644,-0.134132,0.143244,-0.0705631,-0.303761,-0.606014,0.46934
29,65,-0.654498,-0.814493,-0.174533,0.174533,-0.653793,-0.803644,-0.134132,0.143244,-0.0705631,-0.303761,-0.606014,0.46934
29,65,-0.654498,-0.814493,-0.174533,0.174533,-0.653793,-0.803644,-0.134132,0.143244,-0.0705631,-0.303761,-0.606014,0.46934
29,65,-0.654498,-0.814493,-0.174533,0.174533,-0.653793,-0.803644,-0.134132,0.143244,-0.0705631,-0.303761,-0.606014,0.46934
29,65,-0.654498,-0.814493,-0.174533,0.174533,-0.653793,-0.803644,-0.134132,0.143244,-0.0705631,-0.303761,-0.606014,0.46934
29,65,-0.654498,-0.814493,-0.174533,0.174533,-0.653793,-0.803644,-0.134132,0.143244,-0.0705631,-0.303761,-0.606014,0.46934
29,65,-0.654498,-0.814493,-0.174533,0.174533,-0.653793,-0.803644,-0.134132,0.143244,-0.0705631,-0.303761,-0.606014,0.46934
29,65,-0.654498,-0.814493,-0.174533,0.174533,-0.653793,-0.803644,-0.134132,0.143244,-0.0705631,-0.303761,-0.606014,0.46934
29,65,-0.654498,-0.814493,-0.174533,0.174533,-0.653793,-0.803644,-0.134132,0.143244,-0.0705631,-0.303761,-0.606014,0.46934
29,65,-0.654498,-0.814493,-0.174533,0.174533,-0.653793,-0.803644,-0.134132,0.143244,-0.0705631,-0.303761,-0.606014,0.46934
29,65,-0.654498,-0.814493,-0.174533,0.174533,-0.653793,-0.803644,-0.134128,0.143173,-0.0705631,-0.303761,-0.606072,0.470395
29,65,-0.654498,-0.814493,-0.174533,0.174533,-0.653793,-0.803644,-0.134128,0.143173,-0.0705631,-0.303761,-0.606072,0.470395
29,65,-0.654498,-0.814493,-0.174533,0.174533,-0.653793,-0.803644,-0.134128,0.143173,-0.0705631,-0.303761,-0.606072,0.470395
29,65,-0.654498,-0.814493,-0.174533,0.174533,-0.653793,-0.803644,-0.134128,0.143173,-0.0705631,-0.303761,-0.606072,0.470395
29,65,-0.654498,-0.814493,-0.174533,0.174533,-0.653793,-0.803644,-0.134128,0.143173,-0.0705631,-0.303761,-0.606072,0.470395
29,65,-0.654498,-0.814493,-0.174533,0.174533,-0.653793,-0.803644,-0.134128,0.143173,-0.0705631,-0.303761,-0.606072,0.470395
29,65,-0.654498,-0.814493,-0.174533,0.174533,-0.653793,-0.803644,-0.134128,0.143173,-0.0705631,-0.303761,-0.606072,0.470395
29,65,-0.654498,-0.814493,-0.174533,0.174533,-0.653793,-0.803644,-0.134128,0.143173,-0.0705631,-0.303761,-0.606072,0.470395
29,65,-0.654498,-0.814493,-0.174533,0.174533,-0.653793,-0.803644,-0.134128,0.143173,-0.0705631,-0.303761,-0.606072,0.470395
29,65,-0.654498,-0.814493,-0.174533,0.174533,-0.653793,-0.803644,-0.134128,0.143173,-0.0705631,-0.303761,-0.606072,0.470395
29,65,-0.654498,-0.814493,-0.174533,0.174533,-0.653793,-0.803644,-0.134128,0.143173,-0.0705631,-0.303761,-0.606072,0.470395
29,65,-0.654498,-0.814493,-0.174533,0.174533,-0.653793,-0.803644,-0.134128,0.143173,-0.0705631,-0.303761,-0.606072,0.470395
29,65,-0.654498,-0.814493,-0.174533,0.174533,-0.653793,-0.803644,-0.134128,0.143173,-0.0705631,-0.303761,-0.606072,0.470395
29,65,-0.654498,-0.814493,-0.174533,0.174533,-0.653793,-0.803644,-0.134128,0.143173,-0.0705631,-0.303761,-0.606072,0.470395
29,65,-0.654498,-0.814493,-0.174533,0.174533,-0.653793,-0.803644,-0.134128,0.143173,-0.0705631,-0.303761,-0.606072,0.470395
29,65,-0.654498,-0.814493,-0.174533,0.174533,-0.653793,-0.803644,-0.134128,0.143173,-0.0705631,-0.303761,-0.606072,0.470395
29,65,-0.654498,-0.814493,-0.174533,0.174533,-0.653793,-0.803644,-0.134128,0.143173,-0.0705631,-0.303761,-0.606072,0.470395
29,65,-0.654498,-0.814493,-0.174533,0.174533,-0.653793,-0.803644,-0.134128,0.143173,-0.0705631,-0.303761,-0.606072,0.470395
29,65,-0.654498,-0.814493,-0.174533,0.174533,-0.653793,-0.803644,-0.134128,0.143173,-0.0705631,-0.303761,-0.606072,0.470395
29,65,-0.654498,-0.814493,-0.174533,0.174533,-0.653793,-0.803644,-0.134128,0.143173,-0.0705631,-0.303761,-0.606072,0.470395
29,65,-0.654498,-0.814493,-0.174533,0.174533,-0.653793,-0.803644,-0.134128,0.143173,-0.0705631,-0.303761,-0.606072,0.470395
29,65,-0.654498,-0.814493,-0.174533,0.174533,-0.653793,-0.803644,-0.134128,0.143173,-0.0705631,-0.303761,-0.606072,0.470395
29,65,-0.654498,-0.814493,-0.174533,0.174533,-0.653793,-0.803644,-0.134128,0.143173,-0.0705631,-0.303761,-0.606072,0.470395
29,65,-0.654498,-0.814493,-0.174533,0.174533,-0.653793,-0.803644,-0.134128,0.143173,-0.0705631,-0.303761,-0.606072,0.470395
29,65,-0.654498,-0.814493,-0.174533,0.174533,-0.653793,-0.803644,-0.134128,0.143173,-0.0705631,-0.303761,-0.606072,0.470395
29,65,-0.654498,-0.814493,-0.174533,0.174533,-0.653793,-0.803644,-0.134128,0.143173,-0.0705631,-0.303761,-0.606072,0.470395
29,65,-0.654498,-0.814493,-0.174533,0.174533,-0.653793,-0.803644,-0.134128,0.143173,-0.0705631,-0.303761,-0.606072,0.470395
29,65,-0.654498,-0.814493,-0.174533,0.174533,-0.653793,-0.803644,-0.134128,0.143173,-0.0705631,-0.303761,-0.606072,0.470395
29,65,-0.654498,-0.814493,-0.174533,0.174533,-0.653793,-0.803644,-0.134128,0.143173,-0.0705631,-0.303761,-0.606072,0.470395
29,65,-0.654498,-0.814493,-0.174533,0.174533,-0.653793,-0.803644,-0.134128,0.143173,-0.0705631,-0.303761,-0.606072,0.470395
29,65,-0.654498,-0.814493,-0.174533,0.174533,-0.653793,-0.803644,-0.134128,0.143173,-0.0705631,-0.303761,-0.606072,0.470395
29,65,-0.654498,-0.814493,-0.174533,0.174533,-0.653793,-0.803644,-0.134128,0.143173,-0.0705631,-0.303761,-0.606072,0.470395
29,65,-0.654498,-0.814493,-0.174533,0.174533,-0.653793,-0.803644,-0.134128,0.143173,-0.0705631,-0.303761,-0.606072,0.470395
29,65,-0.654498,-0.814493,-0.174533,0.174533,-0.653793,-0.803644,-0.134128,0.143173,-0.0705631,-0.303761,-0.606072,0.470395
29,65,-0.654498,-0.814493,-0.174533,0.174533,-0.653793,-0.803644,-0.134128,0.143173,-0.0705631,-0.303761,-0.606072,0.470395
29,65,-0.654498,-0.814493,-0.174533,0.174533,-0.653793,-0.803644,-0.134128,0.143173,-0.0705631,-0.303761,-0.606072,0.470395
29,65,-0.654498,-0.814493,-0.174533,0.174533,-0.653793,-0.803644,-0.134128,0.143173,-0.0705631,-0.303761,-0.606072,0.470395
29,65,-0.654498,-0.814493,-0.174533,0.174533,-0.653793,-0.803644,-0.134128,0.143173,-0.0705631,-0.303761,-0.606072,0.470395
29,65,-0.654498,-0.814493,-0.174533,0.174533,-0.653793,-0.803644,-0.134128,0.143173,-0.0705631,-0.303761,-0.606072,0.470395
29,65,-0.654498,-0.814493,-0.174533,0.174533,-0.653793,-0.803644,-0.134128,0.143173,-0.0705631,-0.303761,-0.606072,0.470395
29,65,-0.654498,-0.814493,-0.174533,0.174533,-0.653793,-0.803644,-0.134128,0.143173,-0.0705631,-0.303761,-0.606072,0.470395
29,65,-0.654498,-0.814493,-0.174533,0.174533,-0.653793,-0.803644,-0.134128,0.143173,-0.0705631,-0.303761,-0.606072,0.470395
29,65,-0.654498,-0.814493,-0.174533,0.174533,-0.653793,-0.803644,-0.134128,0.143173,-0.0705631,-0.303761,-0.606072,0.470395
29,65,-0.654498,-0.814493,-0.174533,0.174533,-0.653793,-0.803644,-0.134128,0.143173,-0.0705631,-0.303761,-0.606072,0.470395
29,65,-0.654498,-0.814493,-0.174533,0.174533,-0.653793,-0.803644,-0.134128,0.143173,-0.0705631,-0.303761,-0.606072,0.470395
29,65,-0.654498,-0.814493,-0.174533,0.174533,-0.653793,-0.803644,-0.134128,0.143173,-0.0705631,-0.303761,-0.606072,0.470395
29,65,-0.654498,-0.814493,-0.174533,0.174533,-0.653793,-0.803644,-0.134128,0.143173,-0.0705631,-0.303761,-0.606072,0.470395
29,65,-0.654498,-0.814493,-0.174533,0.174533,-0.653793,-0.803644,-0.134128,0.143173,-0.0705631,-0.303761,-0.606072,0.470395
29,65,-0.654498,-0.814493,-0.174533,0.174533,-0.653793,-0.803644,-0.134128,0.143173,-0.0705631,-0.303761,-0.606072,0.470395
29,65,-0.654498,-0.814493,-0.174533,0.174533,-0.653793,-0.803644,-0.134128,0.143173,-0.0705631,-0.303761,-0.606072,0.470395
29,65,-0.654498,-0.814493,-0.174533,0.174533,-0.653793,-0.803644,-0.134128,0.143173,-0.0705631,-0.303761,-0.606072,0.470395
29,65,-0.654498,-0.814493,-0.174533,0.174533,-0.653793,-0.803644,-0.134128,0.143173,-0.0705631,-0.303761,-0.606072,0.470395
29,65,-0.654498,-0.814493,-0.174533,0.174533,-0.653793,-0.803644,-0.134128,0.143173,-0.0705631,-0.303761,-0.606072,0.470395
29,65,-0.654498,-0.814493,-0.174533,0.174533,-0.653793,-0.803644,-0.134128,0.143173,-0.0705631,-0.303761,-0.606072,0.470395
29,65,-0.654498,-0.814493,-0.174533,0.174533,-0.653793,-0.803644,-0.134124,0.143103,-0.0705631,-0.303761,-0.60613,0.47145
29,65,-0.654498,-0.814493,-0.174533,0.174533,-0.653793,-0.803644,-0.134124,0.143103,-0.0705631,-0.303761,-0.60613,0.47145
29,65,-0.654498,-0.814493,-0.174533,0.174533,-0.653793,-0.803644,-0.134124,0.143103,-0.0705631,-0.303761,-0.60613,0.47145
29,65,-0.654498,-0.814493,-0.174533,0.174533,-0.653793,-0.803644,-0.134124,0.143103,-0.0705631,-0.303761,-0.60613,0.47145
29,65,-0.654498,-0.814493,-0.174533,0.174533,-0.653793,-0.803644,-0.134124,0.143103,-0.0705631,-0.303761,-0.60613,0.47145
29,65,-0.654498,-0.814493,-0.174533,0.174533,-0.653793,-0.803644,-0.134124,0.143103,-0.0705631,-0.303761,-0.60613,0.47145
29,65,-0.654498,-0.814493,-0.174533,0.174533,-0.653793,-0.803644,-0.134124,0.143103,-0.0705631,-0.303761,-0.60613,0.47145
29,65,-0.654498,-0.814493,-0.174533,0.174533,-0.653793,-0.803644,-0.134124,0.143103,-0.0705631,-0.303761,-0.60613,0.47145
29,65,-0.654498,-0.814493,-0.174533,0.174533,-0.653793,-0.803644,-0.134124,0.143103,-0.0705631,-0.303761,-0.60613,0.47145
29,65,-0.654498,-0.814493,-0.174533,0.174533,-0.653793,-0.803644,-0.134124,0.143103,-0.0705631,-0.303761,-0.60613,0.47145
29,65,-0.654498,-0.814493,-0.174533,0.174533,-0.653793,-0.803644,-0.134124,0.143103,-0.0705631,-0.303761,-0.60613,0.47145
29,65,-0.654498,-0.814493,-0.174533,0.174533,-0.653793,-0.803644,-0.134124,0.143103,-0.0705631,-0.303761,-0.60613,0.47145
29,65,-0.654498,-0.814493,-0.174533,0.174533,-0.653793,-0.803644,-0.134124,0.143103,-0.0705631,-0.303761,-0.60613,0.47145
29,65,-0.654498,-0.814493,-0.174533,0.174533,-0.653793,-0.803644,-0.134124,0.143103,-0.0705631,-0.303761,-0.60613,0.47145
29,65,-0.654498,-0.814493,-0.174533,0.174533,-0.653793,-0.803644,-0.134124,0.143103,-0.0705631,-0.303761,-0.60613,0.47145
29,65,-0.654498,-0.814493,-0.174533,0.174533,-0.653793,-0.803644,-0.134124,0.143103,-0.0705631,-0.303761,-0.60613,0.47145
29,65,-0.654498,-0.814493,-0.174533,0.174533,-0.653793,-0.803644,-0.134124,0.143103,-0.0705631,-0.303761,-0.60613,0.47145
29,65,-0.654498,-0.814493,-0.174533,0.174533,-0.653793,-0.803644,-0.134124,0.143103,-0.0705631,-0.303761,-0.60613,0.47145
29,65,-0.654498,-0.814493,-0.174533,0.174533,-0.653793,-0.803644,-0.134124,0.143103,-0.0705631,-0.303761,-0.60613,0.47145
29,65,-0.654498,-0.814493,-0.174533,0.174533,-0.653793,-0.803644,-0.134124,0.143103,-0.0705631,-0.303761,-0.60613,0.47145
29,65,-0.654498,-0.814493,-0.174533,0.174533,-0.653793,-0.803644,-0.134124,0.143103,-0.0705631,-0.303761,-0.60613,0.47145
29,65,-0.654498,-0.814493,-0.174533,0.174533,-0.653793,-0.803644,-0.13412,0.143033,-0.0705631,-0.303761,-0.606188,0.472505
29,65,-0.654498,-0.814493,-0.174533,0.174533,-0.653793,-0.803644,-0.13412,0.143033,-0.0705631,-0.303761,-0.606188,0.472505
29,65,-0.654498,-0.814493,-0.174533,0.174533,-0.653793,-0.803644,-0.13412,0.143033,-0.0705631,-0.303761,-0.606188,0.472505
29,65,-0.654498,-0.814493,-0.174533,0.174533,-0.653793,-0.803644,-0.13412,0.143033,-0.0705631,-0.303761,-0.606188,0.472505
29,65,-0.654498,-0.814493,-0.174533,0.174533,-0.653793,-0.803644,-0.13412,0.143033,-0.0705631,-0.303761,-0.606188,0.472505
29,65,-0.654498,-0.814493,-0.174533,0.174533,-0.653793,-0.803644,-0.13412,0.143033,-0.0705631,-0.303761,-0.606188,0.472505
29,65,-0.654498,-0.814493,-0.174533,0.174533,-0.653793,-0.803644,-0.13412,0.143033,-0.0705631,-0.303761,-0.606188,0.472505
29,65,-0.654498,-0.814493,-0.174533,0.174533,-0.653793,-0.803644,-0.13412,0.143033,-0.0705631,-0.303761,-0.606188,0.472505
29,65,-0.654498,-0.814493,-0.174533,0.174533,-0.653793,-0.803644,-0.13412,0.143033,-0.0705631,-0.303761,-0.606188,0.472505
29,65,-0.654498,-0.814493,-0.174533,0.174533,-0.653793,-0.803644,-0.13412,0.143033,-0.0705631,-0.303761,-0.606188,0.472505
29,65,-0.654498,-0.814493,-0.174533,0.174533,-0.653793,-0.803644,-0.13412,0.143033,-0.0705631,-0.303761,-0.606188,0.472505
29,65,-0.654498,-0.814493,-0.174533,0.174533,-0.653793,-0.803644,-0.134117,0.142962,-0.0705631,-0.303761,-0.606246,0.473559
29,65,-0.654498,-0.814493,-0.174533,0.174533,-0.653793,-0.803644,-0.134117,0.142962,-0.0705631,-0.303761,-0.606246,0.473559
29,65,-0.654498,-0.814493,-0.174533,0.174533,-0.653793,-0.803644,-0.134117,0.142962,-0.0705631,-0.303761,-0.606246,0.473559
29,65,-0.654498,-0.814493,-0.174533,0.174533,-0.653793,-0.803644,-0.134117,0.142962,-0.0705631,-0.303761,-0.606246,0.473559
29,65,-0.654498,-0.814493,-0.174533,0.174533,-0.653793,-0.803644,-0.134117,0.142962,-0.0705631,-0.303761,-0.606246,0.473559
29,65,-0.654498,-0.814493,-0.174533,0.174533,-0.653793,-0.803644,-0.134117,0.142962,-0.0705631,-0.303761,-0.606246,0.473559
29,65,-0.654498,-0.814493,-0.174533,0.174533,-0.653793,-0.803644,-0.134117,0.142962,-0.0705631,-0.303761,-0.606246,0.473559
29,65,-0.654498,-0.814493,-0.174533,0.174533,-0.653793,-0.803644,-0.134117,0.142962,-0.0705631,-0.303761,-0.606246,0.473559
29,65,-0.654498,-0.814493,-0.174533,0.174533,-0.653793,-0.803644,-0.134117,0.142962,-0.0705631,-0.303761,-0.606246,0.473559
29,65,-0.654498,-0.814493,-0.174533,0.174533,-0.653793,-0.803644,-0.134117,0.142962,-0.0705631,-0.303761,-0.606246,0.473559
29,65,-0.654498,-0.814493,-0.174533,0.174533,-0.653793,-0.803644,-0.134113,0.142892,-0.0705631,-0.303761,-0.606303,0.474614
29,65,-0.654498,-0.814493,-0.174533,0.174533,-0.653793,-0.803644,-0.134113,0.142892,-0.0705631,-0.303761,-0.606303,0.474614
29,65,-0.654498,-0.814493,-0.174533,0.174533,-0.653793,-0.803644,-0.134113,0.142892,-0.0705631,-0.303761,-0.606303,0.474614
29,65,-0.654498,-0.814493,-0.174533,0.174533,-0.653793,-0.803644,-0.134113,0.142892,-0.0705631,-0.303761,-0.606303,0.474614
29,65,-0.654498,-0.814493,-0.174533,0.174533,-0.653793,-0.803644,-0.134113,0.142892,-0.0705631,-0.303761,-0.606303,0.474614
29,65,-0.654498,-0.814493,-0.174533,0.174533,-0.653793,-0.803644,-0.134113,0.142892,-0.0705631,-0.303761,-0.606303,0.474614
29,65,-0.654498,-0.814493,-0.174533,0.174533,-0.653793,-0.803644,-0.134109,0.142822,-0.0705631,-0.303761,-0.606365,0.475727
29,65,-0.654498,-0.814493,-0.174533,0.174533,-0.653793,-0.803644,-0.134109,0.142822,-0.0705631,-0.303761,-0.606365,0.475727
29,65,-0.654498,-0.814493,-0.174533,0.174533,-0.653793,-0.803644,-0.134109,0.142822,-0.0705631,-0.303761,-0.606365,0.475727
29,65,-0.654498,-0.814493,-0.174533,0.174533,-0.653793,-0.803644,-0.134109,0.142822,-0.0705631,-0.303761,-0.606365,0.475727
29,65,-0.654498,-0.814493,-0.174533,0.174533,-0.653793,-0.803644,-0.134109,0.142822,-0.0705631,-0.303761,-0.606365,0.475727
29,65,-0.654498,-0.814493,-0.174533,0.174533,-0.653793,-0.803644,-0.134109,0.142822,-0.0705631,-0.303761,-0.606365,0.475727
29,65,-0.654498,-0.814493,-0.174533,0.174533,-0.653793,-0.803644,-0.134109,0.142822,-0.0705631,-0.303761,-0.606365,0.475727
29,65,-0.654498,-0.814493,-0.174533,0.174533,-0.653793,-0.803644,-0.134109,0.142822,-0.0705631,-0.303761,-0.606365,0.475727
29,65,-0.654498,-0.814493,-0.174533,0.174533,-0.653793,-0.803644,-0.134109,0.142822,-0.0705631,-0.303761,-0.606365,0.475727
29,65,-0.654498,-0.814493,-0.174533,0.174533,-0.653793,-0.803644,-0.134109,0.142822,-0.0705631,-0.303761,-0.606365,0.475727
29,65,-0.654498,-0.814493,-0.174533,0.174533,-0.653793,-0.803644,-0.134105,0.142751,-0.0705631,-0.303761,-0.606423,0.476799
29,65,-0.654498,-0.814493,-0.174533,0.174533,-0.653793,-0.803644,-0.134105,0.142751,-0.0705631,-0.303761,-0.606423,0.476799
29,65,-0.654498,-0.814493,-0.174533,0.174533,-0.653793,-0.803644,-0.134105,0.142751,-0.0705631,-0.303761,-0.606423,0.476799
29,65,-0.654498,-0.814493,-0.174533,0.174533,-0.653793,-0.803644,-0.134105,0.142751,-0.0705631,-0.303761,-0.606423,0.476799
29,65,-0.654498,-0.814493,-0.174533,0.174533,-0.653793,-0.803644,-0.134105,0.142751,-0.0705631,-0.303761,-0.606423,0.476799
29,65,-0.654498,-0.814493,-0.174533,0.174533,-0.653793,-0.803644,-0.134105,0.142751,-0.0705631,-0.303761,-0.606423,0.476799
29,65,-0.654498,-0.814493,-0.174533,0.174533,-0.653793,-0.803644,-0.134105,0.142751,-0.0705631,-0.303761,-0.606423,0.476799
29,65,-0.654498,-0.814493,-0.174533,0.174533,-0.653793,-0.803644,-0.134105,0.142751,-0.0705631,-0.303761,-0.606423,0.476799
29,65,-0.654498,-0.814493,-0.174533,0.174533,-0.653793,-0.803644,-0.134105,0.142751,-0.0705631,-0.303761,-0.606423,0.476799
29,65,-0.654498,-0.814493,-0.174533,0.174533,-0.653793,-0.803644,-0.134105,0.142751,-0.0705631,-0.303761,-0.606423,0.476799
29,65,-0.654498,-0.814493,-0.174533,0.174533,-0.653793,-0.803644,-0.134105,0.142751,-0.0705631,-0.303761,-0.606423,0.476799
29,65,-0.654498,-0.814493,-0.174533,0.174533,-0.653793,-0.803644,-0.134105,0.142751,-0.0705631,-0.303761,-0.606423,0.476799
29,65,-0.654498,-0.814493,-0.174533,0.174533,-0.653793,-0.803644,-0.134101,0.142681,-0.0705631,-0.303761,-0.606481,0.477853
29,65,-0.654498,-0.814493,-0.174533,0.174533,-0.653793,-0.803644,-0.134101,0.142681,-0.0705631,-0.303761,-0.606481,0.477853
29,65,-0.654498,-0.814493,-0.174533,0.174533,-0.653793,-0.803644,-0.134101,0.142681,-0.0705631,-0.303761,-0.606481,0.477853
29,65,-0.654498,-0.814493,-0.174533,0.174533,-0.653793,-0.803644,-0.134101,0.142681,-0.0705631,-0.303761,-0.606481,0.477853
29,65,-0.654498,-0.814493,-0.174533,0.174533,-0.653793,-0.803644,-0.134101,0.142681,-0.0705631,-0.303761,-0.606481,0.477853
29,65,-0.654498,-0.814493,-0.174533,0.174533,-0.653793,-0.803644,-0.134101,0.142681,-0.0705631,-0.303761,-0.606481,0.477853
29,65,-0.654498,-0.814493,-0.174533,0.174533,-0.653793,-0.803644,-0.134101,0.142681,-0.0705631,-0.303761,-0.606481,0.477853
29,65,-0.654498,-0.814493,-0.174533,0.174533,-0.653793,-0.803644,-0.134101,0.142681,-0.0705631,-0.303761,-0.606481,0.477853
29,65,-0.654498,-0.814493,-0.174533,0.174533,-0.653793,-0.803644,-0.134101,0.142681,-0.0705631,-0.303761,-0.606481,0.477853
29,65,-0.654498,-0.814493,-0.174533,0.174533,-0.653793,-0.803644,-0.134101,0.142681,-0.0705631,-0.303761,-0.606481,0.477853
29,65,-0.654498,-0.814493,-0.174533,0.174533,-0.653793,-0.803644,-0.134101,0.142681,-0.0705631,-0.303761,-0.606481,0.477853
29,65,-0.654498,-0.814493,-0.174533,0.174533,-0.653793,-0.803644,-0.134101,0.142681,-0.0705631,-0.303761,-0.606481,0.477853
29,65,-0.654498,-0.814493,-0.174533,0.174533,-0.653793,-0.803644,-0.134101,0.142681,-0.0705631,-0.303761,-0.606481,0.477853
29,65,-0.654498,-0.814493,-0.174533,0.174533,-0.653793,-0.803644,-0.134101,0.142681,-0.0705631,-0.303761,-0.606481,0.477853
29,65,-0.654498,-0.814493,-0.174533,0.174533,-0.653793,-0.803644,-0.134101,0.142681,-0.0705631,-0.303761,-0.606481,0.477853
29,65,-0.654498,-0.814493,-0.174533,0.174533,-0.653793,-0.803644,-0.134101,0.142681,-0.0705631,-0.303761,-0.606481,0.477853
29,65,-0.654498,-0.814493,-0.174533,0.174533,-0.653793,-0.803644,-0.134101,0.142681,-0.0705631,-0.303761,-0.606481,0.477853
29,65,-0.654498,-0.814493,-0.174533,0.174533,-0.653793,-0.803644,-0.134101,0.142681,-0.0705631,-0.303761,-0.606481,0.477853
29,65,-0.654498,-0.814493,-0.174533,0.174533,-0.653793,-0.803644,-0.134101,0.142681,-0.0705631,-0.303761,-0.606481,0.477853
29,65,-0.654498,-0.814493,-0.174533,0.174533,-0.653793,-0.803644,-0.134101,0.142681,-0.0705631,-0.303761,-0.606481,0.477853
29,65,-0.654498,-0.814493,-0.174533,0.174533,-0.653793,-0.803644,-0.134101,0.142681,-0.0705631,-0.303761,-0.606481,0.477853
29,65,-0.654498,-0.814493,-0.174533,0.174533,-0.653793,-0.803644,-0.134101,0.142681,-0.0705631,-0.303761,-0.606481,0.477853
29,65,-0.654498,-0.814493,-0.174533,0.174533,-0.653793,-0.803644,-0.134154,0.142708,-0.0705631,-0.303761,-0.605695,0.477453
29,65,-0.654498,-0.814493,-0.174533,0.174533,-0.653793,-0.803644,-0.134154,0.142708,-0.0705631,-0.303761,-0.605695,0.477453
29,65,-0.654498,-0.814493,-0.174533,0.174533,-0.653793,-0.803644,-0.134154,0.142708,-0.0705631,-0.303761,-0.605695,0.477453
29,65,-0.654498,-0.814493,-0.174533,0.174533,-0.653793,-0.803644,-0.134154,0.142708,-0.0705631,-0.303761,-0.605695,0.477453
29,65,-0.654498,-0.814493,-0.174533,0.174533,-0.653793,-0.803644,-0.134154,0.142708,-0.0705631,-0.303761,-0.605695,0.477453
29,65,-0.654498,-0.814493,-0.174533,0.174533,-0.653793,-0.803644,-0.134203,0.142666,-0.0705631,-0.303761,-0.604956,0.478084
29,65,-0.654498,-0.814493,-0.174533,0.174533,-0.653793,-0.803644,-0.134203,0.142666,-0.0705631,-0.303761,-0.604956,0.478084
29,65,-0.654498,-0.814493,-0.174533,0.174533,-0.653793,-0.803644,-0.134203,0.142666,-0.0705631,-0.303761,-0.604956,0.478084
29,65,-0.654498,-0.814493,-0.174533,0.174533,-0.653793,-0.803644,-0.134203,0.142666,-0.0705631,-0.303761,-0.604956,0.478084
29,65,-0.654498,-0.814493,-0.174533,0.174533,-0.653793,-0.803644,-0.134203,0.142666,-0.0705631,-0.303761,-0.604956,0.478084
29,65,-0.654498,-0.814493,-0.174533,0.174533,-0.653793,-0.803644,-0.134203,0.142666,-0.0705631,-0.303761,-0.604956,0.478084
29,65,-0.654498,-0.814493,-0.174533,0.174533,-0.653793,-0.803644,-0.134203,0.142666,-0.0705631,-0.303761,-0.604956,0.478084
29,65,-0.654498,-0.814493,-0.174533,0.174533,-0.653793,-0.803644,-0.134203,0.142666,-0.0705631,-0.303761,-0.604956,0.478084
29,65,-0.654498,-0.814493,-0.174533,0.174533,-0.653793,-0.803644,-0.134203,0.142666,-0.0705631,-0.303761,-0.604956,0.478084
29,65,-0.654498,-0.814493,-0.174533,0.174533,-0.653793,-0.803644,-0.134203,0.142666,-0.0705631,-0.303761,-0.604956,0.478084
29,65,-0.654498,-0.814493,-0.174533,0.174533,-0.653793,-0.803644,-0.134203,0.142666,-0.0705631,-0.303761,-0.604956,0.478084
29,65,-0.654498,-0.814493,-0.174533,0.174533,-0.653793,-0.803644,-0.134203,0.142666,-0.0705631,-0.303761,-0.604956,0.478082
29,65,-0.654498,-0.814493,-0.174533,0.174533,-0.653793,-0.803644,-0.134203,0.142666,-0.0705631,-0.303761,-0.604956,0.47808
29,65,-0.654498,-0.814493,-0.174533,0.174533,-0.653793,-0.803644,-0.134203,0.142666,-0.0705631,-0.303761,-0.604956,0.478079
29,65,-0.654498,-0.814493,-0.174533,0.174533,-0.653793,-0.803644,-0.134203,0.142666,-0.0705631,-0.303761,-0.604955,0.478077
29,65,-0.654498,-0.814493,-0.174533,0.174533,-0.653793,-0.803644,-0.134203,0.142666,-0.0705631,-0.303761,-0.604955,0.478075
29,65,-0.654498,-0.814493,-0.174533,0.174533,-0.653793,-0.803644,-0.134203,0.142666,-0.0705631,-0.303761,-0.604955,0.478074
29,65,-0.654498,-0.814493,-0.174533,0.174533,-0.653793,-0.803644,-0.134203,0.142666,-0.0705631,-0.303761,-0.604955,0.478072
29,65,-0.654498,-0.814493,-0.174533,0.174533,-0.653793,-0.803644,-0.134203,0.142666,-0.0705631,-0.303761,-0.604955,0.478071
29,65,-0.654498,-0.814493,-0.174533,0.174533,-0.653793,-0.803644,-0.134203,0.142666,-0.0705631,-0.303761,-0.604955,0.47807
29,65,-0.654498,-0.814493,-0.174533,0.174533,-0.653793,-0.803644,-0.134203,0.142666,-0.0705631,-0.303761,-0.604955,0.478068
29,65,-0.654498,-0.814493,-0.174533,0.174533,-0.653793,-0.803644,-0.134203,0.142666,-0.0705631,-0.303761,-0.604955,0.478067
29,65,-0.654498,-0.814493,-0.174533,0.174533,-0.653793,-0.803644,-0.134203,0.142666,-0.0705631,-0.303761,-0.604955,0.478066
29,65,-0.654498,-0.814493,-0.174533,0.174533,-0.653793,-0.803644,-0.134203,0.142666,-0.0705631,-0.303761,-0.604955,0.478065
29,65,-0.654498,-0.814493,-0.174533,0.174533,-0.653793,-0.803644,-0.134203,0.142666,-0.0705631,-0.303761,-0.604955,0.478064
29,65,-0.654498,-0.814493,-0.174533,0.174533,-0.653793,-0.803644,-0.134203,0.142666,-0.0705631,-0.303761,-0.604955,0.478063
29,65,-0.654498,-0.814493,-0.174533,0.174533,-0.653793,-0.803644,-0.134203,0.142666,-0.0705631,-0.303761,-0.604955,0.478062
29,65,-0.654498,-0.814493,-0.174533,0.174533,-0.653793,-0.803644,-0.134203,0.142666,-0.0705631,-0.303761,-0.604955,0.478061
29,65,-0.654498,-0.814493,-0.174533,0.174533,-0.653793,-0.803644,-0.134203,0.142666,-0.0705631,-0.303761,-0.604955,0.47806
29,65,-0.654498,-0.814493,-0.174533,0.174533,-0.653793,-0.803644,-0.134203,0.142666,-0.0705631,-0.303761,-0.604954,0.478059
29,65,-0.654498,-0.814493,-0.174533,0.174533,-0.653793,-0.803644,-0.134203,0.142666,-0.0705631,-0.303761,-0.604954,0.478058
29,65,-0.654498,-0.814493,-0.174533,0.174533,-0.653793,-0.803644,-0.134203,0.142666,-0.0705631,-0.303761,-0.604954,0.478058
29,65,-0.654498,-0.814493,-0.174533,0.174533,-0.653793,-0.803644,-0.134203,0.142666,-0.0705631,-0.303761,-0.604954,0.478058
29,65,-0.654498,-0.814493,-0.174533,0.174533,-0.653793,-0.803644,-0.134199,0.142595,-0.0705631,-0.303761,-0.60501,0.479064
29,65,-0.654498,-0.814493,-0.174533,0.174533,-0.653793,-0.803644,-0.134199,0.142595,-0.0705631,-0.303761,-0.60501,0.479064
29,65,-0.654498,-0.814493,-0.174533,0.174533,-0.653793,-0.803644,-0.134199,0.142595,-0.0705631,-0.303761,-0.60501,0.479064
29,65,-0.654498,-0.814493,-0.174533,0.174533,-0.653793,-0.803644,-0.134199,0.142595,-0.0705631,-0.303761,-0.60501,0.479064
29,65,-0.654498,-0.814493,-0.174533,0.174533,-0.653793,-0.803644,-0.134199,0.142595,-0.0705631,-0.303761,-0.60501,0.479064
29,65,-0.654498,-0.814493,-0.174533,0.174533,-0.653793,-0.803644,-0.134199,0.142595,-0.0705631,-0.303761,-0.60501,0.479064
29,65,-0.654498,-0.814493,-0.174533,0.174533,-0.653793,-0.803644,-0.134199,0.142595,-0.0705631,-0.303761,-0.60501,0.479064
29,65,-0.654498,-0.814493,-0.174533,0.174533,-0.653793,-0.803644,-0.134199,0.142595,-0.0705631,-0.303761,-0.60501,0.479064
29,65,-0.654498,-0.814493,-0.174533,0.174533,-0.653793,-0.803644,-0.134199,0.142595,-0.0705631,-0.303761,-0.60501,0.479064
29,65,-0.654498,-0.814493,-0.174533,0.174533,-0.653793,-0.803644,-0.134199,0.142595,-0.0705631,-0.303761,-0.60501,0.479064
29,65,-0.654498,-0.814493,-0.174533,0.174533,-0.653793,-0.803644,-0.134199,0.142595,-0.0705631,-0.303761,-0.60501,0.479064
29,65,-0.654498,-0.814493,-0.174533,0.174533,-0.653793,-0.803644,-0.134199,0.142595,-0.0705631,-0.303761,-0.60501,0.479064
29,65,-0.654498,-0.814493,-0.174533,0.174533,-0.653793,-0.803644,-0.134199,0.142595,-0.0705631,-0.303761,-0.60501,0.479064
29,65,-0.654498,-0.814493,-0.174533,0.174533,-0.653793,-0.803644,-0.134199,0.142595,-0.0705631,-0.303761,-0.60501,0.479064
29,65,-0.654498,-0.814493,-0.174533,0.174533,-0.653793,-0.803644,-0.134199,0.142595,-0.0705631,-0.303761,-0.60501,0.479064
29,65,-0.654498,-0.814493,-0.174533,0.174533,-0.653793,-0.803644,-0.134199,0.142595,-0.0705631,-0.303761,-0.60501,0.479064
29,65,-0.654498,-0.814493,-0.174533,0.174533,-0.653793,-0.803644,-0.134199,0.142595,-0.0705631,-0.303761,-0.60501,0.479064
29,65,-0.654498,-0.814493,-0.174533,0.174533,-0.653793,-0.803644,-0.134199,0.142595,-0.0705631,-0.303761,-0.60501,0.479064
29,65,-0.654498,-0.814493,-0.174533,0.174533,-0.653793,-0.803644,-0.134199,0.142595,-0.0705631,-0.303761,-0.60501,0.479064
29,65,-0.654498,-0.814493,-0.174533,0.174533,-0.653793,-0.803644,-0.134199,0.142595,-0.0705631,-0.303761,-0.60501,0.479064
29,65,-0.654498,-0.814493,-0.174533,0.174533,-0.653793,-0.803644,-0.134199,0.142595,-0.0705631,-0.303761,-0.60501,0.479064
29,65,-0.654498,-0.814493,-0.174533,0.174533,-0.653793,-0.803644,-0.134199,0.142595,-0.0705631,-0.303761,-0.60501,0.479064
29,65,-0.654498,-0.814493,-0.174533,0.174533,-0.653793,-0.803644,-0.134199,0.142595,-0.0705631,-0.303761,-0.60501,0.479064
29,65,-0.654498,-0.814493,-0.174533,0.174533,-0.653793,-0.803644,-0.134199,0.142595,-0.0705631,-0.303761,-0.60501,0.479064
29,65,-0.654498,-0.814493,-0.174533,0.174533,-0.653793,-0.803644,-0.134199,0.142595,-0.0705631,-0.303761,-0.60501,0.479064
29,65,-0.654498,-0.814493,-0.174533,0.174533,-0.653793,-0.803644,-0.134199,0.142595,-0.0705631,-0.303761,-0.60501,0.479064
29,65,-0.654498,-0.814493,-0.174533,0.174533,-0.653793,-0.803644,-0.134199,0.142595,-0.0705631,-0.303761,-0.60501,0.479064
29,65,-0.654498,-0.814493,-0.174533,0.174533,-0.653793,-0.803644,-0.134199,0.142595,-0.0705631,-0.303761,-0.60501,0.479064
29,65,-0.654498,-0.814493,-0.174533,0.174533,-0.653793,-0.803644,-0.134199,0.142595,-0.0705631,-0.303761,-0.60501,0.479064
29,65,-0.654498,-0.814493,-0.174533,0.174533,-0.653793,-0.803644,-0.134199,0.142595,-0.0705631,-0.303761,-0.60501,0.479064
29,65,-0.654498,-0.814493,-0.174533,0.174533,-0.653793,-0.803644,-0.134199,0.142595,-0.0705631,-0.303761,-0.60501,0.479064
29,65,-0.654498,-0.814493,-0.174533,0.174533,-0.653793,-0.803644,-0.134199,0.142595,-0.0705631,-0.303761,-0.60501,0.479064
29,65,-0.654498,-0.814493,-0.174533,0.174533,-0.653793,-0.803644,-0.134199,0.142595,-0.0705631,-0.303761,-0.60501,0.479064
29,65,-0.654498,-0.814493,-0.174533,0.174533,-0.653793,-0.803644,-0.134199,0.142595,-0.0705631,-0.303761,-0.60501,0.479064
29,65,-0.654498,-0.814493,-0.174533,0.174533,-0.653793,-0.803644,-0.134199,0.142595,-0.0705631,-0.303761,-0.60501,0.479064
29,65,-0.654498,-0.814493,-0.174533,0.174533,-0.653793,-0.803644,-0.134199,0.142595,-0.0705631,-0.303761,-0.60501,0.479064
29,65,-0.654498,-0.814493,-0.174533,0.174533,-0.653793,-0.803644,-0.134199,0.142595,-0.0705631,-0.303761,-0.60501,0.479064
29,65,-0.654498,-0.814493,-0.174533,0.174533,-0.653793,-0.803644,-0.134199,0.142595,-0.0705631,-0.303761,-0.60501,0.479064
29,65,-0.654498,-0.814493,-0.174533,0.174533,-0.653793,-0.803644,-0.134199,0.142595,-0.0705631,-0.303761,-0.60501,0.479064
29,65,-0.654498,-0.814493,-0.174533,0.174533,-0.653793,-0.803644,-0.134199,0.142595,-0.0705631,-0.303761,-0.60501,0.479064
29,65,-0.654498,-0.814493,-0.174533,0.174533,-0.653793,-0.803644,-0.134199,0.142595,-0.0705631,-0.303761,-0.60501,0.479064
29,65,-0.654498,-0.814493,-0.174533,0.174533,-0.653793,-0.803644,-0.134199,0.142595,-0.0705631,-0.303761,-0.60501,0.479064
29,65,-0.654498,-0.814493,-0.174533,0.174533,-0.653793,-0.803644,-0.134199,0.142595,-0.0705631,-0.303761,-0.60501,0.479064
29,65,-0.654498,-0.814493,-0.174533,0.174533,-0.653793,-0.803644,-0.134199,0.142595,-0.0705631,-0.303761,-0.60501,0.479064
29,65,-0.654498,-0.814493,-0.174533,0.174533,-0.653793,-0.803644,-0.134199,0.142595,-0.0705631,-0.303761,-0.60501,0.479064
29,65,-0.654498,-0.814493,-0.174533,0.174533,-0.653793,-0.803644,-0.134199,0.142595,-0.0705631,-0.303761,-0.60501,0.479064
29,65,-0.654498,-0.814493,-0.174533,0.174533,-0.653793,-0.803644,-0.134199,0.142595,-0.0705631,-0.303761,-0.60501,0.479064
29,65,-0.654498,-0.814493,-0.174533,0.174533,-0.653793,-0.803644,-0.134199,0.142595,-0.0705631,-0.303761,-0.60501,0.479064
29,65,-0.654498,-0.814493,-0.174533,0.174533,-0.653793,-0.803644,-0.134199,0.142595,-0.0705631,-0.303761,-0.60501,0.479064
29,65,-0.654498,-0.814493,-0.174533,0.174533,-0.653793,-0.803644,-0.134199,0.142595,-0.0705631,-0.303761,-0.60501,0.479064
29,65,-0.654498,-0.814493,-0.174533,0.174533,-0.653793,-0.803644,-0.134199,0.142595,-0.0705631,-0.303761,-0.60501,0.479064
29,65,-0.654498,-0.814493,-0.174533,0.174533,-0.653793,-0.803644,-0.134199,0.142595,-0.0705631,-0.303761,-0.60501,0.479064
29,65,-0.654498,-0.814493,-0.174533,0.174533,-0.653793,-0.803644,-0.134199,0.142595,-0.0705631,-0.303761,-0.60501,0.479064
29,65,-0.654498,-0.814493,-0.174533,0.174533,-0.653793,-0.803644,-0.134199,0.142595,-0.0705631,-0.303761,-0.60501,0.479064
29,65,-0.654498,-0.814493,-0.174533,0.174533,-0.653793,-0.803644,-0.134199,0.142595,-0.0705631,-0.303761,-0.60501,0.479064
29,65,-0.654498,-0.814493,-0.174533,0.174533,-0.653793,-0.803644,-0.134199,0.142595,-0.0705631,-0.303761,-0.60501,0.479064
29,65,-0.654498,-0.814493,-0.174533,0.174533,-0.653793,-0.803644,-0.134199,0.142595,-0.0705631,-0.303761,-0.60501,0.479064
29,65,-0.654498,-0.814493,-0.174533,0.174533,-0.653793,-0.803644,-0.134199,0.142595,-0.0705631,-0.303761,-0.60501,0.479064
29,65,-0.654498,-0.814493,-0.174533,0.174533,-0.653793,-0.803644,-0.134195,0.142525,-0.0705631,-0.303761,-0.605067,0.480118
29,65,-0.654498,-0.814493,-0.174533,0.174533,-0.653793,-0.803644,-0.134195,0.142525,-0.0705631,-0.303761,-0.605067,0.480118
29,65,-0.654498,-0.814493,-0.174533,0.174533,-0.653793,-0.803644,-0.134195,0.142525,-0.0705631,-0.303761,-0.605067,0.480118
29,65,-0.654498,-0.814493,-0.174533,0.174533,-0.653793,-0.803644,-0.134195,0.142525,-0.0705631,-0.303761,-0.605067,0.480118
29,65,-0.654498,-0.814493,-0.174533,0.174533,-0.653793,-0.803644,-0.134195,0.142525,-0.0705631,-0.303761,-0.605067,0.480118
29,65,-0.654498,-0.814493,-0.174533,0.174533,-0.653793,-0.803644,-0.134244,0.142483,-0.0705631,-0.303761,-0.604329,0.48075
29,65,-0.654498,-0.814493,-0.174533,0.174533,-0.653793,-0.803644,-0.134244,0.142483,-0.0705631,-0.303761,-0.604329,0.48075
29,65,-0.654498,-0.814493,-0.174533,0.174533,-0.653793,-0.803644,-0.134244,0.142483,-0.0705631,-0.303761,-0.604329,0.48075
29,65,-0.654498,-0.814493,-0.174533,0.174533,-0.653793,-0.803644,-0.134244,0.142483,-0.0705631,-0.303761,-0.604329,0.48075
29,65,-0.654498,-0.814493,-0.174533,0.174533,-0.653793,-0.803644,-0.134244,0.142483,-0.0705631,-0.303761,-0.604329,0.48075
29,65,-0.654498,-0.814493,-0.174533,0.174533,-0.653793,-0.803644,-0.134244,0.142483,-0.0705631,-0.303761,-0.604329,0.48075
29,65,-0.654498,-0.814493,-0.174533,0.174533,-0.653793,-0.803644,-0.134244,0.142483,-0.0705631,-0.303761,-0.604329,0.48075
29,65,-0.654498,-0.814493,-0.174533,0.174533,-0.653793,-0.803644,-0.134244,0.142483,-0.0705631,-0.303761,-0.604329,0.48075
