stim_pw [us],stim_amp [mA],com_elbow_fe [rad],com_forearm_ps [rad],com_wrist_fe [rad],com_wrist_ru [rad],act_elbow_fe [rad],act_forearm_ps [rad],act_wrist_fe [rad],act_wrist_ru [rad],elbow_fe_trq [Nm],forearm_ps_trq [Nm],wrist_fe_trq [Nm],wrist_ru_trq [Nm]
26,60,-0.567232,-0.698132,-0.174533,-0.174533,-0.575621,-0.693573,-0.170935,-0.189791,1.67783,-0.255188,-0.107778,0.457714
26,60,-0.567232,-0.698132,-0.174533,-0.174533,-0.575621,-0.693573,-0.170935,-0.189791,1.67783,-0.255188,-0.107778,0.457714
26,60,-0.567232,-0.698132,-0.174533,-0.174533,-0.575621,-0.693573,-0.170935,-0.189791,1.67783,-0.255188,-0.107778,0.457714
26,60,-0.567232,-0.698132,-0.174533,-0.174533,-0.575621,-0.693573,-0.170935,-0.189791,1.67783,-0.255188,-0.107778,0.457714
26,60,-0.567232,-0.698132,-0.174533,-0.174533,-0.575621,-0.693573,-0.170935,-0.189791,1.67783,-0.255188,-0.107778,0.457714
26,60,-0.567232,-0.698132,-0.174533,-0.174533,-0.575621,-0.693573,-0.170935,-0.189791,1.67783,-0.255188,-0.107778,0.457714
26,60,-0.567232,-0.698132,-0.174533,-0.174533,-0.575621,-0.693573,-0.170935,-0.189791,1.67783,-0.255188,-0.107778,0.457714
26,60,-0.567232,-0.698132,-0.174533,-0.174533,-0.575621,-0.693573,-0.170935,-0.189791,1.67783,-0.255188,-0.107778,0.457714
26,60,-0.567232,-0.698132,-0.174533,-0.174533,-0.575621,-0.693573,-0.170935,-0.189791,1.67783,-0.255188,-0.107778,0.457714
26,60,-0.567232,-0.698132,-0.174533,-0.174533,-0.575621,-0.693573,-0.170935,-0.189791,1.67783,-0.255188,-0.107778,0.457714
26,60,-0.567232,-0.698132,-0.174533,-0.174533,-0.575621,-0.693573,-0.170935,-0.189791,1.67783,-0.255188,-0.107787,0.457717
26,60,-0.567232,-0.698132,-0.174533,-0.174533,-0.575621,-0.693573,-0.170939,-0.189851,1.67783,-0.255188,-0.107695,0.459511
26,60,-0.567232,-0.698132,-0.174533,-0.174533,-0.575621,-0.693573,-0.170939,-0.189851,1.67783,-0.255188,-0.107706,0.459515
26,60,-0.567232,-0.698132,-0.174533,-0.174533,-0.575621,-0.693573,-0.170939,-0.189851,1.67783,-0.255188,-0.107717,0.459518
26,60,-0.567232,-0.698132,-0.174533,-0.174533,-0.575621,-0.693573,-0.170939,-0.189851,1.67783,-0.255188,-0.107726,0.459521
26,60,-0.567232,-0.698132,-0.174533,-0.174533,-0.575621,-0.693573,-0.170939,-0.189851,1.67783,-0.255188,-0.107734,0.459523
26,60,-0.567232,-0.698132,-0.174533,-0.174533,-0.575621,-0.693573,-0.170939,-0.189851,1.67783,-0.255188,-0.107741,0.459525
26,60,-0.567232,-0.698132,-0.174533,-0.174533,-0.575621,-0.693573,-0.170939,-0.189851,1.67783,-0.255188,-0.107748,0.459527
26,60,-0.567232,-0.698132,-0.174533,-0.174533,-0.575621,-0.693573,-0.170939,-0.189851,1.67783,-0.255188,-0.107754,0.459529
26,60,-0.567232,-0.698132,-0.174533,-0.174533,-0.575621,-0.693573,-0.170939,-0.189851,1.67783,-0.255188,-0.107759,0.459531
26,60,-0.567232,-0.698132,-0.174533,-0.174533,-0.575621,-0.693573,-0.170939,-0.189851,1.67783,-0.255188,-0.107764,0.459532
26,60,-0.567232,-0.698132,-0.174533,-0.174533,-0.575621,-0.693573,-0.170871,-0.189808,1.67783,-0.255188,-0.109811,0.458236
26,60,-0.567232,-0.698132,-0.174533,-0.174533,-0.575621,-0.693573,-0.170871,-0.189808,1.67783,-0.255188,-0.109815,0.458237
26,60,-0.567232,-0.698132,-0.174533,-0.174533,-0.575621,-0.693573,-0.170871,-0.189808,1.67783,-0.255188,-0.109819,0.458238
26,60,-0.567232,-0.698132,-0.174533,-0.174533,-0.575621,-0.693573,-0.170871,-0.189808,1.67783,-0.255188,-0.109822,0.458239
26,60,-0.567232,-0.698132,-0.174533,-0.174533,-0.575621,-0.693573,-0.170871,-0.189808,1.67783,-0.255188,-0.109825,0.45824
26,60,-0.567232,-0.698132,-0.174533,-0.174533,-0.575621,-0.693573,-0.170871,-0.189808,1.67783,-0.255188,-0.109828,0.458241
26,60,-0.567232,-0.698132,-0.174533,-0.174533,-0.575621,-0.693573,-0.170871,-0.189808,1.67783,-0.255188,-0.10983,0.458242
26,60,-0.567232,-0.698132,-0.174533,-0.174533,-0.575621,-0.693573,-0.170871,-0.189808,1.67783,-0.255188,-0.109833,0.458242
26,60,-0.567232,-0.698132,-0.174533,-0.174533,-0.575621,-0.693573,-0.170871,-0.189808,1.67783,-0.255188,-0.109835,0.458243
26,60,-0.567232,-0.698132,-0.174533,-0.174533,-0.575621,-0.693573,-0.170871,-0.189808,1.67783,-0.255188,-0.109837,0.458244
26,60,-0.567232,-0.698132,-0.174533,-0.174533,-0.575621,-0.693573,-0.170871,-0.189808,1.67783,-0.255188,-0.109839,0.458244
26,60,-0.567232,-0.698132,-0.174533,-0.174533,-0.575621,-0.693573,-0.170871,-0.189808,1.67783,-0.255188,-0.109841,0.458245
26,60,-0.567232,-0.698132,-0.174533,-0.174533,-0.575621,-0.693573,-0.170871,-0.189808,1.67783,-0.255188,-0.109843,0.458245
26,60,-0.567232,-0.698132,-0.174533,-0.174533,-0.575621,-0.693573,-0.170803,-0.189764,1.67783,-0.255188,-0.111882,0.456945
26,60,-0.567232,-0.698132,-0.174533,-0.174533,-0.575621,-0.693573,-0.170803,-0.189764,1.67783,-0.255188,-0.111884,0.456946
26,60,-0.567232,-0.698132,-0.174533,-0.174533,-0.575621,-0.693573,-0.170803,-0.189764,1.67783,-0.255188,-0.111885,0.456946
26,60,-0.567232,-0.698132,-0.174533,-0.174533,-0.575621,-0.693573,-0.170803,-0.189764,1.67783,-0.255188,-0.111887,0.456946
26,60,-0.567232,-0.698132,-0.174533,-0.174533,-0.575621,-0.693573,-0.170803,-0.189764,1.67783,-0.255188,-0.111888,0.456947
26,60,-0.567232,-0.698132,-0.174533,-0.174533,-0.575621,-0.693573,-0.170735,-0.189721,1.67783,-0.255188,-0.11395,0.455629
26,60,-0.567232,-0.698132,-0.174533,-0.174533,-0.575621,-0.693573,-0.170735,-0.189721,1.67783,-0.255188,-0.113952,0.455629
26,60,-0.567232,-0.698132,-0.174533,-0.174533,-0.575621,-0.693573,-0.170735,-0.189721,1.67783,-0.255188,-0.113953,0.45563
26,60,-0.567232,-0.698132,-0.174533,-0.174533,-0.575621,-0.693573,-0.170735,-0.189721,1.67783,-0.255188,-0.113954,0.45563
26,60,-0.567232,-0.698132,-0.174533,-0.174533,-0.575621,-0.693573,-0.170735,-0.189721,1.67783,-0.255188,-0.113955,0.45563
26,60,-0.567232,-0.698132,-0.174533,-0.174533,-0.575621,-0.693573,-0.170739,-0.189781,1.67783,-0.255188,-0.11385,0.457423
26,60,-0.567232,-0.698132,-0.174533,-0.174533,-0.575621,-0.693573,-0.170739,-0.189781,1.67783,-0.255188,-0.113851,0.457423
26,60,-0.567232,-0.698132,-0.174533,-0.174533,-0.575621,-0.693573,-0.1708,-0.189762,1.67783,-0.255188,-0.111923,0.456829
26,60,-0.567232,-0.698132,-0.174533,-0.174533,-0.575621,-0.693573,-0.1708,-0.189762,1.67783,-0.255188,-0.111923,0.456829
26,60,-0.567232,-0.698132,-0.174533,-0.174533,-0.575621,-0.693573,-0.1708,-0.189762,1.67783,-0.255188,-0.111923,0.456829
26,60,-0.567232,-0.698132,-0.174533,-0.174533,-0.575621,-0.693573,-0.1708,-0.189762,1.67783,-0.255188,-0.111923,0.456829
26,60,-0.567232,-0.698132,-0.174533,-0.174533,-0.575621,-0.693573,-0.1708,-0.189762,1.67783,-0.255188,-0.111923,0.456829
26,60,-0.567232,-0.698132,-0.174533,-0.174533,-0.575621,-0.693573,-0.1708,-0.189762,1.67783,-0.255188,-0.111923,0.456829
26,60,-0.567232,-0.698132,-0.174533,-0.174533,-0.575621,-0.693573,-0.1708,-0.189762,1.67783,-0.255188,-0.111923,0.456829
26,60,-0.567232,-0.698132,-0.174533,-0.174533,-0.575621,-0.693573,-0.1708,-0.189762,1.67783,-0.255188,-0.111923,0.456829
26,60,-0.567232,-0.698132,-0.174533,-0.174533,-0.575621,-0.693573,-0.1708,-0.189762,1.67783,-0.255188,-0.111923,0.456829
26,60,-0.567232,-0.698132,-0.174533,-0.174533,-0.575621,-0.693573,-0.170732,-0.189719,1.67783,-0.255188,-0.113996,0.455504
26,60,-0.567232,-0.698132,-0.174533,-0.174533,-0.575621,-0.693573,-0.170732,-0.189719,1.67783,-0.255188,-0.113996,0.455504
26,60,-0.567232,-0.698132,-0.174533,-0.174533,-0.575621,-0.693573,-0.170732,-0.189719,1.67783,-0.255188,-0.113996,0.455504
26,60,-0.567232,-0.698132,-0.174533,-0.174533,-0.575621,-0.693573,-0.170732,-0.189719,1.67783,-0.255188,-0.113996,0.455504
26,60,-0.567232,-0.698132,-0.174533,-0.174533,-0.575621,-0.693573,-0.170732,-0.189719,1.67783,-0.255188,-0.113996,0.455504
26,60,-0.567232,-0.698132,-0.174533,-0.174533,-0.575621,-0.693573,-0.170732,-0.189719,1.67783,-0.255188,-0.113996,0.455504
26,60,-0.567232,-0.698132,-0.174533,-0.174533,-0.575621,-0.693573,-0.170732,-0.189719,1.67783,-0.255188,-0.114005,0.455506
26,60,-0.567232,-0.698132,-0.174533,-0.174533,-0.575621,-0.693573,-0.170732,-0.189719,1.67783,-0.255188,-0.114013,0.455509
26,60,-0.567232,-0.698132,-0.174533,-0.174533,-0.575621,-0.693573,-0.170732,-0.189719,1.67783,-0.255188,-0.11402,0.455511
26,60,-0.567232,-0.698132,-0.174533,-0.174533,-0.575621,-0.693573,-0.170732,-0.189719,1.67783,-0.255188,-0.114026,0.455513
26,60,-0.567232,-0.698132,-0.174533,-0.174533,-0.575621,-0.693573,-0.170735,-0.189779,1.67783,-0.255188,-0.113925,0.457311
26,60,-0.567232,-0.698132,-0.174533,-0.174533,-0.575621,-0.693573,-0.170735,-0.189779,1.67783,-0.255188,-0.11393,0.457313
26,60,-0.567232,-0.698132,-0.174533,-0.174533,-0.575621,-0.693573,-0.170735,-0.189779,1.67783,-0.255188,-0.113935,0.457314
26,60,-0.567232,-0.698132,-0.174533,-0.174533,-0.575621,-0.693573,-0.170735,-0.189779,1.67783,-0.255188,-0.113939,0.457315
26,60,-0.567232,-0.698132,-0.174533,-0.174533,-0.575621,-0.693573,-0.170735,-0.189779,1.67783,-0.255188,-0.113943,0.457317
26,60,-0.567232,-0.698132,-0.174533,-0.174533,-0.575621,-0.693573,-0.170667,-0.189735,1.67783,-0.255188,-0.115979,0.456018
26,60,-0.567232,-0.698132,-0.174533,-0.174533,-0.575621,-0.693573,-0.170667,-0.189735,1.67783,-0.255188,-0.115982,0.456019
26,60,-0.567232,-0.698132,-0.174533,-0.174533,-0.575621,-0.693573,-0.170667,-0.189735,1.67783,-0.255188,-0.115985,0.456019
26,60,-0.567232,-0.698132,-0.174533,-0.174533,-0.575621,-0.693573,-0.170667,-0.189735,1.67783,-0.255188,-0.115988,0.45602
26,60,-0.567232,-0.698132,-0.174533,-0.174533,-0.575621,-0.693573,-0.170667,-0.189735,1.67783,-0.255188,-0.11599,0.456021
26,60,-0.567232,-0.698132,-0.174533,-0.174533,-0.575621,-0.693573,-0.170667,-0.189735,1.67783,-0.255188,-0.115993,0.456022
26,60,-0.567232,-0.698132,-0.174533,-0.174533,-0.575621,-0.693573,-0.170667,-0.189735,1.67783,-0.255188,-0.115995,0.456023
26,60,-0.567232,-0.698132,-0.174533,-0.174533,-0.575621,-0.693573,-0.170667,-0.189735,1.67783,-0.255188,-0.115997,0.456023
26,60,-0.567232,-0.698132,-0.174533,-0.174533,-0.575621,-0.693573,-0.170667,-0.189735,1.67783,-0.255188,-0.115999,0.456024
26,60,-0.567232,-0.698132,-0.174533,-0.174533,-0.575621,-0.693573,-0.170667,-0.189735,1.67783,-0.255188,-0.116001,0.456024
26,60,-0.567232,-0.698132,-0.174533,-0.174533,-0.575621,-0.693573,-0.170667,-0.189735,1.67783,-0.255188,-0.116003,0.456025
26,60,-0.567232,-0.698132,-0.174533,-0.174533,-0.575621,-0.693573,-0.170667,-0.189735,1.67783,-0.255188,-0.116004,0.456025
26,60,-0.567232,-0.698132,-0.174533,-0.174533,-0.575621,-0.693573,-0.170667,-0.189735,1.67783,-0.255188,-0.116006,0.456026
26,60,-0.567232,-0.698132,-0.174533,-0.174533,-0.575621,-0.693573,-0.170667,-0.189735,1.67783,-0.255188,-0.116007,0.456026
26,60,-0.567232,-0.698132,-0.174533,-0.174533,-0.575621,-0.693573,-0.170667,-0.189735,1.67783,-0.255188,-0.116009,0.456027
26,60,-0.567232,-0.698132,-0.174533,-0.174533,-0.575621,-0.693573,-0.170667,-0.189735,1.67783,-0.255188,-0.11601,0.456027
26,60,-0.567232,-0.698132,-0.174533,-0.174533,-0.575621,-0.693573,-0.170667,-0.189735,1.67783,-0.255188,-0.116011,0.456028
26,60,-0.567232,-0.698132,-0.174533,-0.174533,-0.575621,-0.693573,-0.170667,-0.189735,1.67783,-0.255188,-0.116013,0.456028
26,60,-0.567232,-0.698132,-0.174533,-0.174533,-0.575621,-0.693573,-0.170667,-0.189735,1.67783,-0.255188,-0.116014,0.456028
26,60,-0.567232,-0.698132,-0.174533,-0.174533,-0.575621,-0.693573,-0.170667,-0.189735,1.67783,-0.255188,-0.116015,0.456029
26,60,-0.567232,-0.698132,-0.174533,-0.174533,-0.575621,-0.693573,-0.170671,-0.189795,1.67783,-0.255188,-0.115909,0.457833
26,60,-0.567232,-0.698132,-0.174533,-0.174533,-0.575621,-0.693573,-0.170671,-0.189795,1.67783,-0.255188,-0.11591,0.457833
26,60,-0.567232,-0.698132,-0.174533,-0.174533,-0.575621,-0.693573,-0.170671,-0.189795,1.67783,-0.255188,-0.115911,0.457833
26,60,-0.567232,-0.698132,-0.174533,-0.174533,-0.575621,-0.693573,-0.170671,-0.189795,1.67783,-0.255188,-0.115912,0.457833
26,60,-0.567232,-0.698132,-0.174533,-0.174533,-0.575621,-0.693573,-0.170671,-0.189795,1.67783,-0.255188,-0.115913,0.457834
26,60,-0.567232,-0.698132,-0.174533,-0.174533,-0.575621,-0.693573,-0.170671,-0.189795,1.67783,-0.255188,-0.115914,0.457834
26,60,-0.567232,-0.698132,-0.174533,-0.174533,-0.575621,-0.693573,-0.170671,-0.189795,1.67783,-0.255188,-0.115915,0.457834
26,60,-0.567232,-0.698132,-0.174533,-0.174533,-0.575621,-0.693573,-0.170671,-0.189795,1.67783,-0.255188,-0.115916,0.457834
26,60,-0.567232,-0.698132,-0.174533,-0.174533,-0.575621,-0.693573,-0.170671,-0.189795,1.67783,-0.255188,-0.115916,0.457835
26,60,-0.567232,-0.698132,-0.174533,-0.174533,-0.575621,-0.693573,-0.170671,-0.189795,1.67783,-0.255188,-0.115917,0.457835
26,60,-0.567232,-0.698132,-0.174533,-0.174533,-0.575621,-0.693573,-0.170671,-0.189795,1.67783,-0.255188,-0.115918,0.457835
26,60,-0.567232,-0.698132,-0.174533,-0.174533,-0.575621,-0.693573,-0.170671,-0.189795,1.67783,-0.255188,-0.115919,0.457835
26,60,-0.567232,-0.698132,-0.174533,-0.174533,-0.575621,-0.693573,-0.170671,-0.189795,1.67783,-0.255188,-0.115919,0.457836
26,60,-0.567232,-0.698132,-0.174533,-0.174533,-0.575621,-0.693573,-0.170671,-0.189795,1.67783,-0.255188,-0.11592,0.457836
26,60,-0.567232,-0.698132,-0.174533,-0.174533,-0.575621,-0.693573,-0.170671,-0.189795,1.67783,-0.255188,-0.11592,0.457836
26,60,-0.567232,-0.698132,-0.174533,-0.174533,-0.575621,-0.693573,-0.170671,-0.189795,1.67783,-0.255188,-0.115921,0.457836
26,60,-0.567232,-0.698132,-0.174533,-0.174533,-0.575621,-0.693573,-0.170671,-0.189795,1.67783,-0.255188,-0.115922,0.457836
26,60,-0.567232,-0.698132,-0.174533,-0.174533,-0.575621,-0.693573,-0.170671,-0.189795,1.67783,-0.255188,-0.115922,0.457836
26,60,-0.567232,-0.698132,-0.174533,-0.174533,-0.575621,-0.693573,-0.170671,-0.189795,1.67783,-0.255188,-0.115923,0.457837
26,60,-0.567232,-0.698132,-0.174533,-0.174533,-0.575621,-0.693573,-0.170671,-0.189795,1.67783,-0.255188,-0.115923,0.457837
26,60,-0.567232,-0.698132,-0.174533,-0.174533,-0.575621,-0.693573,-0.170671,-0.189795,1.67783,-0.255188,-0.115924,0.457837
26,60,-0.567232,-0.698132,-0.174533,-0.174533,-0.575621,-0.693573,-0.170674,-0.189855,1.67783,-0.255188,-0.115818,0.459637
26,60,-0.567232,-0.698132,-0.174533,-0.174533,-0.575621,-0.693573,-0.170674,-0.189855,1.67783,-0.255188,-0.115818,0.459637
26,60,-0.567232,-0.698132,-0.174533,-0.174533,-0.575621,-0.693573,-0.170674,-0.189855,1.67783,-0.255188,-0.115819,0.459637
26,60,-0.567232,-0.698132,-0.174533,-0.174533,-0.575621,-0.693573,-0.170674,-0.189855,1.67783,-0.255188,-0.115819,0.459638
26,60,-0.567232,-0.698132,-0.174533,-0.174533,-0.575621,-0.693573,-0.170674,-0.189855,1.67783,-0.255188,-0.11582,0.459638
26,60,-0.567232,-0.698132,-0.174533,-0.174533,-0.575621,-0.693573,-0.170674,-0.189855,1.67783,-0.255188,-0.11582,0.459638
26,60,-0.567232,-0.698132,-0.174533,-0.174533,-0.575621,-0.693573,-0.170674,-0.189855,1.67783,-0.255188,-0.115821,0.459638
26,60,-0.567232,-0.698132,-0.174533,-0.174533,-0.575621,-0.693573,-0.170674,-0.189855,1.67783,-0.255188,-0.115821,0.459638
26,60,-0.567232,-0.698132,-0.174533,-0.174533,-0.575621,-0.693573,-0.170674,-0.189855,1.67783,-0.255188,-0.115821,0.459638
26,60,-0.567232,-0.698132,-0.174533,-0.174533,-0.575621,-0.693573,-0.170674,-0.189855,1.67783,-0.255188,-0.115822,0.459638
26,60,-0.567232,-0.698132,-0.174533,-0.174533,-0.575621,-0.693573,-0.170674,-0.189855,1.67783,-0.255188,-0.115822,0.459638
26,60,-0.567232,-0.698132,-0.174533,-0.174533,-0.575621,-0.693573,-0.170674,-0.189855,1.67783,-0.255188,-0.115822,0.459639
26,60,-0.567232,-0.698132,-0.174533,-0.174533,-0.575621,-0.693573,-0.170674,-0.189855,1.67783,-0.255188,-0.115823,0.459639
26,60,-0.567232,-0.698132,-0.174533,-0.174533,-0.575621,-0.693573,-0.170674,-0.189855,1.67783,-0.255188,-0.115823,0.459639
26,60,-0.567232,-0.698132,-0.174533,-0.174533,-0.575621,-0.693573,-0.170674,-0.189855,1.67783,-0.255188,-0.115823,0.459639
26,60,-0.567232,-0.698132,-0.174533,-0.174533,-0.575621,-0.693573,-0.170674,-0.189855,1.67783,-0.255188,-0.115824,0.459639
26,60,-0.567232,-0.698132,-0.174533,-0.174533,-0.575621,-0.693573,-0.170674,-0.189855,1.67783,-0.255188,-0.115824,0.459639
26,60,-0.567232,-0.698132,-0.174533,-0.174533,-0.575621,-0.693573,-0.170607,-0.189812,1.67783,-0.255188,-0.117876,0.458327
26,60,-0.567232,-0.698132,-0.174533,-0.174533,-0.575621,-0.693573,-0.170607,-0.189812,1.67783,-0.255188,-0.117876,0.458327
26,60,-0.567232,-0.698132,-0.174533,-0.174533,-0.575621,-0.693573,-0.170607,-0.189812,1.67783,-0.255188,-0.117876,0.458327
26,60,-0.567232,-0.698132,-0.174533,-0.174533,-0.575621,-0.693573,-0.170607,-0.189812,1.67783,-0.255188,-0.117877,0.458327
26,60,-0.567232,-0.698132,-0.174533,-0.174533,-0.575621,-0.693573,-0.170607,-0.189812,1.67783,-0.255188,-0.117877,0.458327
26,60,-0.567232,-0.698132,-0.174533,-0.174533,-0.575621,-0.693573,-0.170607,-0.189812,1.67783,-0.255188,-0.117877,0.458328
26,60,-0.567232,-0.698132,-0.174533,-0.174533,-0.575621,-0.693573,-0.170607,-0.189812,1.67783,-0.255188,-0.117877,0.458328
26,60,-0.567232,-0.698132,-0.174533,-0.174533,-0.575621,-0.693573,-0.170607,-0.189812,1.67783,-0.255188,-0.117878,0.458328
26,60,-0.567232,-0.698132,-0.174533,-0.174533,-0.575621,-0.693573,-0.170607,-0.189812,1.67783,-0.255188,-0.117878,0.458328
26,60,-0.567232,-0.698132,-0.174533,-0.174533,-0.575621,-0.693573,-0.170607,-0.189812,1.67783,-0.255188,-0.117878,0.458328
26,60,-0.567232,-0.698132,-0.174533,-0.174533,-0.575621,-0.693573,-0.17061,-0.189872,1.67783,-0.255188,-0.117772,0.460131
26,60,-0.567232,-0.698132,-0.174533,-0.174533,-0.575621,-0.693573,-0.17061,-0.189872,1.67783,-0.255188,-0.117772,0.460131
26,60,-0.567232,-0.698132,-0.174533,-0.174533,-0.575621,-0.693573,-0.17061,-0.189872,1.67783,-0.255188,-0.117773,0.460131
26,60,-0.567232,-0.698132,-0.174533,-0.174533,-0.575621,-0.693573,-0.17061,-0.189872,1.67783,-0.255188,-0.117773,0.460131
26,60,-0.567232,-0.698132,-0.174533,-0.174533,-0.575621,-0.693573,-0.17061,-0.189872,1.67783,-0.255188,-0.117773,0.460131
26,60,-0.567232,-0.698132,-0.174533,-0.174533,-0.575621,-0.693573,-0.17061,-0.189872,1.67783,-0.255267,-0.117773,0.460131
26,60,-0.567232,-0.698132,-0.174533,-0.174533,-0.575621,-0.693573,-0.17061,-0.189872,1.67783,-0.255267,-0.117773,0.460131
26,60,-0.567232,-0.698132,-0.174533,-0.174533,-0.575621,-0.693573,-0.17061,-0.189872,1.67783,-0.255267,-0.117774,0.460131
26,60,-0.567232,-0.698132,-0.174533,-0.174533,-0.575621,-0.693573,-0.17061,-0.189872,1.67783,-0.255267,-0.117774,0.460131
26,60,-0.567232,-0.698132,-0.174533,-0.174533,-0.575621,-0.693573,-0.17061,-0.189872,1.67783,-0.255267,-0.117774,0.460131
26,60,-0.567232,-0.698132,-0.174533,-0.174533,-0.575621,-0.693573,-0.17061,-0.189872,1.67783,-0.255267,-0.117774,0.460131
26,60,-0.567232,-0.698132,-0.174533,-0.174533,-0.575621,-0.693573,-0.17061,-0.189872,1.67783,-0.255267,-0.117774,0.460131
26,60,-0.567232,-0.698132,-0.174533,-0.174533,-0.575621,-0.693573,-0.17061,-0.189872,1.67783,-0.255267,-0.117775,0.460131
26,60,-0.567232,-0.698132,-0.174533,-0.174533,-0.575621,-0.693573,-0.17061,-0.189872,1.67783,-0.255267,-0.117775,0.460131
26,60,-0.567232,-0.698132,-0.174533,-0.174533,-0.575621,-0.693573,-0.170671,-0.189853,1.67783,-0.255267,-0.115898,0.459553
26,60,-0.567232,-0.698132,-0.174533,-0.174533,-0.575621,-0.693573,-0.170671,-0.189853,1.67783,-0.255267,-0.115898,0.459553
26,60,-0.567232,-0.698132,-0.174533,-0.174533,-0.575621,-0.693573,-0.170671,-0.189853,1.67783,-0.255267,-0.115898,0.459553
26,60,-0.567232,-0.698132,-0.174533,-0.174533,-0.575621,-0.693573,-0.170671,-0.189853,1.67783,-0.255267,-0.115898,0.459553
26,60,-0.567232,-0.698132,-0.174533,-0.174533,-0.575621,-0.693573,-0.170671,-0.189853,1.67783,-0.255267,-0.115898,0.459553
26,60,-0.567232,-0.698132,-0.174533,-0.174533,-0.575621,-0.693573,-0.170675,-0.189913,1.67783,-0.255267,-0.115791,0.461355
26,60,-0.567232,-0.698132,-0.174533,-0.174533,-0.575621,-0.693573,-0.170607,-0.189869,1.67783,-0.255267,-0.117775,0.460086
26,60,-0.567232,-0.698132,-0.174533,-0.174533,-0.575621,-0.693573,-0.170607,-0.189869,1.67783,-0.255267,-0.117775,0.460086
26,60,-0.567232,-0.698132,-0.174533,-0.174533,-0.575621,-0.693573,-0.170607,-0.189869,1.67783,-0.255267,-0.117775,0.460086
26,60,-0.567232,-0.698132,-0.174533,-0.174533,-0.575621,-0.693573,-0.170607,-0.189869,1.67783,-0.255267,-0.117775,0.460086
26,60,-0.567232,-0.698132,-0.174533,-0.174533,-0.575621,-0.693573,-0.170607,-0.189869,1.67783,-0.255267,-0.117775,0.460086
26,60,-0.567232,-0.698132,-0.174533,-0.174533,-0.575621,-0.693573,-0.170607,-0.189869,1.67783,-0.255267,-0.117775,0.460086
26,60,-0.567232,-0.698132,-0.174533,-0.174533,-0.575621,-0.693573,-0.170607,-0.189869,1.67783,-0.255267,-0.117775,0.460086
26,60,-0.567232,-0.698132,-0.174533,-0.174533,-0.575621,-0.693573,-0.170607,-0.189869,1.67783,-0.255267,-0.117775,0.460086
26,60,-0.567232,-0.698132,-0.174533,-0.174533,-0.575621,-0.693573,-0.170607,-0.189869,1.67783,-0.255267,-0.117775,0.460086
26,60,-0.567232,-0.698132,-0.174533,-0.174533,-0.575621,-0.693573,-0.170607,-0.189869,1.67783,-0.255267,-0.117775,0.460086
26,60,-0.567232,-0.698132,-0.174533,-0.174533,-0.575621,-0.693573,-0.170607,-0.189869,1.67783,-0.255267,-0.117775,0.460086
26,60,-0.567232,-0.698132,-0.174533,-0.174533,-0.575621,-0.693573,-0.170607,-0.189869,1.67783,-0.255267,-0.117775,0.460086
26,60,-0.567232,-0.698132,-0.174533,-0.174533,-0.575621,-0.693573,-0.170607,-0.189869,1.67783,-0.255267,-0.117775,0.460086
26,60,-0.567232,-0.698132,-0.174533,-0.174533,-0.575621,-0.693573,-0.170607,-0.189869,1.67783,-0.255267,-0.117775,0.460086
26,60,-0.567232,-0.698132,-0.174533,-0.174533,-0.575621,-0.693573,-0.170607,-0.189869,1.67783,-0.255267,-0.117775,0.460086
26,60,-0.567232,-0.698132,-0.174533,-0.174533,-0.575621,-0.693573,-0.170607,-0.189869,1.67783,-0.255267,-0.117775,0.460086
26,60,-0.567232,-0.698132,-0.174533,-0.174533,-0.575621,-0.693573,-0.170607,-0.189869,1.67783,-0.255267,-0.117775,0.460086
26,60,-0.567232,-0.698132,-0.174533,-0.174533,-0.575621,-0.693573,-0.170539,-0.189826,1.67783,-0.255267,-0.1198,0.458791
26,60,-0.567232,-0.698132,-0.174533,-0.174533,-0.575621,-0.693573,-0.170539,-0.189826,1.67783,-0.255267,-0.1198,0.458791
26,60,-0.567232,-0.698132,-0.174533,-0.174533,-0.575621,-0.693573,-0.170539,-0.189826,1.67783,-0.255267,-0.1198,0.458791
26,60,-0.567232,-0.698132,-0.174533,-0.174533,-0.575621,-0.693573,-0.170539,-0.189826,1.67783,-0.255267,-0.1198,0.458791
26,60,-0.567232,-0.698132,-0.174533,-0.174533,-0.575621,-0.693573,-0.170539,-0.189826,1.67783,-0.255267,-0.1198,0.458791
26,60,-0.567232,-0.698132,-0.174533,-0.174533,-0.575621,-0.693573,-0.170471,-0.189782,1.67783,-0.255267,-0.121837,0.457488
26,60,-0.567232,-0.698132,-0.174533,-0.174533,-0.575621,-0.693573,-0.170471,-0.189782,1.67783,-0.255267,-0.121837,0.457488
26,60,-0.567232,-0.698132,-0.174533,-0.174533,-0.575621,-0.693573,-0.170475,-0.189842,1.67783,-0.255267,-0.121732,0.459288
26,60,-0.567232,-0.698132,-0.174533,-0.174533,-0.575621,-0.693573,-0.170475,-0.189842,1.67783,-0.255267,-0.121732,0.459288
26,60,-0.567232,-0.698132,-0.174533,-0.174533,-0.575621,-0.693573,-0.170475,-0.189842,1.67783,-0.255267,-0.121732,0.459288
26,60,-0.567232,-0.698132,-0.174533,-0.174533,-0.575621,-0.693573,-0.170475,-0.189842,1.67783,-0.255267,-0.121732,0.459288
26,60,-0.567232,-0.698132,-0.174533,-0.174533,-0.575621,-0.693573,-0.170475,-0.189842,1.67783,-0.255267,-0.121732,0.459288
26,60,-0.567232,-0.698132,-0.174533,-0.174533,-0.575621,-0.693573,-0.170475,-0.189842,1.67783,-0.255267,-0.121732,0.459288
26,60,-0.567232,-0.698132,-0.174533,-0.174533,-0.575621,-0.693573,-0.170475,-0.189842,1.67783,-0.255267,-0.121732,0.459288
26,60,-0.567232,-0.698132,-0.174533,-0.174533,-0.575621,-0.693573,-0.170475,-0.189842,1.67783,-0.255267,-0.121732,0.459288
26,60,-0.567232,-0.698132,-0.174533,-0.174533,-0.575621,-0.693573,-0.170475,-0.189842,1.67783,-0.255267,-0.121732,0.459288
26,60,-0.567232,-0.698132,-0.174533,-0.174533,-0.575621,-0.693573,-0.170475,-0.189842,1.67783,-0.255267,-0.121732,0.459288
26,60,-0.567232,-0.698132,-0.174533,-0.174533,-0.575621,-0.693573,-0.170475,-0.189842,1.67783,-0.255267,-0.121732,0.459288
26,60,-0.567232,-0.698132,-0.174533,-0.174533,-0.575621,-0.693573,-0.170475,-0.189842,1.67783,-0.255267,-0.121732,0.459288
26,60,-0.567232,-0.698132,-0.174533,-0.174533,-0.575621,-0.693573,-0.170475,-0.189842,1.67783,-0.255267,-0.121732,0.459288
26,60,-0.567232,-0.698132,-0.174533,-0.174533,-0.575621,-0.693573,-0.170475,-0.189842,1.67783,-0.255267,-0.121732,0.459288
26,60,-0.567232,-0.698132,-0.174533,-0.174533,-0.575621,-0.693573,-0.170475,-0.189842,1.67783,-0.255267,-0.121732,0.459288
26,60,-0.567232,-0.698132,-0.174533,-0.174533,-0.575621,-0.693573,-0.170475,-0.189842,1.67783,-0.255267,-0.121732,0.459288
26,60,-0.567232,-0.698132,-0.174533,-0.174533,-0.575621,-0.693573,-0.170475,-0.189842,1.67783,-0.255267,-0.121732,0.459288
26,60,-0.567232,-0.698132,-0.174533,-0.174533,-0.575621,-0.693573,-0.170475,-0.189842,1.67783,-0.255267,-0.121732,0.459288
26,60,-0.567232,-0.698132,-0.174533,-0.174533,-0.575621,-0.693573,-0.170475,-0.189842,1.67783,-0.255267,-0.121732,0.459288
26,60,-0.567232,-0.698132,-0.174533,-0.174533,-0.575621,-0.693573,-0.170475,-0.189842,1.67783,-0.255267,-0.121733,0.459288
26,60,-0.567232,-0.698132,-0.174533,-0.174533,-0.575621,-0.693573,-0.170475,-0.189842,1.67783,-0.255267,-0.121734,0.459289
26,60,-0.567232,-0.698132,-0.174533,-0.174533,-0.575621,-0.693573,-0.170475,-0.189842,1.67783,-0.255267,-0.121735,0.459289
26,60,-0.567232,-0.698132,-0.174533,-0.174533,-0.575621,-0.693573,-0.170475,-0.189842,1.67783,-0.255267,-0.121736,0.459289
26,60,-0.567232,-0.698132,-0.174533,-0.174533,-0.575621,-0.693624,-0.170475,-0.189842,1.67783,-0.252319,-0.121737,0.45929
26,60,-0.567232,-0.698132,-0.174533,-0.174533,-0.575621,-0.693624,-0.170478,-0.189902,1.67783,-0.252319,-0.121633,0.461089
26,60,-0.567232,-0.698132,-0.174533,-0.174533,-0.575621,-0.693624,-0.170478,-0.189902,1.67783,-0.252319,-0.121634,0.461089
26,60,-0.567232,-0.698132,-0.174533,-0.174533,-0.575621,-0.693624,-0.170478,-0.189902,1.67783,-0.252319,-0.121635,0.461089
26,60,-0.567232,-0.698132,-0.174533,-0.174533,-0.575621,-0.693624,-0.170478,-0.189902,1.67783,-0.252319,-0.121635,0.46109
26,60,-0.567232,-0.698132,-0.174533,-0.174533,-0.575621,-0.693624,-0.170478,-0.189902,1.67783,-0.252319,-0.121636,0.46109
26,60,-0.567232,-0.698132,-0.174533,-0.174533,-0.575621,-0.693624,-0.170478,-0.189902,1.67783,-0.252319,-0.121637,0.46109
26,60,-0.567232,-0.698132,-0.174533,-0.174533,-0.575621,-0.693624,-0.17041,-0.189859,1.67783,-0.252319,-0.123679,0.459785
26,60,-0.567232,-0.698132,-0.174533,-0.174533,-0.575621,-0.693624,-0.17041,-0.189859,1.67783,-0.252319,-0.12368,0.459785
26,60,-0.567232,-0.698132,-0.174533,-0.174533,-0.575621,-0.693624,-0.17041,-0.189859,1.67783,-0.252319,-0.123681,0.459786
26,60,-0.567232,-0.698132,-0.174533,-0.174533,-0.575621,-0.693624,-0.17041,-0.189859,1.67783,-0.252319,-0.123681,0.459786
26,60,-0.567232,-0.698132,-0.174533,-0.174533,-0.575621,-0.693624,-0.17041,-0.189859,1.67783,-0.252319,-0.123682,0.459786
26,60,-0.567232,-0.698132,-0.174533,-0.174533,-0.575621,-0.693624,-0.17041,-0.189859,1.67783,-0.252319,-0.123683,0.459786
26,60,-0.567232,-0.698132,-0.174533,-0.174533,-0.575621,-0.693624,-0.17041,-0.189859,1.67783,-0.252319,-0.123684,0.459787
26,60,-0.567232,-0.698132,-0.174533,-0.174533,-0.575621,-0.693624,-0.17041,-0.189859,1.67783,-0.252319,-0.123684,0.459787
26,60,-0.567232,-0.698132,-0.174533,-0.174533,-0.575621,-0.693624,-0.17041,-0.189859,1.67783,-0.252319,-0.123685,0.459787
26,60,-0.567232,-0.698132,-0.174533,-0.174533,-0.575621,-0.693624,-0.17041,-0.189859,1.67783,-0.252319,-0.123685,0.459787
26,60,-0.567232,-0.698132,-0.174533,-0.174533,-0.575621,-0.693624,-0.17041,-0.189859,1.67783,-0.252319,-0.123686,0.459787
26,60,-0.567232,-0.698132,-0.174533,-0.174533,-0.575621,-0.693624,-0.17041,-0.189859,1.67783,-0.252319,-0.123687,0.459788
26,60,-0.567232,-0.698132,-0.174533,-0.174533,-0.575621,-0.693624,-0.17041,-0.189859,1.67783,-0.252319,-0.123687,0.459788
26,60,-0.567232,-0.698132,-0.174533,-0.174533,-0.575621,-0.693624,-0.17041,-0.189859,1.67783,-0.252319,-0.123688,0.459788
26,60,-0.567232,-0.698132,-0.174533,-0.174533,-0.575621,-0.693624,-0.17041,-0.189859,1.67783,-0.252319,-0.123688,0.459788
26,60,-0.567232,-0.698132,-0.174533,-0.174533,-0.575621,-0.693624,-0.17041,-0.189859,1.67783,-0.252319,-0.123689,0.459788
26,60,-0.567232,-0.698132,-0.174533,-0.174533,-0.575621,-0.693624,-0.17041,-0.189859,1.67783,-0.252319,-0.123689,0.459788
26,60,-0.567232,-0.698132,-0.174533,-0.174533,-0.575621,-0.693624,-0.170471,-0.18984,1.67783,-0.252319,-0.121868,0.459227
26,60,-0.567232,-0.698132,-0.174533,-0.174533,-0.575621,-0.693624,-0.170475,-0.1899,1.67783,-0.252319,-0.121762,0.461024
26,60,-0.567232,-0.698132,-0.174533,-0.174533,-0.575621,-0.693624,-0.170475,-0.1899,1.67783,-0.252319,-0.121762,0.461024
26,60,-0.567232,-0.698132,-0.174533,-0.174533,-0.575621,-0.693624,-0.170475,-0.1899,1.67783,-0.252319,-0.121762,0.461024
26,60,-0.567232,-0.698132,-0.174533,-0.174533,-0.575621,-0.693624,-0.170475,-0.1899,1.67783,-0.252319,-0.121762,0.461024
26,60,-0.567232,-0.698132,-0.174533,-0.174533,-0.575621,-0.693624,-0.170475,-0.1899,1.67783,-0.252319,-0.121762,0.461024
26,60,-0.567232,-0.698132,-0.174533,-0.174533,-0.575621,-0.693624,-0.170475,-0.1899,1.67783,-0.252319,-0.121762,0.461024
26,60,-0.567232,-0.698132,-0.174533,-0.174533,-0.575621,-0.693624,-0.170475,-0.1899,1.67783,-0.252319,-0.121762,0.461024
26,60,-0.567232,-0.698132,-0.174533,-0.174533,-0.575621,-0.693624,-0.170475,-0.1899,1.67783,-0.252319,-0.121762,0.461024
26,60,-0.567232,-0.698132,-0.174533,-0.174533,-0.575621,-0.693624,-0.170475,-0.1899,1.67783,-0.252319,-0.121762,0.461024
26,60,-0.567232,-0.698132,-0.174533,-0.174533,-0.575621,-0.693624,-0.170475,-0.1899,1.67783,-0.252319,-0.121762,0.461024
26,60,-0.567232,-0.698132,-0.174533,-0.174533,-0.575621,-0.693624,-0.170475,-0.1899,1.67783,-0.252319,-0.121762,0.461024
26,60,-0.567232,-0.698132,-0.174533,-0.174533,-0.575621,-0.693624,-0.170475,-0.1899,1.67783,-0.252319,-0.121762,0.461024
26,60,-0.567232,-0.698132,-0.174533,-0.174533,-0.575621,-0.693624,-0.170475,-0.1899,1.67783,-0.252319,-0.121762,0.461024
26,60,-0.567232,-0.698132,-0.174533,-0.174533,-0.575621,-0.693624,-0.170475,-0.1899,1.67783,-0.252319,-0.121762,0.461024
26,60,-0.567232,-0.698132,-0.174533,-0.174533,-0.575621,-0.693624,-0.170475,-0.1899,1.67783,-0.252319,-0.121762,0.461024
26,60,-0.567232,-0.698132,-0.174533,-0.174533,-0.575621,-0.693624,-0.170475,-0.1899,1.67783,-0.252319,-0.121762,0.461024
26,60,-0.567232,-0.698132,-0.174533,-0.174533,-0.575621,-0.693624,-0.170475,-0.1899,1.67783,-0.252319,-0.121762,0.461024
26,60,-0.567232,-0.698132,-0.174533,-0.174533,-0.575621,-0.693624,-0.170475,-0.1899,1.67783,-0.252319,-0.121762,0.461024
26,60,-0.567232,-0.698132,-0.174533,-0.174533,-0.575621,-0.693624,-0.170475,-0.1899,1.67783,-0.252319,-0.121762,0.461024
26,60,-0.567232,-0.698132,-0.174533,-0.174533,-0.575621,-0.693624,-0.170475,-0.1899,1.67783,-0.252319,-0.121762,0.461024
26,60,-0.567232,-0.698132,-0.174533,-0.174533,-0.575621,-0.693624,-0.170475,-0.1899,1.67783,-0.252319,-0.121762,0.461024
26,60,-0.567232,-0.698132,-0.174533,-0.174533,-0.575621,-0.693624,-0.170475,-0.1899,1.67783,-0.252319,-0.121762,0.461024
26,60,-0.567232,-0.698132,-0.174533,-0.174533,-0.575621,-0.693624,-0.170475,-0.1899,1.67783,-0.252319,-0.121762,0.461024
26,60,-0.567232,-0.698132,-0.174533,-0.174533,-0.575621,-0.693624,-0.170475,-0.1899,1.67783,-0.252319,-0.121762,0.461024
26,60,-0.567232,-0.698132,-0.174533,-0.174533,-0.575621,-0.693624,-0.170478,-0.18996,1.67783,-0.252319,-0.121656,0.462824
26,60,-0.567232,-0.698132,-0.174533,-0.174533,-0.575621,-0.693624,-0.170478,-0.18996,1.67783,-0.252319,-0.121656,0.462824
26,60,-0.567232,-0.698132,-0.174533,-0.174533,-0.575621,-0.693624,-0.170478,-0.18996,1.67783,-0.252319,-0.121656,0.462824
26,60,-0.567232,-0.698132,-0.174533,-0.174533,-0.575621,-0.693624,-0.170478,-0.18996,1.67783,-0.252319,-0.121656,0.462824
26,60,-0.567232,-0.698132,-0.174533,-0.174533,-0.575621,-0.693624,-0.170478,-0.18996,1.67783,-0.252319,-0.121656,0.462824
26,60,-0.567232,-0.698132,-0.174533,-0.174533,-0.575621,-0.693624,-0.170478,-0.18996,1.67783,-0.252319,-0.121656,0.462824
26,60,-0.567232,-0.698132,-0.174533,-0.174533,-0.575621,-0.693624,-0.170478,-0.18996,1.67783,-0.252319,-0.121656,0.462824
26,60,-0.567232,-0.698132,-0.174533,-0.174533,-0.575621,-0.693624,-0.170478,-0.18996,1.67783,-0.252319,-0.121656,0.462824
26,60,-0.567232,-0.698132,-0.174533,-0.174533,-0.575621,-0.693624,-0.17041,-0.189917,1.67783,-0.252319,-0.123709,0.461511
26,60,-0.567232,-0.698132,-0.174533,-0.174533,-0.575621,-0.693624,-0.17041,-0.189917,1.67783,-0.252319,-0.123709,0.461511
26,60,-0.567232,-0.698132,-0.174533,-0.174533,-0.575621,-0.693624,-0.17041,-0.189917,1.67783,-0.252319,-0.123709,0.461511
26,60,-0.567232,-0.698132,-0.174533,-0.174533,-0.575621,-0.693624,-0.17041,-0.189917,1.67783,-0.252319,-0.123709,0.461511
26,60,-0.567232,-0.698132,-0.174533,-0.174533,-0.575621,-0.693624,-0.17041,-0.189917,1.67783,-0.252319,-0.123709,0.461511
26,60,-0.567232,-0.698132,-0.174533,-0.174533,-0.575621,-0.693624,-0.17041,-0.189917,1.67783,-0.252319,-0.123709,0.461511
26,60,-0.567232,-0.698132,-0.174533,-0.174533,-0.575621,-0.693624,-0.17041,-0.189917,1.67783,-0.252319,-0.123709,0.461511
26,60,-0.567232,-0.698132,-0.174533,-0.174533,-0.575621,-0.693624,-0.17041,-0.189917,1.67783,-0.252319,-0.123709,0.461511
26,60,-0.567232,-0.698132,-0.174533,-0.174533,-0.575621,-0.693624,-0.17041,-0.189917,1.67783,-0.252319,-0.123709,0.461511
26,60,-0.567232,-0.698132,-0.174533,-0.174533,-0.575621,-0.693624,-0.17041,-0.189917,1.67783,-0.252319,-0.123709,0.461511
26,60,-0.567232,-0.698132,-0.174533,-0.174533,-0.575621,-0.693624,-0.17041,-0.189917,1.67783,-0.252319,-0.123709,0.461511
26,60,-0.567232,-0.698132,-0.174533,-0.174533,-0.575621,-0.693624,-0.17041,-0.189917,1.67783,-0.252319,-0.123709,0.461511
26,60,-0.567232,-0.698132,-0.174533,-0.174533,-0.575621,-0.693624,-0.17041,-0.189917,1.67783,-0.252319,-0.123709,0.461511
26,60,-0.567232,-0.698132,-0.174533,-0.174533,-0.575621,-0.693624,-0.17041,-0.189917,1.67783,-0.252319,-0.123709,0.461511
26,60,-0.567232,-0.698132,-0.174533,-0.174533,-0.575621,-0.693624,-0.170414,-0.189977,1.67783,-0.252319,-0.123604,0.463308
26,60,-0.567232,-0.698132,-0.174533,-0.174533,-0.575621,-0.693624,-0.170414,-0.189977,1.67783,-0.252319,-0.123604,0.463308
26,60,-0.567232,-0.698132,-0.174533,-0.174533,-0.575621,-0.693624,-0.170414,-0.189977,1.67783,-0.252319,-0.123604,0.463308
26,60,-0.567232,-0.698132,-0.174533,-0.174533,-0.575621,-0.693624,-0.170414,-0.189977,1.67783,-0.252319,-0.123604,0.463308
26,60,-0.567232,-0.698132,-0.174533,-0.174533,-0.575621,-0.693624,-0.170414,-0.189977,1.67783,-0.252319,-0.123604,0.463308
26,60,-0.567232,-0.698132,-0.174533,-0.174533,-0.575621,-0.693624,-0.170414,-0.189977,1.67783,-0.252319,-0.123604,0.463308
26,60,-0.567232,-0.698132,-0.174533,-0.174533,-0.575621,-0.693624,-0.170414,-0.189977,1.67783,-0.252319,-0.123604,0.463308
26,60,-0.567232,-0.698132,-0.174533,-0.174533,-0.575621,-0.693624,-0.170414,-0.189977,1.67783,-0.252319,-0.123604,0.463308
26,60,-0.567232,-0.698132,-0.174533,-0.174533,-0.575621,-0.693624,-0.170414,-0.189977,1.67783,-0.252319,-0.123604,0.463308
26,60,-0.567232,-0.698132,-0.174533,-0.174533,-0.575621,-0.693624,-0.170346,-0.189933,1.67783,-0.252319,-0.125629,0.462012
26,60,-0.567232,-0.698132,-0.174533,-0.174533,-0.575621,-0.693624,-0.170346,-0.189933,1.67783,-0.252319,-0.125629,0.462012
26,60,-0.567232,-0.698132,-0.174533,-0.174533,-0.575621,-0.693624,-0.170346,-0.189933,1.67783,-0.252319,-0.125629,0.462012
26,60,-0.567232,-0.698132,-0.174533,-0.174533,-0.575621,-0.693624,-0.170346,-0.189933,1.67783,-0.252319,-0.125629,0.462012
26,60,-0.567232,-0.698132,-0.174533,-0.174533,-0.575621,-0.693624,-0.170346,-0.189933,1.67783,-0.252319,-0.125629,0.462012
26,60,-0.567232,-0.698132,-0.174533,-0.174533,-0.575621,-0.693624,-0.170346,-0.189933,1.67783,-0.252319,-0.125629,0.462012
26,60,-0.567232,-0.698132,-0.174533,-0.174533,-0.575621,-0.693624,-0.170346,-0.189933,1.67783,-0.252319,-0.125629,0.462012
26,60,-0.567232,-0.698132,-0.174533,-0.174533,-0.575621,-0.693624,-0.170346,-0.189933,1.67783,-0.252319,-0.125629,0.462012
26,60,-0.567232,-0.698132,-0.174533,-0.174533,-0.575621,-0.693624,-0.170346,-0.189933,1.67783,-0.252319,-0.125629,0.462012
26,60,-0.567232,-0.698132,-0.174533,-0.174533,-0.575621,-0.693624,-0.170346,-0.189933,1.67783,-0.252319,-0.125629,0.462012
26,60,-0.567232,-0.698132,-0.174533,-0.174533,-0.575621,-0.693624,-0.170346,-0.189933,1.67783,-0.252319,-0.125629,0.462012
26,60,-0.567232,-0.698132,-0.174533,-0.174533,-0.575621,-0.693624,-0.170346,-0.189933,1.67783,-0.252319,-0.125629,0.462012
26,60,-0.567232,-0.698132,-0.174533,-0.174533,-0.575621,-0.693624,-0.170346,-0.189933,1.67783,-0.252319,-0.125629,0.462012
26,60,-0.567232,-0.698132,-0.174533,-0.174533,-0.575621,-0.693624,-0.170346,-0.189933,1.67783,-0.252319,-0.125629,0.462012
26,60,-0.567232,-0.698132,-0.174533,-0.174533,-0.575621,-0.693624,-0.170346,-0.189933,1.67783,-0.252319,-0.125629,0.462012
26,60,-0.567232,-0.698132,-0.174533,-0.174533,-0.575621,-0.693624,-0.170346,-0.189933,1.67783,-0.252319,-0.125629,0.462012
26,60,-0.567232,-0.698132,-0.174533,-0.174533,-0.575621,-0.693624,-0.170346,-0.189933,1.67783,-0.252319,-0.125629,0.462012
26,60,-0.567232,-0.698132,-0.174533,-0.174533,-0.575621,-0.693624,-0.170346,-0.189933,1.67783,-0.252319,-0.125629,0.462012
26,60,-0.567232,-0.698132,-0.174533,-0.174533,-0.575621,-0.693624,-0.170346,-0.189933,1.67783,-0.252319,-0.125629,0.462012
26,60,-0.567232,-0.698132,-0.174533,-0.174533,-0.575621,-0.693624,-0.170346,-0.189933,1.67783,-0.252319,-0.125629,0.462012
26,60,-0.567232,-0.698132,-0.174533,-0.174533,-0.575621,-0.693624,-0.170346,-0.189933,1.67783,-0.252319,-0.125629,0.462012
26,60,-0.567232,-0.698132,-0.174533,-0.174533,-0.575621,-0.693624,-0.170346,-0.189933,1.67783,-0.252319,-0.125629,0.462012
26,60,-0.567232,-0.698132,-0.174533,-0.174533,-0.575621,-0.693624,-0.170346,-0.189933,1.67783,-0.252319,-0.125629,0.462012
26,60,-0.567232,-0.698132,-0.174533,-0.174533,-0.575621,-0.693624,-0.170346,-0.189933,1.67783,-0.252319,-0.125629,0.462012
26,60,-0.567232,-0.698132,-0.174533,-0.174533,-0.575621,-0.693624,-0.170346,-0.189933,1.67783,-0.252319,-0.125629,0.462012
26,60,-0.567232,-0.698132,-0.174533,-0.174533,-0.575621,-0.693624,-0.170346,-0.189933,1.67783,-0.252319,-0.125629,0.462012
26,60,-0.567232,-0.698132,-0.174533,-0.174533,-0.575621,-0.693624,-0.170346,-0.189933,1.67783,-0.252319,-0.125629,0.462012
26,60,-0.567232,-0.698132,-0.174533,-0.174533,-0.575621,-0.693624,-0.170278,-0.18989,1.67783,-0.252319,-0.127663,0.460712
26,60,-0.567232,-0.698132,-0.174533,-0.174533,-0.575621,-0.693624,-0.170278,-0.18989,1.67783,-0.252319,-0.127663,0.460712
26,60,-0.567232,-0.698132,-0.174533,-0.174533,-0.575621,-0.693624,-0.170278,-0.18989,1.67783,-0.252319,-0.127663,0.460712
26,60,-0.567232,-0.698132,-0.174533,-0.174533,-0.575621,-0.693624,-0.170278,-0.18989,1.67783,-0.252319,-0.127663,0.460712
26,60,-0.567232,-0.698132,-0.174533,-0.174533,-0.575621,-0.693624,-0.170278,-0.18989,1.67783,-0.252319,-0.127663,0.460712
26,60,-0.567232,-0.698132,-0.174533,-0.174533,-0.575621,-0.693624,-0.170278,-0.18989,1.67783,-0.252319,-0.127663,0.460712
26,60,-0.567232,-0.698132,-0.174533,-0.174533,-0.575621,-0.693624,-0.170278,-0.18989,1.67783,-0.252319,-0.127663,0.460712
26,60,-0.567232,-0.698132,-0.174533,-0.174533,-0.575621,-0.693624,-0.170282,-0.18995,1.67783,-0.252319,-0.127557,0.462512
26,60,-0.567232,-0.698132,-0.174533,-0.174533,-0.575621,-0.693624,-0.170282,-0.18995,1.67783,-0.252319,-0.127557,0.462512
26,60,-0.567232,-0.698132,-0.174533,-0.174533,-0.575621,-0.693624,-0.170282,-0.18995,1.67783,-0.252319,-0.127557,0.462512
26,60,-0.567232,-0.698132,-0.174533,-0.174533,-0.575621,-0.693624,-0.170282,-0.18995,1.67783,-0.252319,-0.127557,0.462512
26,60,-0.567232,-0.698132,-0.174533,-0.174533,-0.575621,-0.693675,-0.170282,-0.18995,1.67783,-0.249472,-0.127557,0.462512
26,60,-0.567232,-0.698132,-0.174533,-0.174533,-0.575621,-0.693675,-0.170282,-0.18995,1.67783,-0.249472,-0.127557,0.462512
26,60,-0.567232,-0.698132,-0.174533,-0.174533,-0.575621,-0.693675,-0.170282,-0.18995,1.67783,-0.249472,-0.127557,0.462512
26,60,-0.567232,-0.698132,-0.174533,-0.174533,-0.575621,-0.693675,-0.170282,-0.18995,1.67783,-0.249472,-0.127557,0.462512
26,60,-0.567232,-0.698132,-0.174533,-0.174533,-0.575621,-0.693675,-0.170282,-0.18995,1.67783,-0.249472,-0.127557,0.462512
26,60,-0.567232,-0.698132,-0.174533,-0.174533,-0.575621,-0.693675,-0.170282,-0.18995,1.67783,-0.249472,-0.127557,0.462512
26,60,-0.567232,-0.698132,-0.174533,-0.174533,-0.575621,-0.693675,-0.170282,-0.18995,1.67783,-0.249472,-0.127557,0.462512
26,60,-0.567232,-0.698132,-0.174533,-0.174533,-0.575621,-0.693675,-0.170282,-0.18995,1.67783,-0.249472,-0.127557,0.462512
26,60,-0.567232,-0.698132,-0.174533,-0.174533,-0.575621,-0.693675,-0.170282,-0.18995,1.67783,-0.249472,-0.127557,0.462512
26,60,-0.567232,-0.698132,-0.174533,-0.174533,-0.575621,-0.693675,-0.170282,-0.18995,1.67783,-0.249472,-0.127557,0.462512
26,60,-0.567232,-0.698132,-0.174533,-0.174533,-0.575621,-0.693675,-0.170282,-0.18995,1.67783,-0.249472,-0.127557,0.462512
26,60,-0.567232,-0.698132,-0.174533,-0.174533,-0.575621,-0.693675,-0.170282,-0.18995,1.67783,-0.249472,-0.127557,0.462512
26,60,-0.567232,-0.698132,-0.174533,-0.174533,-0.575621,-0.693675,-0.170282,-0.18995,1.67783,-0.249472,-0.127557,0.462512
26,60,-0.567232,-0.698132,-0.174533,-0.174533,-0.575621,-0.693675,-0.170282,-0.18995,1.67783,-0.249472,-0.127557,0.462512
26,60,-0.567232,-0.698132,-0.174533,-0.174533,-0.575621,-0.693675,-0.170282,-0.18995,1.67783,-0.249472,-0.127557,0.462512
26,60,-0.567232,-0.698132,-0.174533,-0.174533,-0.575621,-0.693675,-0.170282,-0.18995,1.67783,-0.249472,-0.127558,0.462512
26,60,-0.567232,-0.698132,-0.174533,-0.174533,-0.575621,-0.693675,-0.170282,-0.18995,1.67783,-0.249472,-0.127558,0.462512
26,60,-0.567232,-0.698132,-0.174533,-0.174533,-0.575621,-0.693675,-0.170282,-0.18995,1.67783,-0.249472,-0.127558,0.462512
26,60,-0.567232,-0.698132,-0.174533,-0.174533,-0.575621,-0.693675,-0.170282,-0.18995,1.67783,-0.249472,-0.127558,0.462512
26,60,-0.567232,-0.698132,-0.174533,-0.174533,-0.575621,-0.693675,-0.170282,-0.18995,1.67783,-0.249472,-0.127559,0.462512
26,60,-0.567232,-0.698132,-0.174533,-0.174533,-0.575621,-0.693675,-0.170282,-0.18995,1.67783,-0.249472,-0.127559,0.462512
26,60,-0.567232,-0.698132,-0.174533,-0.174533,-0.575621,-0.693675,-0.170282,-0.18995,1.67783,-0.249472,-0.127559,0.462512
26,60,-0.567232,-0.698132,-0.174533,-0.174533,-0.575621,-0.693675,-0.170282,-0.18995,1.67783,-0.249472,-0.127559,0.462512
26,60,-0.567232,-0.698132,-0.174533,-0.174533,-0.575621,-0.693675,-0.170282,-0.18995,1.67783,-0.249472,-0.12756,0.462512
26,60,-0.567232,-0.698132,-0.174533,-0.174533,-0.575621,-0.693675,-0.170282,-0.18995,1.67783,-0.249472,-0.12756,0.462512
26,60,-0.567232,-0.698132,-0.174533,-0.174533,-0.575621,-0.693675,-0.170282,-0.18995,1.67783,-0.249472,-0.12756,0.462512
26,60,-0.567232,-0.698132,-0.174533,-0.174533,-0.575621,-0.693675,-0.170285,-0.19001,1.67783,-0.249472,-0.127455,0.464303
26,60,-0.567232,-0.698132,-0.174533,-0.174533,-0.575621,-0.693675,-0.170285,-0.19001,1.67783,-0.249472,-0.127455,0.464303
26,60,-0.567232,-0.698132,-0.174533,-0.174533,-0.575621,-0.693675,-0.170285,-0.19001,1.67783,-0.249472,-0.127455,0.464303
26,60,-0.567232,-0.698132,-0.174533,-0.174533,-0.575621,-0.693675,-0.170285,-0.19001,1.67783,-0.249472,-0.127456,0.464303
26,60,-0.567232,-0.698132,-0.174533,-0.174533,-0.575621,-0.693675,-0.170285,-0.19001,1.67783,-0.249472,-0.127456,0.464303
26,60,-0.567232,-0.698132,-0.174533,-0.174533,-0.575621,-0.693675,-0.170285,-0.19001,1.67783,-0.249472,-0.127456,0.464303
26,60,-0.567232,-0.698132,-0.174533,-0.174533,-0.575621,-0.693675,-0.170346,-0.189991,1.67783,-0.249472,-0.125625,0.463739
26,60,-0.567232,-0.698132,-0.174533,-0.174533,-0.575621,-0.693675,-0.170278,-0.189947,1.67783,-0.249472,-0.127654,0.462441
26,60,-0.567232,-0.698132,-0.174533,-0.174533,-0.575621,-0.693675,-0.170278,-0.189947,1.67783,-0.249472,-0.127654,0.462441
26,60,-0.567232,-0.698132,-0.174533,-0.174533,-0.575621,-0.693675,-0.170278,-0.189947,1.67783,-0.249472,-0.127654,0.462441
26,60,-0.567232,-0.698132,-0.174533,-0.174533,-0.575621,-0.693675,-0.170278,-0.189947,1.67783,-0.249472,-0.127654,0.462441
26,60,-0.567232,-0.698132,-0.174533,-0.174533,-0.575621,-0.693675,-0.170278,-0.189947,1.67783,-0.249472,-0.127654,0.462441
26,60,-0.567232,-0.698132,-0.174533,-0.174533,-0.575621,-0.693675,-0.170278,-0.189947,1.67783,-0.249472,-0.127654,0.462441
26,60,-0.567232,-0.698132,-0.174533,-0.174533,-0.575621,-0.693675,-0.170278,-0.189947,1.67783,-0.249472,-0.127654,0.462441
26,60,-0.567232,-0.698132,-0.174533,-0.174533,-0.575621,-0.693675,-0.170278,-0.189947,1.67783,-0.249472,-0.127654,0.462441
26,60,-0.567232,-0.698132,-0.174533,-0.174533,-0.575621,-0.693675,-0.170278,-0.189947,1.67783,-0.249472,-0.127654,0.462441
26,60,-0.567232,-0.698132,-0.174533,-0.174533,-0.575621,-0.693675,-0.170278,-0.189947,1.67783,-0.249472,-0.127654,0.462441
26,60,-0.567232,-0.698132,-0.174533,-0.174533,-0.575621,-0.693675,-0.170282,-0.190007,1.67783,-0.249472,-0.127549,0.464238
26,60,-0.567232,-0.698132,-0.174533,-0.174533,-0.575621,-0.693675,-0.170282,-0.190007,1.67783,-0.249472,-0.127549,0.464238
26,60,-0.567232,-0.698132,-0.174533,-0.174533,-0.575621,-0.693675,-0.170282,-0.190007,1.67783,-0.249472,-0.127549,0.464238
26,60,-0.567232,-0.698132,-0.174533,-0.174533,-0.575621,-0.693675,-0.170282,-0.190007,1.67783,-0.249472,-0.127549,0.464238
26,60,-0.567232,-0.698132,-0.174533,-0.174533,-0.575621,-0.693675,-0.170282,-0.190007,1.67783,-0.249472,-0.127549,0.464238
26,60,-0.567232,-0.698132,-0.174533,-0.174533,-0.575621,-0.693675,-0.170282,-0.190007,1.67783,-0.249472,-0.127549,0.464238
26,60,-0.567232,-0.698132,-0.174533,-0.174533,-0.575621,-0.693675,-0.170282,-0.190007,1.67783,-0.249472,-0.127549,0.464238
26,60,-0.567232,-0.698132,-0.174533,-0.174533,-0.575621,-0.693675,-0.170282,-0.190007,1.67783,-0.249472,-0.127549,0.464238
26,60,-0.567232,-0.698132,-0.174533,-0.174533,-0.575621,-0.693675,-0.170282,-0.190007,1.67783,-0.249472,-0.127549,0.464238
26,60,-0.567232,-0.698132,-0.174533,-0.174533,-0.575621,-0.693675,-0.170282,-0.190007,1.67783,-0.249472,-0.127549,0.464238
26,60,-0.567232,-0.698132,-0.174533,-0.174533,-0.575621,-0.693675,-0.170282,-0.190007,1.67783,-0.249472,-0.127549,0.464238
26,60,-0.567232,-0.698132,-0.174533,-0.174533,-0.575621,-0.693675,-0.170282,-0.190007,1.67783,-0.249472,-0.127549,0.464238
26,60,-0.567232,-0.698132,-0.174533,-0.174533,-0.575621,-0.693675,-0.170343,-0.189988,1.67783,-0.249472,-0.125721,0.463674
26,60,-0.567232,-0.698132,-0.174533,-0.174533,-0.575621,-0.693675,-0.170343,-0.189988,1.67783,-0.249472,-0.125721,0.463674
26,60,-0.567232,-0.698132,-0.174533,-0.174533,-0.575621,-0.693675,-0.170343,-0.189988,1.67783,-0.249472,-0.125721,0.463674
26,60,-0.567232,-0.698132,-0.174533,-0.174533,-0.575621,-0.693675,-0.170343,-0.189988,1.67783,-0.249472,-0.125721,0.463674
26,60,-0.567232,-0.698132,-0.174533,-0.174533,-0.575621,-0.693675,-0.170343,-0.189988,1.67783,-0.249472,-0.125721,0.463674
26,60,-0.567232,-0.698132,-0.174533,-0.174533,-0.575621,-0.693675,-0.170343,-0.189988,1.67783,-0.249472,-0.125721,0.463674
26,60,-0.567232,-0.698132,-0.174533,-0.174533,-0.575621,-0.693675,-0.170343,-0.189988,1.67783,-0.249472,-0.125721,0.463674
26,60,-0.567232,-0.698132,-0.174533,-0.174533,-0.575621,-0.693675,-0.170343,-0.189988,1.67783,-0.249472,-0.125721,0.463674
26,60,-0.567232,-0.698132,-0.174533,-0.174533,-0.575621,-0.693675,-0.170343,-0.189988,1.67783,-0.249472,-0.125721,0.463674
26,60,-0.567232,-0.698132,-0.174533,-0.174533,-0.575621,-0.693675,-0.170343,-0.189988,1.67783,-0.249472,-0.125721,0.463674
26,60,-0.567232,-0.698132,-0.174533,-0.174533,-0.575621,-0.693675,-0.170343,-0.189988,1.67783,-0.249472,-0.125721,0.463674
26,60,-0.567232,-0.698132,-0.174533,-0.174533,-0.575621,-0.693675,-0.170408,-0.19003,1.67783,-0.249472,-0.12378,0.464909
26,60,-0.567232,-0.698132,-0.174533,-0.174533,-0.575621,-0.693675,-0.170408,-0.19003,1.67783,-0.249472,-0.12378,0.464909
26,60,-0.567232,-0.698132,-0.174533,-0.174533,-0.575621,-0.693675,-0.170408,-0.19003,1.67783,-0.249472,-0.12378,0.464909
26,60,-0.567232,-0.698132,-0.174533,-0.174533,-0.575621,-0.693675,-0.170408,-0.19003,1.67783,-0.249472,-0.12378,0.464909
26,60,-0.567232,-0.698132,-0.174533,-0.174533,-0.575621,-0.693675,-0.170408,-0.19003,1.67783,-0.249472,-0.12378,0.464909
26,60,-0.567232,-0.698132,-0.174533,-0.174533,-0.575621,-0.693675,-0.170408,-0.19003,1.67783,-0.249472,-0.12378,0.464909
26,60,-0.567232,-0.698132,-0.174533,-0.174533,-0.575621,-0.693675,-0.170408,-0.19003,1.67783,-0.249472,-0.12378,0.464909
26,60,-0.567232,-0.698132,-0.174533,-0.174533,-0.575621,-0.693675,-0.170408,-0.19003,1.67783,-0.249472,-0.12378,0.464909
26,60,-0.567232,-0.698132,-0.174533,-0.174533,-0.575621,-0.693675,-0.170408,-0.19003,1.67783,-0.249472,-0.12378,0.464909
26,60,-0.567232,-0.698132,-0.174533,-0.174533,-0.575621,-0.693675,-0.170408,-0.19003,1.67783,-0.249472,-0.12378,0.464909
26,60,-0.567232,-0.698132,-0.174533,-0.174533,-0.575621,-0.693675,-0.17034,-0.189986,1.67783,-0.249472,-0.125814,0.463609
26,60,-0.567232,-0.698132,-0.174533,-0.174533,-0.575621,-0.693675,-0.17034,-0.189986,1.67783,-0.249472,-0.125814,0.463609
26,60,-0.567232,-0.698132,-0.174533,-0.174533,-0.575621,-0.693675,-0.17034,-0.189986,1.67783,-0.249472,-0.125814,0.463609
26,60,-0.567232,-0.698132,-0.174533,-0.174533,-0.575621,-0.693675,-0.17034,-0.189986,1.67783,-0.249472,-0.125814,0.463609
26,60,-0.567232,-0.698132,-0.174533,-0.174533,-0.575621,-0.693675,-0.17034,-0.189986,1.67783,-0.249472,-0.125814,0.463609
26,60,-0.567232,-0.698132,-0.174533,-0.174533,-0.575621,-0.693675,-0.170343,-0.190046,1.67783,-0.249472,-0.125708,0.465407
26,60,-0.567232,-0.698132,-0.174533,-0.174533,-0.575621,-0.693675,-0.170275,-0.190003,1.67783,-0.249472,-0.127747,0.464103
26,60,-0.567232,-0.698132,-0.174533,-0.174533,-0.575621,-0.693675,-0.170275,-0.190003,1.67783,-0.249472,-0.127747,0.464103
26,60,-0.567232,-0.698132,-0.174533,-0.174533,-0.575621,-0.693675,-0.170275,-0.190003,1.67783,-0.249472,-0.127747,0.464103
26,60,-0.567232,-0.698132,-0.174533,-0.174533,-0.575621,-0.693675,-0.170275,-0.190003,1.67783,-0.249472,-0.127747,0.464103
26,60,-0.567232,-0.698132,-0.174533,-0.174533,-0.575621,-0.693675,-0.170275,-0.190003,1.67783,-0.249472,-0.127747,0.464103
26,60,-0.567232,-0.698132,-0.174533,-0.174533,-0.575621,-0.693675,-0.170275,-0.190003,1.67783,-0.249472,-0.127747,0.464103
26,60,-0.567232,-0.698132,-0.174533,-0.174533,-0.575621,-0.693675,-0.170337,-0.189984,1.67783,-0.249472,-0.125907,0.463536
26,60,-0.567232,-0.698132,-0.174533,-0.174533,-0.575621,-0.693675,-0.170337,-0.189984,1.67783,-0.249472,-0.125907,0.463536
26,60,-0.567232,-0.698132,-0.174533,-0.174533,-0.575621,-0.693675,-0.170337,-0.189984,1.67783,-0.249472,-0.125907,0.463536
26,60,-0.567232,-0.698132,-0.174533,-0.174533,-0.575621,-0.693675,-0.170337,-0.189984,1.67783,-0.249472,-0.125907,0.463536
26,60,-0.567232,-0.698132,-0.174533,-0.174533,-0.575621,-0.693675,-0.17034,-0.190044,1.67783,-0.249472,-0.125801,0.465349
26,60,-0.567232,-0.698132,-0.174533,-0.174533,-0.575621,-0.693675,-0.17034,-0.190044,1.67783,-0.249472,-0.125801,0.465349
26,60,-0.567232,-0.698132,-0.174533,-0.174533,-0.575621,-0.693675,-0.17034,-0.190044,1.67783,-0.249472,-0.125801,0.465349
26,60,-0.567232,-0.698132,-0.174533,-0.174533,-0.575621,-0.693675,-0.17034,-0.190044,1.67783,-0.249472,-0.125801,0.465349
26,60,-0.567232,-0.698132,-0.174533,-0.174533,-0.575621,-0.693675,-0.17034,-0.190044,1.67783,-0.249472,-0.125801,0.465349
26,60,-0.567232,-0.698132,-0.174533,-0.174533,-0.575621,-0.693675,-0.17034,-0.190044,1.67783,-0.249472,-0.125801,0.465349
26,60,-0.567232,-0.698132,-0.174533,-0.174533,-0.575621,-0.693675,-0.17034,-0.190044,1.67783,-0.249472,-0.125801,0.465349
26,60,-0.567232,-0.698132,-0.174533,-0.174533,-0.575621,-0.693675,-0.17034,-0.190044,1.67783,-0.249472,-0.125801,0.465349
26,60,-0.567232,-0.698132,-0.174533,-0.174533,-0.575621,-0.693675,-0.17034,-0.190044,1.67783,-0.249472,-0.125801,0.465349
26,60,-0.567232,-0.698132,-0.174533,-0.174533,-0.575621,-0.693675,-0.17034,-0.190044,1.67783,-0.249472,-0.125801,0.465349
26,60,-0.567232,-0.698132,-0.174533,-0.174533,-0.575621,-0.693675,-0.17034,-0.190044,1.67783,-0.249472,-0.125801,0.465349
26,60,-0.567232,-0.698132,-0.174533,-0.174533,-0.575621,-0.693675,-0.17034,-0.190044,1.67783,-0.249472,-0.125801,0.465349
26,60,-0.567232,-0.698132,-0.174533,-0.174533,-0.575621,-0.693675,-0.17034,-0.190044,1.67783,-0.249472,-0.125801,0.465349
26,60,-0.567232,-0.698132,-0.174533,-0.174533,-0.575621,-0.693675,-0.17034,-0.190044,1.67783,-0.249472,-0.125801,0.465349
26,60,-0.567232,-0.698132,-0.174533,-0.174533,-0.575621,-0.693675,-0.17034,-0.190044,1.67783,-0.249472,-0.125801,0.465349
26,60,-0.567232,-0.698132,-0.174533,-0.174533,-0.575621,-0.693675,-0.17034,-0.190044,1.67783,-0.249472,-0.125801,0.465349
26,60,-0.567232,-0.698132,-0.174533,-0.174533,-0.575621,-0.693675,-0.170344,-0.190104,1.67783,-0.249472,-0.125694,0.467164
26,60,-0.567232,-0.698132,-0.174533,-0.174533,-0.575621,-0.693675,-0.170344,-0.190104,1.67783,-0.249472,-0.125694,0.467164
26,60,-0.567232,-0.698132,-0.174533,-0.174533,-0.575621,-0.693675,-0.170344,-0.190104,1.67783,-0.249472,-0.125694,0.467164
26,60,-0.567232,-0.698132,-0.174533,-0.174533,-0.575621,-0.693675,-0.170276,-0.19006,1.67783,-0.249472,-0.127737,0.465857
26,60,-0.567232,-0.698132,-0.174533,-0.174533,-0.575621,-0.693675,-0.170276,-0.19006,1.67783,-0.249472,-0.127737,0.465857
26,60,-0.567232,-0.698132,-0.174533,-0.174533,-0.575621,-0.693675,-0.170276,-0.19006,1.67783,-0.249472,-0.127737,0.465857
26,60,-0.567232,-0.698132,-0.174533,-0.174533,-0.575621,-0.693675,-0.170276,-0.19006,1.67783,-0.249472,-0.127737,0.465857
26,60,-0.567232,-0.698132,-0.174533,-0.174533,-0.575621,-0.693675,-0.170276,-0.19006,1.67783,-0.249472,-0.127737,0.465857
26,60,-0.567232,-0.698132,-0.174533,-0.174533,-0.575621,-0.693675,-0.170276,-0.19006,1.67783,-0.249472,-0.127737,0.465857
26,60,-0.567232,-0.698132,-0.174533,-0.174533,-0.575621,-0.693675,-0.170276,-0.19006,1.67783,-0.249472,-0.127737,0.465857
26,60,-0.567232,-0.698132,-0.174533,-0.174533,-0.575621,-0.693675,-0.170276,-0.19006,1.67783,-0.249472,-0.127737,0.465857
26,60,-0.567232,-0.698132,-0.174533,-0.174533,-0.575621,-0.693675,-0.170276,-0.19006,1.67783,-0.249472,-0.127737,0.465857
26,60,-0.567232,-0.698132,-0.174533,-0.174533,-0.575621,-0.693675,-0.170276,-0.19006,1.67783,-0.249472,-0.127737,0.465857
26,60,-0.567232,-0.698132,-0.174533,-0.174533,-0.575621,-0.693675,-0.170279,-0.19012,1.67783,-0.249472,-0.127631,0.467657
26,60,-0.567232,-0.698132,-0.174533,-0.174533,-0.575621,-0.693675,-0.170211,-0.190077,1.67783,-0.249472,-0.129667,0.466355
26,60,-0.567232,-0.698132,-0.174533,-0.174533,-0.575621,-0.693675,-0.170211,-0.190077,1.67783,-0.249472,-0.129667,0.466355
26,60,-0.567232,-0.698132,-0.174533,-0.174533,-0.575621,-0.693675,-0.170211,-0.190077,1.67783,-0.249472,-0.129667,0.466355
26,60,-0.567232,-0.698132,-0.174533,-0.174533,-0.575621,-0.693675,-0.170211,-0.190077,1.67783,-0.249472,-0.129667,0.466355
26,60,-0.567232,-0.698132,-0.174533,-0.174533,-0.575621,-0.693675,-0.170211,-0.190077,1.67783,-0.249472,-0.129667,0.466355
26,60,-0.567232,-0.698132,-0.174533,-0.174533,-0.575621,-0.693675,-0.170143,-0.190033,1.67783,-0.249472,-0.131721,0.465042
26,60,-0.567232,-0.698132,-0.174533,-0.174533,-0.575621,-0.693675,-0.170143,-0.190033,1.67783,-0.249472,-0.131721,0.465042
26,60,-0.567232,-0.698132,-0.174533,-0.174533,-0.575621,-0.693675,-0.170143,-0.190033,1.67783,-0.249472,-0.131721,0.465042
26,60,-0.567232,-0.698132,-0.174533,-0.174533,-0.575621,-0.693675,-0.170143,-0.190033,1.67783,-0.249472,-0.131721,0.465042
26,60,-0.567232,-0.698132,-0.174533,-0.174533,-0.575621,-0.693675,-0.170208,-0.190074,1.67783,-0.249472,-0.129775,0.466287
26,60,-0.567232,-0.698132,-0.174533,-0.174533,-0.575621,-0.693675,-0.170208,-0.190074,1.67783,-0.249472,-0.129775,0.466287
26,60,-0.567232,-0.698132,-0.174533,-0.174533,-0.575621,-0.693675,-0.170208,-0.190074,1.67783,-0.249472,-0.129775,0.466287
26,60,-0.567232,-0.698132,-0.174533,-0.174533,-0.575621,-0.693675,-0.170208,-0.190074,1.67783,-0.249472,-0.129775,0.466287
26,60,-0.567232,-0.698132,-0.174533,-0.174533,-0.575621,-0.693675,-0.17014,-0.190031,1.67783,-0.249472,-0.131856,0.464956
26,60,-0.567232,-0.698132,-0.174533,-0.174533,-0.575621,-0.693675,-0.17014,-0.190031,1.67783,-0.249472,-0.131856,0.464956
26,60,-0.567232,-0.698132,-0.174533,-0.174533,-0.575621,-0.693675,-0.17014,-0.190031,1.67783,-0.249472,-0.131856,0.464956
26,60,-0.567232,-0.698132,-0.174533,-0.174533,-0.575621,-0.693675,-0.17014,-0.190031,1.67783,-0.249472,-0.131856,0.464956
26,60,-0.567232,-0.698132,-0.174533,-0.174533,-0.575621,-0.693675,-0.17014,-0.190031,1.67783,-0.249472,-0.131856,0.464956
26,60,-0.567232,-0.698132,-0.174533,-0.174533,-0.575621,-0.693675,-0.170144,-0.190091,1.67783,-0.249472,-0.13175,0.466762
26,60,-0.567232,-0.698132,-0.174533,-0.174533,-0.575621,-0.693675,-0.170144,-0.190091,1.67783,-0.249472,-0.13175,0.466762
26,60,-0.567232,-0.698132,-0.174533,-0.174533,-0.575621,-0.693675,-0.170144,-0.190091,1.67783,-0.249472,-0.13175,0.466762
26,60,-0.567232,-0.698132,-0.174533,-0.174533,-0.575621,-0.693675,-0.170076,-0.190048,1.67783,-0.249472,-0.133783,0.465462
26,60,-0.567232,-0.698132,-0.174533,-0.174533,-0.575621,-0.693675,-0.170076,-0.190048,1.67783,-0.249472,-0.133783,0.465462
26,60,-0.567232,-0.698132,-0.174533,-0.174533,-0.575621,-0.693675,-0.170076,-0.190048,1.67783,-0.249472,-0.133783,0.465462
26,60,-0.567232,-0.698132,-0.174533,-0.174533,-0.575621,-0.693675,-0.170079,-0.190108,1.67783,-0.249472,-0.133678,0.467264
26,60,-0.567232,-0.698132,-0.174533,-0.174533,-0.575621,-0.693675,-0.170079,-0.190108,1.67783,-0.249472,-0.133678,0.467264
26,60,-0.567232,-0.698132,-0.174533,-0.174533,-0.575621,-0.693675,-0.170079,-0.190108,1.67783,-0.249472,-0.133678,0.467264
26,60,-0.567232,-0.698132,-0.174533,-0.174533,-0.575621,-0.693675,-0.170011,-0.190064,1.67783,-0.249472,-0.135782,0.465919
26,60,-0.567232,-0.698132,-0.174533,-0.174533,-0.575621,-0.693675,-0.170011,-0.190064,1.67783,-0.249472,-0.135782,0.465919
26,60,-0.567232,-0.698132,-0.174533,-0.174533,-0.575621,-0.693675,-0.170011,-0.190064,1.67783,-0.249472,-0.135782,0.465919
26,60,-0.567232,-0.698132,-0.174533,-0.174533,-0.575621,-0.693675,-0.170011,-0.190064,1.67783,-0.249472,-0.135782,0.465919
26,60,-0.567232,-0.698132,-0.174533,-0.174533,-0.575621,-0.693675,-0.170011,-0.190064,1.67783,-0.249472,-0.135782,0.465919
26,60,-0.567232,-0.698132,-0.174533,-0.174533,-0.575621,-0.693675,-0.170011,-0.190064,1.67783,-0.249472,-0.135782,0.465919
26,60,-0.567232,-0.698132,-0.174533,-0.174533,-0.575621,-0.693675,-0.169944,-0.190021,1.67783,-0.249472,-0.137853,0.464595
26,60,-0.567232,-0.698132,-0.174533,-0.174533,-0.575621,-0.693675,-0.169947,-0.190081,1.67783,-0.249472,-0.137747,0.466421
26,60,-0.567232,-0.698132,-0.174533,-0.174533,-0.575621,-0.693675,-0.169947,-0.190081,1.67783,-0.249472,-0.137747,0.466421
26,60,-0.567232,-0.698132,-0.174533,-0.174533,-0.575621,-0.693675,-0.169947,-0.190081,1.67783,-0.249472,-0.137747,0.466421
26,60,-0.567232,-0.698132,-0.174533,-0.174533,-0.575621,-0.693675,-0.169947,-0.190081,1.67783,-0.249472,-0.137747,0.466421
26,60,-0.567232,-0.698132,-0.174533,-0.174533,-0.575621,-0.693675,-0.169879,-0.190037,1.67783,-0.249472,-0.139771,0.465126
26,60,-0.567232,-0.698132,-0.174533,-0.174533,-0.575621,-0.693675,-0.16994,-0.190018,1.67783,-0.249472,-0.137915,0.464554
26,60,-0.567232,-0.698132,-0.174533,-0.174533,-0.575621,-0.693675,-0.169944,-0.190078,1.67783,-0.249472,-0.137809,0.466361
26,60,-0.567232,-0.698132,-0.174533,-0.174533,-0.575621,-0.693675,-0.169944,-0.190078,1.67783,-0.249472,-0.137809,0.466361
26,60,-0.567232,-0.698132,-0.174533,-0.174533,-0.575621,-0.693675,-0.169944,-0.190078,1.67783,-0.249472,-0.137809,0.466361
26,60,-0.567232,-0.698132,-0.174533,-0.174533,-0.575621,-0.693675,-0.169876,-0.190035,1.67783,-0.249472,-0.139874,0.465041
26,60,-0.567232,-0.698132,-0.174533,-0.174533,-0.575621,-0.693675,-0.169876,-0.190035,1.67783,-0.249472,-0.139874,0.465041
26,60,-0.567232,-0.698132,-0.174533,-0.174533,-0.575621,-0.693675,-0.169879,-0.190095,1.67783,-0.249472,-0.139768,0.466855
26,60,-0.567232,-0.698132,-0.174533,-0.174533,-0.575621,-0.693675,-0.169879,-0.190095,1.67783,-0.249472,-0.139768,0.466855
26,60,-0.567232,-0.698132,-0.174533,-0.174533,-0.575621,-0.693675,-0.169812,-0.190052,1.67783,-0.249472,-0.141833,0.465535
26,60,-0.567232,-0.698132,-0.174533,-0.174533,-0.575621,-0.693675,-0.169812,-0.190052,1.67783,-0.249472,-0.141833,0.465535
26,60,-0.567232,-0.698132,-0.174533,-0.174533,-0.575621,-0.693675,-0.169747,-0.190068,1.67783,-0.249472,-0.143784,0.466042
26,60,-0.567232,-0.698132,-0.174533,-0.174533,-0.575621,-0.693675,-0.169747,-0.190068,1.67783,-0.249472,-0.143784,0.466042
26,60,-0.567232,-0.698132,-0.174533,-0.174533,-0.575621,-0.693675,-0.169747,-0.190068,1.67783,-0.249472,-0.143784,0.466042
26,60,-0.567232,-0.698132,-0.174533,-0.174533,-0.575621,-0.693675,-0.169679,-0.190025,1.67783,-0.249472,-0.145881,0.464701
26,60,-0.567232,-0.698132,-0.174533,-0.174533,-0.575621,-0.693675,-0.169679,-0.190025,1.67783,-0.249472,-0.145881,0.464701
26,60,-0.567232,-0.698132,-0.174533,-0.174533,-0.575621,-0.693675,-0.169744,-0.190066,1.67783,-0.249472,-0.143945,0.465951
26,60,-0.567232,-0.698132,-0.174533,-0.174533,-0.575621,-0.693675,-0.169676,-0.190022,1.67783,-0.249472,-0.146033,0.464616
26,60,-0.567232,-0.698132,-0.174533,-0.174533,-0.575621,-0.693675,-0.169676,-0.190022,1.67783,-0.249472,-0.146033,0.464616
26,60,-0.567232,-0.698132,-0.174533,-0.174533,-0.575621,-0.693675,-0.169676,-0.190022,1.67783,-0.249472,-0.146033,0.464616
26,60,-0.567232,-0.698132,-0.174533,-0.174533,-0.575621,-0.693675,-0.169612,-0.190039,1.67783,-0.249472,-0.148014,0.465126
26,60,-0.567232,-0.698132,-0.174533,-0.174533,-0.575621,-0.693675,-0.169612,-0.190039,1.67783,-0.249472,-0.148014,0.465126
26,60,-0.567232,-0.698132,-0.174533,-0.174533,-0.575621,-0.693675,-0.169615,-0.190099,1.67783,-0.249472,-0.147907,0.466953
26,60,-0.567232,-0.698132,-0.174533,-0.174533,-0.575621,-0.693675,-0.169676,-0.19008,1.67783,-0.249472,-0.146075,0.466388
26,60,-0.567232,-0.698132,-0.174533,-0.174533,-0.575621,-0.693675,-0.169676,-0.19008,1.67783,-0.249472,-0.146075,0.466388
26,60,-0.567232,-0.698132,-0.174533,-0.174533,-0.575621,-0.693675,-0.169676,-0.19008,1.67783,-0.249472,-0.146075,0.466388
26,60,-0.567232,-0.698132,-0.174533,-0.174533,-0.575621,-0.693675,-0.169612,-0.190097,1.67783,-0.249472,-0.148049,0.466903
26,60,-0.567232,-0.698132,-0.174533,-0.174533,-0.575621,-0.693675,-0.169612,-0.190097,1.67783,-0.249472,-0.148049,0.466903
26,60,-0.567232,-0.698132,-0.174533,-0.174533,-0.575621,-0.693675,-0.169612,-0.190097,1.67783,-0.249472,-0.148049,0.466903
26,60,-0.567232,-0.698132,-0.174533,-0.174533,-0.575621,-0.693675,-0.169612,-0.190097,1.67783,-0.249472,-0.148049,0.466903
26,60,-0.567232,-0.698132,-0.174533,-0.174533,-0.575621,-0.693675,-0.169616,-0.190157,1.67783,-0.249472,-0.147945,0.468691
26,60,-0.567232,-0.698132,-0.174533,-0.174533,-0.575621,-0.693675,-0.169616,-0.190157,1.67783,-0.249472,-0.147945,0.468691
26,60,-0.567232,-0.698132,-0.174533,-0.174533,-0.575621,-0.693675,-0.169548,-0.190113,1.67783,-0.249472,-0.149879,0.467455
26,60,-0.567232,-0.698132,-0.174533,-0.174533,-0.575621,-0.693675,-0.169548,-0.190113,1.67783,-0.249472,-0.149879,0.467455
26,60,-0.567232,-0.698132,-0.174533,-0.174533,-0.575621,-0.693675,-0.169548,-0.190113,1.67783,-0.249472,-0.149879,0.467455
26,60,-0.567232,-0.698132,-0.174533,-0.174533,-0.575621,-0.693675,-0.169551,-0.190173,1.67783,-0.249472,-0.149772,0.469292
26,60,-0.567232,-0.698132,-0.174533,-0.174533,-0.575621,-0.693675,-0.169551,-0.190173,1.67783,-0.249472,-0.149772,0.469292
26,60,-0.567232,-0.698132,-0.174533,-0.174533,-0.575621,-0.693675,-0.169551,-0.190173,1.67783,-0.249472,-0.149772,0.469292
26,60,-0.567232,-0.698132,-0.174533,-0.174533,-0.575621,-0.693675,-0.169616,-0.190214,1.67783,-0.249472,-0.147828,0.470499
26,60,-0.567232,-0.698132,-0.174533,-0.174533,-0.575621,-0.693675,-0.169548,-0.190171,1.67783,-0.249472,-0.149786,0.469247
26,60,-0.567232,-0.698132,-0.174533,-0.174533,-0.575621,-0.693675,-0.169548,-0.190171,1.67783,-0.249472,-0.149786,0.469247
26,60,-0.567232,-0.698132,-0.174533,-0.174533,-0.575621,-0.693675,-0.169548,-0.190171,1.67783,-0.249472,-0.149786,0.469247
26,60,-0.567232,-0.698132,-0.174533,-0.174533,-0.575621,-0.693675,-0.169548,-0.190171,1.67783,-0.249472,-0.149786,0.469247
26,60,-0.567232,-0.698132,-0.174533,-0.174533,-0.575621,-0.693675,-0.169613,-0.190212,1.67783,-0.249472,-0.147826,0.470452
26,60,-0.567232,-0.698132,-0.174533,-0.174533,-0.575621,-0.693675,-0.169613,-0.190212,1.67783,-0.249472,-0.147826,0.470452
26,60,-0.567232,-0.698132,-0.174533,-0.174533,-0.575621,-0.693675,-0.169545,-0.190168,1.67783,-0.249472,-0.149799,0.469191
26,60,-0.567232,-0.698132,-0.174533,-0.174533,-0.575621,-0.693675,-0.169545,-0.190168,1.67783,-0.249472,-0.149799,0.469191
26,60,-0.567232,-0.698132,-0.174533,-0.174533,-0.575621,-0.693675,-0.169545,-0.190168,1.67783,-0.249472,-0.149799,0.469191
26,60,-0.567232,-0.698132,-0.174533,-0.174533,-0.575621,-0.693675,-0.169548,-0.190228,1.67783,-0.249472,-0.149696,0.470964
26,60,-0.567232,-0.698132,-0.174533,-0.174533,-0.575621,-0.693675,-0.169609,-0.19021,1.67783,-0.249472,-0.147821,0.470385
26,60,-0.567232,-0.698132,-0.174533,-0.174533,-0.575621,-0.693675,-0.169609,-0.19021,1.67783,-0.249573,-0.147821,0.470385
26,60,-0.567232,-0.698132,-0.174533,-0.174533,-0.575621,-0.693675,-0.169609,-0.19021,1.67783,-0.249573,-0.147821,0.470385
26,60,-0.567232,-0.698132,-0.174533,-0.174533,-0.575621,-0.693675,-0.169609,-0.19021,1.67783,-0.249573,-0.147821,0.470385
26,60,-0.567232,-0.698132,-0.174533,-0.174533,-0.575621,-0.693675,-0.169609,-0.19021,1.67783,-0.249573,-0.147821,0.470385
26,60,-0.567232,-0.698132,-0.174533,-0.174533,-0.575621,-0.693675,-0.169613,-0.190269,1.67783,-0.249573,-0.147717,0.47216
26,60,-0.567232,-0.698132,-0.174533,-0.174533,-0.575621,-0.693675,-0.169613,-0.190269,1.67783,-0.249573,-0.147717,0.47216
26,60,-0.567232,-0.698132,-0.174533,-0.174533,-0.575621,-0.693675,-0.169613,-0.190269,1.67783,-0.249573,-0.147717,0.47216
26,60,-0.567232,-0.698132,-0.174533,-0.174533,-0.575621,-0.693675,-0.169545,-0.190226,1.67783,-0.249573,-0.149721,0.470879
26,60,-0.567232,-0.698132,-0.174533,-0.174533,-0.575621,-0.693675,-0.169606,-0.190207,1.67783,-0.249573,-0.147857,0.470303
26,60,-0.567232,-0.698132,-0.174533,-0.174533,-0.575621,-0.693675,-0.169606,-0.190207,1.67783,-0.249573,-0.147857,0.470303
26,60,-0.567232,-0.698132,-0.174533,-0.174533,-0.575621,-0.693675,-0.169606,-0.190207,1.67783,-0.249573,-0.147857,0.470303
26,60,-0.567232,-0.698132,-0.174533,-0.174533,-0.575621,-0.693675,-0.16961,-0.190267,1.67783,-0.249573,-0.147753,0.472094
26,60,-0.567232,-0.698132,-0.174533,-0.174533,-0.575621,-0.693675,-0.16961,-0.190267,1.67783,-0.249573,-0.147753,0.472094
26,60,-0.567232,-0.698132,-0.174533,-0.174533,-0.575621,-0.693675,-0.169671,-0.190248,1.67783,-0.249573,-0.145922,0.471529
26,60,-0.567232,-0.698132,-0.174533,-0.174533,-0.575621,-0.693675,-0.169603,-0.190205,1.67783,-0.249573,-0.147916,0.470254
26,60,-0.567232,-0.698132,-0.174533,-0.174533,-0.575621,-0.693675,-0.169603,-0.190205,1.67783,-0.249573,-0.147916,0.470254
26,60,-0.567232,-0.698132,-0.174533,-0.174533,-0.575621,-0.693675,-0.169603,-0.190205,1.67783,-0.249573,-0.147916,0.470254
26,60,-0.567232,-0.698132,-0.174533,-0.174533,-0.575621,-0.693675,-0.169606,-0.190265,1.67783,-0.249573,-0.147814,0.472011
26,60,-0.567232,-0.698132,-0.174533,-0.174533,-0.575621,-0.693726,-0.169606,-0.190265,1.67783,-0.246618,-0.147814,0.472011
26,60,-0.567232,-0.698132,-0.174533,-0.174533,-0.575621,-0.693726,-0.169606,-0.190265,1.67783,-0.246618,-0.147814,0.472011
26,60,-0.567232,-0.698132,-0.174533,-0.174533,-0.575621,-0.693726,-0.169606,-0.190265,1.67783,-0.246618,-0.147814,0.472011
26,60,-0.567232,-0.698132,-0.174533,-0.174533,-0.575621,-0.693726,-0.169606,-0.190265,1.67783,-0.246618,-0.147814,0.472011
26,60,-0.567232,-0.698132,-0.174533,-0.174533,-0.575621,-0.693726,-0.169606,-0.190265,1.67783,-0.246618,-0.147814,0.472011
26,60,-0.567232,-0.698132,-0.174533,-0.174533,-0.575621,-0.693726,-0.169606,-0.190265,1.67783,-0.246618,-0.147814,0.472011
26,60,-0.567232,-0.698132,-0.174533,-0.174533,-0.575621,-0.693726,-0.169606,-0.190265,1.67783,-0.246618,-0.147814,0.472011
26,60,-0.567232,-0.698132,-0.174533,-0.174533,-0.575621,-0.693726,-0.169606,-0.190265,1.67783,-0.246618,-0.147814,0.472011
26,60,-0.567232,-0.698132,-0.174533,-0.174533,-0.575621,-0.693726,-0.1696,-0.190203,1.67783,-0.246618,-0.147969,0.470128
26,60,-0.567232,-0.698132,-0.174533,-0.174533,-0.575621,-0.693726,-0.1696,-0.190203,1.67783,-0.246618,-0.14797,0.470109
26,60,-0.567232,-0.698132,-0.174533,-0.174533,-0.575621,-0.693726,-0.169603,-0.190263,1.67783,-0.246618,-0.147865,0.471924
26,60,-0.567232,-0.698132,-0.174533,-0.174533,-0.575621,-0.693726,-0.169603,-0.190263,1.67783,-0.246618,-0.147865,0.471924
26,60,-0.567232,-0.698132,-0.174533,-0.174533,-0.575621,-0.693726,-0.169603,-0.190263,1.67783,-0.246618,-0.147865,0.471924
26,60,-0.567232,-0.698132,-0.174533,-0.174533,-0.575621,-0.693726,-0.169603,-0.190263,1.67783,-0.246618,-0.147865,0.471924
26,60,-0.567232,-0.698132,-0.174533,-0.174533,-0.575621,-0.693726,-0.169603,-0.190263,1.67783,-0.246618,-0.147865,0.471924
26,60,-0.567232,-0.698132,-0.174533,-0.174533,-0.575621,-0.693726,-0.169603,-0.190263,1.67783,-0.246618,-0.147865,0.471924
26,60,-0.567232,-0.698132,-0.174533,-0.174533,-0.575621,-0.693726,-0.169603,-0.190263,1.67783,-0.246618,-0.147865,0.471924
26,60,-0.567232,-0.698132,-0.174533,-0.174533,-0.575621,-0.693726,-0.169664,-0.190244,1.67783,-0.246618,-0.14607,0.47137
26,60,-0.567232,-0.698132,-0.174533,-0.174533,-0.575621,-0.693726,-0.169664,-0.190244,1.67783,-0.246618,-0.14607,0.47137
26,60,-0.567232,-0.698132,-0.174533,-0.174533,-0.575621,-0.693726,-0.169664,-0.190244,1.67783,-0.246618,-0.14607,0.47137
26,60,-0.567232,-0.698132,-0.174533,-0.174533,-0.575621,-0.693726,-0.169664,-0.190244,1.67783,-0.246618,-0.146071,0.471356
26,60,-0.567232,-0.698132,-0.174533,-0.174533,-0.575621,-0.693726,-0.169664,-0.190244,1.67783,-0.246618,-0.146072,0.471339
26,60,-0.567232,-0.698132,-0.174533,-0.174533,-0.575621,-0.693726,-0.169664,-0.190244,1.67783,-0.246618,-0.146072,0.471325
26,60,-0.567232,-0.698132,-0.174533,-0.174533,-0.575621,-0.693726,-0.169664,-0.190244,1.67783,-0.246618,-0.146073,0.471313
26,60,-0.567232,-0.698132,-0.174533,-0.174533,-0.575621,-0.693726,-0.169668,-0.190304,1.67783,-0.246618,-0.145968,0.473125
26,60,-0.567232,-0.698132,-0.174533,-0.174533,-0.575621,-0.693726,-0.169668,-0.190304,1.67783,-0.246618,-0.145968,0.473125
26,60,-0.567232,-0.698132,-0.174533,-0.174533,-0.575621,-0.693726,-0.169668,-0.190304,1.67783,-0.246618,-0.145968,0.473125
26,60,-0.567232,-0.698132,-0.174533,-0.174533,-0.575621,-0.693726,-0.169668,-0.190304,1.67783,-0.246618,-0.145968,0.473125
26,60,-0.567232,-0.698132,-0.174533,-0.174533,-0.575621,-0.693726,-0.169668,-0.190304,1.67783,-0.246618,-0.145968,0.473125
26,60,-0.567232,-0.698132,-0.174533,-0.174533,-0.575621,-0.693726,-0.169668,-0.190304,1.67783,-0.246618,-0.145968,0.473125
26,60,-0.567232,-0.698132,-0.174533,-0.174533,-0.575621,-0.693726,-0.1696,-0.19026,1.67783,-0.246618,-0.147992,0.47184
26,60,-0.567232,-0.698132,-0.174533,-0.174533,-0.575621,-0.693726,-0.1696,-0.19026,1.67783,-0.246618,-0.148001,0.471843
26,60,-0.567232,-0.698132,-0.174533,-0.174533,-0.575621,-0.693726,-0.1696,-0.19026,1.67783,-0.246618,-0.148009,0.471846
26,60,-0.567232,-0.698132,-0.174533,-0.174533,-0.575621,-0.693726,-0.1696,-0.19026,1.67783,-0.246618,-0.148017,0.471848
26,60,-0.567232,-0.698132,-0.174533,-0.174533,-0.575621,-0.693726,-0.1696,-0.19026,1.67783,-0.246618,-0.148023,0.47185
26,60,-0.567232,-0.698132,-0.174533,-0.174533,-0.575621,-0.693726,-0.1696,-0.19026,1.67783,-0.246618,-0.148029,0.471852
26,60,-0.567232,-0.698132,-0.174533,-0.174533,-0.575621,-0.693726,-0.169532,-0.190217,1.67783,-0.246618,-0.150014,0.47058
26,60,-0.567232,-0.698132,-0.174533,-0.174533,-0.575621,-0.693726,-0.169532,-0.190217,1.67783,-0.246618,-0.15002,0.470574
26,60,-0.567232,-0.698132,-0.174533,-0.174533,-0.575621,-0.693726,-0.169532,-0.190217,1.67783,-0.246618,-0.150025,0.470565
26,60,-0.567232,-0.698132,-0.174533,-0.174533,-0.575621,-0.693726,-0.169593,-0.190198,1.67783,-0.246618,-0.14815,0.469977
26,60,-0.567232,-0.698132,-0.174533,-0.174533,-0.575621,-0.693726,-0.169597,-0.190258,1.67783,-0.246618,-0.148046,0.471768
26,60,-0.567232,-0.698132,-0.174533,-0.174533,-0.575621,-0.693726,-0.169597,-0.190258,1.67783,-0.246618,-0.148046,0.471768
26,60,-0.567232,-0.698132,-0.174533,-0.174533,-0.575621,-0.693726,-0.169597,-0.190258,1.67783,-0.246618,-0.148046,0.471768
26,60,-0.567232,-0.698132,-0.174533,-0.174533,-0.575621,-0.693726,-0.169597,-0.190258,1.67783,-0.246618,-0.148046,0.471768
26,60,-0.567232,-0.698132,-0.174533,-0.174533,-0.575621,-0.693726,-0.169597,-0.190258,1.67783,-0.246618,-0.148046,0.471768
26,60,-0.567232,-0.698132,-0.174533,-0.174533,-0.575621,-0.693726,-0.169597,-0.190258,1.67783,-0.246618,-0.148046,0.471768
26,60,-0.567232,-0.698132,-0.174533,-0.174533,-0.575621,-0.693726,-0.169597,-0.190258,1.67783,-0.246618,-0.148046,0.471768
26,60,-0.567232,-0.698132,-0.174533,-0.174533,-0.575621,-0.693726,-0.169597,-0.190258,1.67783,-0.246618,-0.148046,0.471768
26,60,-0.567232,-0.698132,-0.174533,-0.174533,-0.575621,-0.693726,-0.169597,-0.190258,1.67783,-0.246618,-0.148046,0.471768
26,60,-0.567232,-0.698132,-0.174533,-0.174533,-0.575621,-0.693726,-0.169597,-0.190258,1.67783,-0.246618,-0.148046,0.471768
26,60,-0.567232,-0.698132,-0.174533,-0.174533,-0.575621,-0.693726,-0.169529,-0.190215,1.67783,-0.246618,-0.150095,0.470458
26,60,-0.567232,-0.698132,-0.174533,-0.174533,-0.575621,-0.693726,-0.169529,-0.190215,1.67783,-0.246618,-0.150095,0.470458
26,60,-0.567232,-0.698132,-0.174533,-0.174533,-0.575621,-0.693726,-0.169529,-0.190215,1.67783,-0.246618,-0.150095,0.470458
26,60,-0.567232,-0.698132,-0.174533,-0.174533,-0.575621,-0.693726,-0.169529,-0.190215,1.67783,-0.246618,-0.150095,0.470458
26,60,-0.567232,-0.698132,-0.174533,-0.174533,-0.575621,-0.693726,-0.169529,-0.190215,1.67783,-0.246618,-0.150095,0.470458
26,60,-0.567232,-0.698132,-0.174533,-0.174533,-0.575621,-0.693726,-0.169529,-0.190215,1.67783,-0.246618,-0.150095,0.470458
26,60,-0.567232,-0.698132,-0.174533,-0.174533,-0.575621,-0.693726,-0.169529,-0.190215,1.67783,-0.246618,-0.150095,0.470458
26,60,-0.567232,-0.698132,-0.174533,-0.174533,-0.575621,-0.693726,-0.169529,-0.190215,1.67783,-0.246618,-0.150101,0.47046
26,60,-0.567232,-0.698132,-0.174533,-0.174533,-0.575621,-0.693726,-0.169529,-0.190215,1.67783,-0.246618,-0.150108,0.470459
26,60,-0.567232,-0.698132,-0.174533,-0.174533,-0.575621,-0.693726,-0.169532,-0.190274,1.67783,-0.246618,-0.150011,0.472238
26,60,-0.567232,-0.698132,-0.174533,-0.174533,-0.575621,-0.693726,-0.169532,-0.190274,1.67783,-0.246618,-0.150017,0.47224
26,60,-0.567232,-0.698132,-0.174533,-0.174533,-0.575621,-0.693726,-0.169532,-0.190274,1.67783,-0.246618,-0.150022,0.472242
26,60,-0.567232,-0.698132,-0.174533,-0.174533,-0.575621,-0.693726,-0.169593,-0.190256,1.67783,-0.246618,-0.148198,0.471679
26,60,-0.567232,-0.698132,-0.174533,-0.174533,-0.575621,-0.693726,-0.169593,-0.190256,1.67783,-0.246618,-0.148198,0.471679
26,60,-0.567232,-0.698132,-0.174533,-0.174533,-0.575621,-0.693726,-0.169593,-0.190256,1.67783,-0.246618,-0.148198,0.471679
26,60,-0.567232,-0.698132,-0.174533,-0.174533,-0.575621,-0.693726,-0.169593,-0.190256,1.67783,-0.246618,-0.148198,0.471679
26,60,-0.567232,-0.698132,-0.174533,-0.174533,-0.575621,-0.693726,-0.169593,-0.190256,1.67783,-0.246618,-0.148198,0.471679
26,60,-0.567232,-0.698132,-0.174533,-0.174533,-0.575621,-0.693726,-0.169593,-0.190256,1.67783,-0.246618,-0.148198,0.471679
26,60,-0.567232,-0.698132,-0.174533,-0.174533,-0.575621,-0.693726,-0.169593,-0.190256,1.67783,-0.246618,-0.148198,0.471679
26,60,-0.567232,-0.698132,-0.174533,-0.174533,-0.575621,-0.693726,-0.169593,-0.190256,1.67783,-0.246618,-0.148198,0.471679
26,60,-0.567232,-0.698132,-0.174533,-0.174533,-0.575621,-0.693726,-0.169593,-0.190256,1.67783,-0.246618,-0.148198,0.471679
26,60,-0.567232,-0.698132,-0.174533,-0.174533,-0.575621,-0.693726,-0.169593,-0.190256,1.67783,-0.246618,-0.148198,0.471679
26,60,-0.567232,-0.698132,-0.174533,-0.174533,-0.575621,-0.693726,-0.169593,-0.190256,1.67783,-0.246618,-0.148198,0.471679
26,60,-0.567232,-0.698132,-0.174533,-0.174533,-0.575621,-0.693726,-0.169593,-0.190256,1.67783,-0.246618,-0.148198,0.471679
26,60,-0.567232,-0.698132,-0.174533,-0.174533,-0.575621,-0.693726,-0.169593,-0.190256,1.67783,-0.246618,-0.148198,0.471679
26,60,-0.567232,-0.698132,-0.174533,-0.174533,-0.575621,-0.693726,-0.169593,-0.190256,1.67783,-0.246618,-0.148198,0.471679
26,60,-0.567232,-0.698132,-0.174533,-0.174533,-0.575621,-0.693726,-0.169593,-0.190256,1.67783,-0.246618,-0.148198,0.471679
26,60,-0.567232,-0.698132,-0.174533,-0.174533,-0.575621,-0.693726,-0.169593,-0.190256,1.67783,-0.246618,-0.148198,0.471679
26,60,-0.567232,-0.698132,-0.174533,-0.174533,-0.575621,-0.693726,-0.169593,-0.190256,1.67783,-0.246618,-0.148198,0.471679
26,60,-0.567232,-0.698132,-0.174533,-0.174533,-0.575621,-0.693726,-0.169593,-0.190256,1.67783,-0.246618,-0.148198,0.471679
26,60,-0.567232,-0.698132,-0.174533,-0.174533,-0.575621,-0.693726,-0.169593,-0.190256,1.67783,-0.246618,-0.148198,0.471679
26,60,-0.567232,-0.698132,-0.174533,-0.174533,-0.575621,-0.693726,-0.169593,-0.190256,1.67783,-0.246618,-0.148198,0.471679
26,60,-0.567232,-0.698132,-0.174533,-0.174533,-0.575621,-0.693726,-0.169593,-0.190256,1.67783,-0.246618,-0.148198,0.471676
26,60,-0.567232,-0.698132,-0.174533,-0.174533,-0.575621,-0.693726,-0.169593,-0.190256,1.67783,-0.246618,-0.148198,0.471672
26,60,-0.567232,-0.698132,-0.174533,-0.174533,-0.575621,-0.693726,-0.169593,-0.190256,1.67783,-0.246618,-0.148198,0.471668
26,60,-0.567232,-0.698132,-0.174533,-0.174533,-0.575621,-0.693726,-0.169593,-0.190256,1.67783,-0.246618,-0.148199,0.471665
26,60,-0.567232,-0.698132,-0.174533,-0.174533,-0.575621,-0.693726,-0.169593,-0.190256,1.67783,-0.246618,-0.148199,0.471662
26,60,-0.567232,-0.698132,-0.174533,-0.174533,-0.575621,-0.693726,-0.169593,-0.190256,1.67783,-0.246618,-0.148203,0.47166
26,60,-0.567232,-0.698132,-0.174533,-0.174533,-0.575621,-0.693726,-0.169593,-0.190256,1.67783,-0.246618,-0.148206,0.471658
26,60,-0.567232,-0.698132,-0.174533,-0.174533,-0.575621,-0.693726,-0.169593,-0.190256,1.67783,-0.246618,-0.14821,0.471656
26,60,-0.567232,-0.698132,-0.174533,-0.174533,-0.575621,-0.693726,-0.169526,-0.190212,1.67783,-0.246618,-0.150237,0.470362
26,60,-0.567232,-0.698132,-0.174533,-0.174533,-0.575621,-0.693726,-0.169526,-0.190212,1.67783,-0.246618,-0.15024,0.470361
26,60,-0.567232,-0.698132,-0.174533,-0.174533,-0.575621,-0.693726,-0.169529,-0.190272,1.67783,-0.246618,-0.150137,0.472171
26,60,-0.567232,-0.698132,-0.174533,-0.174533,-0.575621,-0.693726,-0.169529,-0.190272,1.67783,-0.246618,-0.150139,0.472172
26,60,-0.567232,-0.698132,-0.174533,-0.174533,-0.575621,-0.693726,-0.169529,-0.190272,1.67783,-0.246618,-0.150142,0.472172
26,60,-0.567232,-0.698132,-0.174533,-0.174533,-0.575621,-0.693726,-0.169529,-0.190272,1.67783,-0.246618,-0.150144,0.472173
26,60,-0.567232,-0.698132,-0.174533,-0.174533,-0.575621,-0.693726,-0.169529,-0.190272,1.67783,-0.246618,-0.150146,0.472174
26,60,-0.567232,-0.698132,-0.174533,-0.174533,-0.575621,-0.693726,-0.169529,-0.190272,1.67783,-0.246618,-0.150147,0.472174
26,60,-0.567232,-0.698132,-0.174533,-0.174533,-0.575621,-0.693726,-0.169529,-0.190272,1.67783,-0.246618,-0.150149,0.472175
26,60,-0.567232,-0.698132,-0.174533,-0.174533,-0.575621,-0.693726,-0.169529,-0.190272,1.67783,-0.246618,-0.150151,0.472175
26,60,-0.567232,-0.698132,-0.174533,-0.174533,-0.575621,-0.693726,-0.169529,-0.190272,1.67783,-0.246618,-0.150152,0.472176
26,60,-0.567232,-0.698132,-0.174533,-0.174533,-0.575621,-0.693726,-0.169529,-0.190272,1.67783,-0.246618,-0.150154,0.472176
26,60,-0.567232,-0.698132,-0.174533,-0.174533,-0.575621,-0.693726,-0.169529,-0.190272,1.67783,-0.246618,-0.150155,0.472177
26,60,-0.567232,-0.698132,-0.174533,-0.174533,-0.575621,-0.693726,-0.16959,-0.190253,1.67783,-0.246618,-0.148304,0.471605
26,60,-0.567232,-0.698132,-0.174533,-0.174533,-0.575621,-0.693726,-0.16959,-0.190253,1.67783,-0.246618,-0.148304,0.471605
26,60,-0.567232,-0.698132,-0.174533,-0.174533,-0.575621,-0.693726,-0.16959,-0.190253,1.67783,-0.246618,-0.148304,0.471605
26,60,-0.567232,-0.698132,-0.174533,-0.174533,-0.575621,-0.693726,-0.16959,-0.190253,1.67783,-0.246618,-0.148304,0.471605
26,60,-0.567232,-0.698132,-0.174533,-0.174533,-0.575621,-0.693726,-0.16959,-0.190253,1.67783,-0.246618,-0.148304,0.471605
26,60,-0.567232,-0.698132,-0.174533,-0.174533,-0.575621,-0.693726,-0.16959,-0.190253,1.67783,-0.246618,-0.148304,0.471605
26,60,-0.567232,-0.698132,-0.174533,-0.174533,-0.575621,-0.693726,-0.16959,-0.190253,1.67783,-0.246618,-0.148304,0.471605
26,60,-0.567232,-0.698132,-0.174533,-0.174533,-0.575621,-0.693726,-0.16959,-0.190253,1.67783,-0.246618,-0.148304,0.471605
26,60,-0.567232,-0.698132,-0.174533,-0.174533,-0.575621,-0.693726,-0.16959,-0.190253,1.67783,-0.246618,-0.148304,0.471605
26,60,-0.567232,-0.698132,-0.174533,-0.174533,-0.575621,-0.693726,-0.16959,-0.190253,1.67783,-0.246618,-0.148304,0.471605
26,60,-0.567232,-0.698132,-0.174533,-0.174533,-0.575621,-0.693726,-0.16959,-0.190253,1.67783,-0.246618,-0.148304,0.471605
26,60,-0.567232,-0.698132,-0.174533,-0.174533,-0.575621,-0.693726,-0.16959,-0.190253,1.67783,-0.246618,-0.148304,0.471605
26,60,-0.567232,-0.698132,-0.174533,-0.174533,-0.575621,-0.693726,-0.16959,-0.190253,1.67783,-0.246618,-0.148304,0.471605
26,60,-0.567232,-0.698132,-0.174533,-0.174533,-0.575621,-0.693726,-0.16959,-0.190253,1.67783,-0.246618,-0.148304,0.471605
26,60,-0.567232,-0.698132,-0.174533,-0.174533,-0.575621,-0.693726,-0.16959,-0.190253,1.67783,-0.246618,-0.148304,0.471602
26,60,-0.567232,-0.698132,-0.174533,-0.174533,-0.575621,-0.693726,-0.16959,-0.190253,1.67783,-0.246618,-0.148304,0.471599
26,60,-0.567232,-0.698132,-0.174533,-0.174533,-0.575621,-0.693726,-0.16959,-0.190253,1.67783,-0.246618,-0.148304,0.471597
26,60,-0.567232,-0.698132,-0.174533,-0.174533,-0.575621,-0.693726,-0.16959,-0.190253,1.67783,-0.246618,-0.148304,0.471594
26,60,-0.567232,-0.698132,-0.174533,-0.174533,-0.575621,-0.693726,-0.16959,-0.190253,1.67783,-0.246618,-0.148305,0.471592
26,60,-0.567232,-0.698132,-0.174533,-0.174533,-0.575621,-0.693726,-0.16959,-0.190253,1.67783,-0.246618,-0.148305,0.47159
26,60,-0.567232,-0.698132,-0.174533,-0.174533,-0.575621,-0.693726,-0.16959,-0.190253,1.67783,-0.246618,-0.148305,0.471588
26,60,-0.567232,-0.698132,-0.174533,-0.174533,-0.575621,-0.693726,-0.16959,-0.190253,1.67783,-0.246618,-0.148305,0.471586
26,60,-0.567232,-0.698132,-0.174533,-0.174533,-0.575621,-0.693726,-0.16959,-0.190253,1.67783,-0.246618,-0.148305,0.471584
26,60,-0.567232,-0.698132,-0.174533,-0.174533,-0.575621,-0.693726,-0.16959,-0.190253,1.67783,-0.246618,-0.148305,0.471582
26,60,-0.567232,-0.698132,-0.174533,-0.174533,-0.575621,-0.693726,-0.16959,-0.190253,1.67783,-0.246618,-0.148305,0.471581
26,60,-0.567232,-0.698132,-0.174533,-0.174533,-0.575621,-0.693726,-0.16959,-0.190253,1.67783,-0.246618,-0.148305,0.471579
26,60,-0.567232,-0.698132,-0.174533,-0.174533,-0.575621,-0.693726,-0.16959,-0.190253,1.67783,-0.246618,-0.148305,0.471578
26,60,-0.567232,-0.698132,-0.174533,-0.174533,-0.575621,-0.693726,-0.16959,-0.190253,1.67783,-0.246618,-0.148306,0.471577
26,60,-0.567232,-0.698132,-0.174533,-0.174533,-0.575621,-0.693726,-0.169522,-0.19021,1.67783,-0.246618,-0.150306,0.470304
26,60,-0.567232,-0.698132,-0.174533,-0.174533,-0.575621,-0.693726,-0.169522,-0.19021,1.67783,-0.246618,-0.150306,0.470303
26,60,-0.567232,-0.698132,-0.174533,-0.174533,-0.575621,-0.693726,-0.169522,-0.19021,1.67783,-0.246618,-0.150307,0.470301
26,60,-0.567232,-0.698132,-0.174533,-0.174533,-0.575621,-0.693726,-0.169522,-0.19021,1.67783,-0.246618,-0.150307,0.4703
26,60,-0.567232,-0.698132,-0.174533,-0.174533,-0.575621,-0.693726,-0.169522,-0.19021,1.67783,-0.246618,-0.150308,0.470299
26,60,-0.567232,-0.698132,-0.174533,-0.174533,-0.575621,-0.693726,-0.169522,-0.19021,1.67783,-0.246618,-0.15031,0.470299
26,60,-0.567232,-0.698132,-0.174533,-0.174533,-0.575621,-0.693726,-0.169522,-0.19021,1.67783,-0.246618,-0.150312,0.470298
26,60,-0.567232,-0.698132,-0.174533,-0.174533,-0.575621,-0.693726,-0.169522,-0.19021,1.67783,-0.246618,-0.150314,0.470298
26,60,-0.567232,-0.698132,-0.174533,-0.174533,-0.575621,-0.693726,-0.169522,-0.19021,1.67783,-0.246618,-0.150316,0.470297
26,60,-0.567232,-0.698132,-0.174533,-0.174533,-0.575621,-0.693726,-0.169522,-0.19021,1.67783,-0.246618,-0.150318,0.470297
26,60,-0.567232,-0.698132,-0.174533,-0.174533,-0.575621,-0.693726,-0.169522,-0.19021,1.67783,-0.246618,-0.150319,0.470296
26,60,-0.567232,-0.698132,-0.174533,-0.174533,-0.575621,-0.693726,-0.169522,-0.19021,1.67783,-0.246618,-0.150321,0.470296
26,60,-0.567232,-0.698132,-0.174533,-0.174533,-0.575621,-0.693726,-0.169522,-0.19021,1.67783,-0.246618,-0.150322,0.470295
26,60,-0.567232,-0.698132,-0.174533,-0.174533,-0.575621,-0.693726,-0.169522,-0.19021,1.67783,-0.246618,-0.150324,0.470295
26,60,-0.567232,-0.698132,-0.174533,-0.174533,-0.575621,-0.693726,-0.169522,-0.19021,1.67783,-0.246618,-0.150325,0.470295
26,60,-0.567232,-0.698132,-0.174533,-0.174533,-0.575621,-0.693726,-0.169522,-0.19021,1.67783,-0.246618,-0.150327,0.470294
26,60,-0.567232,-0.698132,-0.174533,-0.174533,-0.575621,-0.693726,-0.169522,-0.19021,1.67783,-0.246618,-0.150328,0.470294
26,60,-0.567232,-0.698132,-0.174533,-0.174533,-0.575621,-0.693726,-0.169522,-0.19021,1.67783,-0.246618,-0.150329,0.470293
26,60,-0.567232,-0.698132,-0.174533,-0.174533,-0.575621,-0.693726,-0.169522,-0.19021,1.67783,-0.246618,-0.15033,0.470293
26,60,-0.567232,-0.698132,-0.174533,-0.174533,-0.575621,-0.693726,-0.169522,-0.19021,1.67783,-0.246618,-0.150331,0.470293
26,60,-0.567232,-0.698132,-0.174533,-0.174533,-0.575621,-0.693726,-0.169522,-0.19021,1.67783,-0.246618,-0.150332,0.470292
26,60,-0.567232,-0.698132,-0.174533,-0.174533,-0.575621,-0.693726,-0.169522,-0.19021,1.67783,-0.246618,-0.150333,0.470292
26,60,-0.567232,-0.698132,-0.174533,-0.174533,-0.575621,-0.693726,-0.169522,-0.19021,1.67783,-0.246618,-0.150334,0.470292
26,60,-0.567232,-0.698132,-0.174533,-0.174533,-0.575621,-0.693726,-0.169522,-0.19021,1.67783,-0.246618,-0.150335,0.470291
26,60,-0.567232,-0.698132,-0.174533,-0.174533,-0.575621,-0.693726,-0.169522,-0.19021,1.67783,-0.246618,-0.150336,0.470291
26,60,-0.567232,-0.698132,-0.174533,-0.174533,-0.575621,-0.693726,-0.169522,-0.19021,1.67783,-0.246618,-0.150337,0.470291
26,60,-0.567232,-0.698132,-0.174533,-0.174533,-0.575621,-0.693777,-0.169522,-0.19021,1.67783,-0.2438,-0.150338,0.47029
26,60,-0.567232,-0.698132,-0.174533,-0.174533,-0.575621,-0.693777,-0.169522,-0.19021,1.67783,-0.2438,-0.150339,0.47029
26,60,-0.567232,-0.698132,-0.174533,-0.174533,-0.575621,-0.693777,-0.169522,-0.19021,1.67783,-0.2438,-0.150339,0.47029
26,60,-0.567232,-0.698132,-0.174533,-0.174533,-0.575621,-0.693777,-0.169522,-0.19021,1.67783,-0.2438,-0.15034,0.47029
26,60,-0.567232,-0.698132,-0.174533,-0.174533,-0.575621,-0.693777,-0.169522,-0.19021,1.67783,-0.2438,-0.150341,0.470289
26,60,-0.567232,-0.698132,-0.174533,-0.174533,-0.575621,-0.693777,-0.169522,-0.19021,1.67783,-0.2438,-0.150342,0.470289
26,60,-0.567232,-0.698132,-0.174533,-0.174533,-0.575621,-0.693777,-0.169522,-0.19021,1.67783,-0.2438,-0.150342,0.470289
26,60,-0.567232,-0.698132,-0.174533,-0.174533,-0.575621,-0.693777,-0.169522,-0.19021,1.67783,-0.2438,-0.150343,0.470289
26,60,-0.567232,-0.698132,-0.174533,-0.174533,-0.575621,-0.693777,-0.169522,-0.19021,1.67783,-0.2438,-0.150343,0.470288
26,60,-0.567232,-0.698132,-0.174533,-0.174533,-0.575621,-0.693777,-0.169522,-0.19021,1.67783,-0.2438,-0.150344,0.470288
26,60,-0.567232,-0.698132,-0.174533,-0.174533,-0.575621,-0.693777,-0.169522,-0.19021,1.67783,-0.2438,-0.150345,0.470288
26,60,-0.567232,-0.698132,-0.174533,-0.174533,-0.575621,-0.693777,-0.169522,-0.19021,1.67783,-0.2438,-0.150345,0.470288
26,60,-0.567232,-0.698132,-0.174533,-0.174533,-0.575621,-0.693777,-0.169522,-0.19021,1.67783,-0.2438,-0.150346,0.470287
26,60,-0.567232,-0.698132,-0.174533,-0.174533,-0.575621,-0.693777,-0.169522,-0.19021,1.67783,-0.2438,-0.150346,0.470287
26,60,-0.567232,-0.698132,-0.174533,-0.174533,-0.575621,-0.693777,-0.169522,-0.19021,1.67783,-0.2438,-0.150347,0.470287
26,60,-0.567232,-0.698132,-0.174533,-0.174533,-0.575621,-0.693777,-0.169522,-0.19021,1.67783,-0.2438,-0.150347,0.470287
26,60,-0.567232,-0.698132,-0.174533,-0.174533,-0.575621,-0.693777,-0.169522,-0.19021,1.67783,-0.2438,-0.150348,0.470287
26,60,-0.567232,-0.698132,-0.174533,-0.174533,-0.575621,-0.693777,-0.169522,-0.19021,1.67783,-0.2438,-0.150348,0.470286
26,60,-0.567232,-0.698132,-0.174533,-0.174533,-0.575621,-0.693777,-0.169522,-0.19021,1.67783,-0.2438,-0.150349,0.470286
26,60,-0.567232,-0.698132,-0.174533,-0.174533,-0.575621,-0.693777,-0.169522,-0.19021,1.67783,-0.2438,-0.150349,0.470286
26,60,-0.567232,-0.698132,-0.174533,-0.174533,-0.575621,-0.693777,-0.169522,-0.19021,1.67783,-0.2438,-0.15035,0.470286
26,60,-0.567232,-0.698132,-0.174533,-0.174533,-0.575621,-0.693777,-0.169522,-0.19021,1.67783,-0.2438,-0.15035,0.470286
26,60,-0.567232,-0.698132,-0.174533,-0.174533,-0.575621,-0.693777,-0.169522,-0.19021,1.67783,-0.2438,-0.150351,0.470285
26,60,-0.567232,-0.698132,-0.174533,-0.174533,-0.575621,-0.693777,-0.169522,-0.19021,1.67783,-0.2438,-0.150351,0.470285
26,60,-0.567232,-0.698132,-0.174533,-0.174533,-0.575621,-0.693777,-0.169522,-0.19021,1.67783,-0.2438,-0.150351,0.470285
26,60,-0.567232,-0.698132,-0.174533,-0.174533,-0.575621,-0.693777,-0.169522,-0.19021,1.67783,-0.2438,-0.150352,0.470285
26,60,-0.567232,-0.698132,-0.174533,-0.174533,-0.575621,-0.693777,-0.169583,-0.190191,1.67783,-0.2438,-0.148496,0.469712
26,60,-0.567232,-0.698132,-0.174533,-0.174533,-0.575621,-0.693777,-0.169583,-0.190191,1.67783,-0.2438,-0.148496,0.469711
26,60,-0.567232,-0.698132,-0.174533,-0.174533,-0.575621,-0.693777,-0.169583,-0.190191,1.67783,-0.2438,-0.148496,0.469711
26,60,-0.567232,-0.698132,-0.174533,-0.174533,-0.575621,-0.693777,-0.169583,-0.190191,1.67783,-0.2438,-0.148496,0.469711
26,60,-0.567232,-0.698132,-0.174533,-0.174533,-0.575621,-0.693777,-0.169583,-0.190191,1.67783,-0.2438,-0.148496,0.469711
26,60,-0.567232,-0.698132,-0.174533,-0.174533,-0.575621,-0.693777,-0.169583,-0.190191,1.67783,-0.2438,-0.148496,0.46971
26,60,-0.567232,-0.698132,-0.174533,-0.174533,-0.575621,-0.693777,-0.169583,-0.190191,1.67783,-0.2438,-0.148496,0.46971
26,60,-0.567232,-0.698132,-0.174533,-0.174533,-0.575621,-0.693777,-0.169583,-0.190191,1.67783,-0.2438,-0.148496,0.46971
26,60,-0.567232,-0.698132,-0.174533,-0.174533,-0.575621,-0.693777,-0.169583,-0.190191,1.67783,-0.2438,-0.148496,0.46971
26,60,-0.567232,-0.698132,-0.174533,-0.174533,-0.575621,-0.693777,-0.169583,-0.190191,1.67783,-0.2438,-0.148496,0.469709
26,60,-0.567232,-0.698132,-0.174533,-0.174533,-0.575621,-0.693777,-0.169583,-0.190191,1.67783,-0.2438,-0.148496,0.469709
26,60,-0.567232,-0.698132,-0.174533,-0.174533,-0.575621,-0.693777,-0.169583,-0.190191,1.67783,-0.2438,-0.148496,0.469709
26,60,-0.567232,-0.698132,-0.174533,-0.174533,-0.575621,-0.693777,-0.169583,-0.190191,1.67783,-0.2438,-0.148496,0.469709
26,60,-0.567232,-0.698132,-0.174533,-0.174533,-0.575621,-0.693777,-0.169587,-0.190251,1.67783,-0.2438,-0.14839,0.471543
26,60,-0.567232,-0.698132,-0.174533,-0.174533,-0.575621,-0.693777,-0.169587,-0.190251,1.67783,-0.2438,-0.14839,0.471543
26,60,-0.567232,-0.698132,-0.174533,-0.174533,-0.575621,-0.693777,-0.169587,-0.190251,1.67783,-0.2438,-0.14839,0.471543
26,60,-0.567232,-0.698132,-0.174533,-0.174533,-0.575621,-0.693777,-0.169587,-0.190251,1.67783,-0.2438,-0.14839,0.471543
26,60,-0.567232,-0.698132,-0.174533,-0.174533,-0.575621,-0.693777,-0.169587,-0.190251,1.67783,-0.2438,-0.14839,0.471543
26,60,-0.567232,-0.698132,-0.174533,-0.174533,-0.575621,-0.693777,-0.169587,-0.190251,1.67783,-0.2438,-0.14839,0.471543
26,60,-0.567232,-0.698132,-0.174533,-0.174533,-0.575621,-0.693777,-0.169587,-0.190251,1.67783,-0.2438,-0.14839,0.471543
26,60,-0.567232,-0.698132,-0.174533,-0.174533,-0.575621,-0.693777,-0.169587,-0.190251,1.67783,-0.2438,-0.14839,0.471543
26,60,-0.567232,-0.698132,-0.174533,-0.174533,-0.575621,-0.693777,-0.169587,-0.190251,1.67783,-0.2438,-0.14839,0.471543
26,60,-0.567232,-0.698132,-0.174533,-0.174533,-0.575621,-0.693777,-0.169587,-0.190251,1.67783,-0.2438,-0.14839,0.471543
26,60,-0.567232,-0.698132,-0.174533,-0.174533,-0.575621,-0.693777,-0.169587,-0.190251,1.67783,-0.2438,-0.14839,0.471543
26,60,-0.567232,-0.698132,-0.174533,-0.174533,-0.575621,-0.693777,-0.169587,-0.190251,1.67783,-0.2438,-0.14839,0.471543
26,60,-0.567232,-0.698132,-0.174533,-0.174533,-0.575621,-0.693777,-0.169587,-0.190251,1.67783,-0.2438,-0.14839,0.471543
26,60,-0.567232,-0.698132,-0.174533,-0.174533,-0.575621,-0.693777,-0.169587,-0.190251,1.67783,-0.2438,-0.14839,0.471543
26,60,-0.567232,-0.698132,-0.174533,-0.174533,-0.575621,-0.693777,-0.169587,-0.190251,1.67783,-0.2438,-0.14839,0.471543
26,60,-0.567232,-0.698132,-0.174533,-0.174533,-0.575621,-0.693777,-0.169587,-0.190251,1.67783,-0.2438,-0.14839,0.471543
26,60,-0.567232,-0.698132,-0.174533,-0.174533,-0.575621,-0.693777,-0.169587,-0.190251,1.67783,-0.2438,-0.14839,0.471543
26,60,-0.567232,-0.698132,-0.174533,-0.174533,-0.575621,-0.693777,-0.169587,-0.190251,1.67783,-0.2438,-0.14839,0.471543
26,60,-0.567232,-0.698132,-0.174533,-0.174533,-0.575621,-0.693777,-0.169648,-0.190232,1.67783,-0.2438,-0.146578,0.470984
26,60,-0.567232,-0.698132,-0.174533,-0.174533,-0.575621,-0.693777,-0.169648,-0.190232,1.67783,-0.2438,-0.146578,0.470984
26,60,-0.567232,-0.698132,-0.174533,-0.174533,-0.575621,-0.693777,-0.169648,-0.190232,1.67783,-0.2438,-0.146578,0.470984
26,60,-0.567232,-0.698132,-0.174533,-0.174533,-0.575621,-0.693777,-0.169648,-0.190232,1.67783,-0.2438,-0.146578,0.470984
26,60,-0.567232,-0.698132,-0.174533,-0.174533,-0.575621,-0.693777,-0.169648,-0.190232,1.67783,-0.2438,-0.146578,0.470984
26,60,-0.567232,-0.698132,-0.174533,-0.174533,-0.575621,-0.693777,-0.169648,-0.190232,1.67783,-0.2438,-0.146578,0.470984
26,60,-0.567232,-0.698132,-0.174533,-0.174533,-0.575621,-0.693777,-0.169648,-0.190232,1.67783,-0.2438,-0.146578,0.470984
26,60,-0.567232,-0.698132,-0.174533,-0.174533,-0.575621,-0.693777,-0.169648,-0.190232,1.67783,-0.2438,-0.146578,0.470984
26,60,-0.567232,-0.698132,-0.174533,-0.174533,-0.575621,-0.693777,-0.169648,-0.190232,1.67783,-0.2438,-0.146578,0.470984
26,60,-0.567232,-0.698132,-0.174533,-0.174533,-0.575621,-0.693777,-0.169648,-0.190232,1.67783,-0.2438,-0.146578,0.470984
26,60,-0.567232,-0.698132,-0.174533,-0.174533,-0.575621,-0.693777,-0.169648,-0.190232,1.67783,-0.2438,-0.146578,0.470984
26,60,-0.567232,-0.698132,-0.174533,-0.174533,-0.575621,-0.693777,-0.169648,-0.190232,1.67783,-0.2438,-0.146578,0.470984
26,60,-0.567232,-0.698132,-0.174533,-0.174533,-0.575621,-0.693777,-0.169648,-0.190232,1.67783,-0.2438,-0.146578,0.470984
26,60,-0.567232,-0.698132,-0.174533,-0.174533,-0.575621,-0.693777,-0.169648,-0.190232,1.67783,-0.2438,-0.146578,0.470984
26,60,-0.567232,-0.698132,-0.174533,-0.174533,-0.575621,-0.693777,-0.169648,-0.190232,1.67783,-0.2438,-0.146578,0.470984
26,60,-0.567232,-0.698132,-0.174533,-0.174533,-0.575621,-0.693777,-0.169648,-0.190232,1.67783,-0.2438,-0.146578,0.470984
26,60,-0.567232,-0.698132,-0.174533,-0.174533,-0.575621,-0.693777,-0.169648,-0.190232,1.67783,-0.2438,-0.146578,0.470984
26,60,-0.567232,-0.698132,-0.174533,-0.174533,-0.575621,-0.693777,-0.169648,-0.190232,1.67783,-0.2438,-0.146578,0.470984
26,60,-0.567232,-0.698132,-0.174533,-0.174533,-0.575621,-0.693777,-0.169648,-0.190232,1.67783,-0.2438,-0.146578,0.470984
26,60,-0.567232,-0.698132,-0.174533,-0.174533,-0.575621,-0.693777,-0.169648,-0.190232,1.67783,-0.2438,-0.146578,0.470984
26,60,-0.567232,-0.698132,-0.174533,-0.174533,-0.575621,-0.693777,-0.169648,-0.190232,1.67783,-0.2438,-0.146578,0.470984
26,60,-0.567232,-0.698132,-0.174533,-0.174533,-0.575621,-0.693777,-0.169648,-0.190232,1.67783,-0.2438,-0.146578,0.470983
26,60,-0.567232,-0.698132,-0.174533,-0.174533,-0.575621,-0.693777,-0.169648,-0.190232,1.67783,-0.2438,-0.146578,0.470982
26,60,-0.567232,-0.698132,-0.174533,-0.174533,-0.575621,-0.693777,-0.169648,-0.190232,1.67783,-0.2438,-0.146578,0.47098
26,60,-0.567232,-0.698132,-0.174533,-0.174533,-0.575621,-0.693777,-0.169648,-0.190232,1.67783,-0.2438,-0.146579,0.470979
26,60,-0.567232,-0.698132,-0.174533,-0.174533,-0.575621,-0.693777,-0.169648,-0.190232,1.67783,-0.2438,-0.146579,0.470978
26,60,-0.567232,-0.698132,-0.174533,-0.174533,-0.575621,-0.693777,-0.169648,-0.190232,1.67783,-0.2438,-0.146579,0.470977
26,60,-0.567232,-0.698132,-0.174533,-0.174533,-0.575621,-0.693777,-0.169648,-0.190232,1.67783,-0.2438,-0.146579,0.470976
26,60,-0.567232,-0.698132,-0.174533,-0.174533,-0.575621,-0.693777,-0.169641,-0.19017,1.67783,-0.2438,-0.14677,0.469113
26,60,-0.567232,-0.698132,-0.174533,-0.174533,-0.575621,-0.693777,-0.169641,-0.19017,1.67783,-0.2438,-0.14677,0.469112
26,60,-0.567232,-0.698132,-0.174533,-0.174533,-0.575621,-0.693777,-0.169641,-0.19017,1.67783,-0.2438,-0.14677,0.469111
26,60,-0.567232,-0.698132,-0.174533,-0.174533,-0.575621,-0.693777,-0.169641,-0.19017,1.67783,-0.2438,-0.14677,0.46911
26,60,-0.567232,-0.698132,-0.174533,-0.174533,-0.575621,-0.693777,-0.169641,-0.19017,1.67783,-0.2438,-0.14677,0.469109
26,60,-0.567232,-0.698132,-0.174533,-0.174533,-0.575621,-0.693777,-0.169641,-0.19017,1.67783,-0.2438,-0.14677,0.469109
26,60,-0.567232,-0.698132,-0.174533,-0.174533,-0.575621,-0.693777,-0.169641,-0.19017,1.67783,-0.2438,-0.14677,0.469108
26,60,-0.567232,-0.698132,-0.174533,-0.174533,-0.575621,-0.693777,-0.169641,-0.19017,1.67783,-0.2438,-0.14677,0.469107
26,60,-0.567232,-0.698132,-0.174533,-0.174533,-0.575621,-0.693777,-0.169641,-0.19017,1.67783,-0.2438,-0.14677,0.469106
26,60,-0.567232,-0.698132,-0.174533,-0.174533,-0.575621,-0.693777,-0.169641,-0.19017,1.67783,-0.2438,-0.14677,0.469106
26,60,-0.567232,-0.698132,-0.174533,-0.174533,-0.575621,-0.693777,-0.169641,-0.19017,1.67783,-0.2438,-0.14677,0.469105
26,60,-0.567232,-0.698132,-0.174533,-0.174533,-0.575621,-0.693777,-0.169641,-0.19017,1.67783,-0.2438,-0.14677,0.469104
26,60,-0.567232,-0.698132,-0.174533,-0.174533,-0.575621,-0.693777,-0.169641,-0.19017,1.67783,-0.2438,-0.14677,0.469104
26,60,-0.567232,-0.698132,-0.174533,-0.174533,-0.575621,-0.693777,-0.169641,-0.19017,1.67783,-0.2438,-0.14677,0.469103
26,60,-0.567232,-0.698132,-0.174533,-0.174533,-0.575621,-0.693777,-0.169641,-0.19017,1.67783,-0.2438,-0.14677,0.469102
26,60,-0.567232,-0.698132,-0.174533,-0.174533,-0.575621,-0.693777,-0.169641,-0.19017,1.67783,-0.2438,-0.14677,0.469102
26,60,-0.567232,-0.698132,-0.174533,-0.174533,-0.575621,-0.693777,-0.169641,-0.19017,1.67783,-0.2438,-0.14677,0.469101
26,60,-0.567232,-0.698132,-0.174533,-0.174533,-0.575621,-0.693777,-0.169641,-0.19017,1.67783,-0.2438,-0.146771,0.469101
26,60,-0.567232,-0.698132,-0.174533,-0.174533,-0.575621,-0.693777,-0.169641,-0.19017,1.67783,-0.2438,-0.146771,0.4691
26,60,-0.567232,-0.698132,-0.174533,-0.174533,-0.575621,-0.693777,-0.169641,-0.19017,1.67783,-0.2438,-0.146771,0.4691
26,60,-0.567232,-0.698132,-0.174533,-0.174533,-0.575621,-0.693777,-0.169641,-0.19017,1.67783,-0.2438,-0.146771,0.469099
26,60,-0.567232,-0.698132,-0.174533,-0.174533,-0.575621,-0.693777,-0.169641,-0.19017,1.67783,-0.2438,-0.146771,0.469099
26,60,-0.567232,-0.698132,-0.174533,-0.174533,-0.575621,-0.693777,-0.169641,-0.19017,1.67783,-0.2438,-0.146771,0.469098
26,60,-0.567232,-0.698132,-0.174533,-0.174533,-0.575621,-0.693777,-0.169641,-0.19017,1.67783,-0.2438,-0.146771,0.469098
26,60,-0.567232,-0.698132,-0.174533,-0.174533,-0.575621,-0.693777,-0.169641,-0.19017,1.67783,-0.2438,-0.146771,0.469097
26,60,-0.567232,-0.698132,-0.174533,-0.174533,-0.575621,-0.693777,-0.169641,-0.19017,1.67783,-0.2438,-0.146771,0.469097
26,60,-0.567232,-0.698132,-0.174533,-0.174533,-0.575621,-0.693777,-0.169641,-0.19017,1.67783,-0.2438,-0.146771,0.469096
26,60,-0.567232,-0.698132,-0.174533,-0.174533,-0.575621,-0.693777,-0.169641,-0.19017,1.67783,-0.2438,-0.146771,0.469096
26,60,-0.567232,-0.698132,-0.174533,-0.174533,-0.575621,-0.693777,-0.169641,-0.19017,1.67783,-0.2438,-0.146771,0.469096
26,60,-0.567232,-0.698132,-0.174533,-0.174533,-0.575621,-0.693777,-0.169641,-0.19017,1.67783,-0.2438,-0.146771,0.469095
26,60,-0.567232,-0.698132,-0.174533,-0.174533,-0.575621,-0.693777,-0.169641,-0.19017,1.67783,-0.2438,-0.146771,0.469095
26,60,-0.567232,-0.698132,-0.174533,-0.174533,-0.575621,-0.693777,-0.169641,-0.19017,1.67783,-0.2438,-0.146771,0.469094
26,60,-0.567232,-0.698132,-0.174533,-0.174533,-0.575621,-0.693777,-0.169641,-0.19017,1.67783,-0.2438,-0.146771,0.469094
26,60,-0.567232,-0.698132,-0.174533,-0.174533,-0.575621,-0.693777,-0.169641,-0.19017,1.67783,-0.2438,-0.146771,0.469094
26,60,-0.567232,-0.698132,-0.174533,-0.174533,-0.575621,-0.693777,-0.169641,-0.19017,1.67783,-0.2438,-0.146771,0.469093
26,60,-0.567232,-0.698132,-0.174533,-0.174533,-0.575621,-0.693777,-0.169641,-0.19017,1.67783,-0.2438,-0.146771,0.469093
26,60,-0.567232,-0.698132,-0.174533,-0.174533,-0.575621,-0.693777,-0.169641,-0.19017,1.67783,-0.2438,-0.146771,0.469093
26,60,-0.567232,-0.698132,-0.174533,-0.174533,-0.575621,-0.693777,-0.169641,-0.19017,1.67783,-0.2438,-0.146771,0.469092
26,60,-0.567232,-0.698132,-0.174533,-0.174533,-0.575621,-0.693777,-0.169641,-0.19017,1.67783,-0.2438,-0.146771,0.469092
26,60,-0.567232,-0.698132,-0.174533,-0.174533,-0.575621,-0.693777,-0.169641,-0.19017,1.67783,-0.2438,-0.146771,0.469092
26,60,-0.567232,-0.698132,-0.174533,-0.174533,-0.575621,-0.693777,-0.169641,-0.19017,1.67783,-0.2438,-0.146771,0.469091
26,60,-0.567232,-0.698132,-0.174533,-0.174533,-0.575621,-0.693777,-0.169702,-0.190151,1.67783,-0.2438,-0.144938,0.468525
26,60,-0.567232,-0.698132,-0.174533,-0.174533,-0.575621,-0.693777,-0.169702,-0.190151,1.67783,-0.2438,-0.144938,0.468524
26,60,-0.567232,-0.698132,-0.174533,-0.174533,-0.575621,-0.693777,-0.169702,-0.190151,1.67783,-0.2438,-0.144938,0.468524
26,60,-0.567232,-0.698132,-0.174533,-0.174533,-0.575621,-0.693777,-0.169702,-0.190151,1.67783,-0.2438,-0.144938,0.468524
26,60,-0.567232,-0.698132,-0.174533,-0.174533,-0.575621,-0.693777,-0.169702,-0.190151,1.67783,-0.2438,-0.144938,0.468524
26,60,-0.567232,-0.698132,-0.174533,-0.174533,-0.575621,-0.693777,-0.169702,-0.190151,1.67783,-0.2438,-0.144938,0.468523
26,60,-0.567232,-0.698132,-0.174533,-0.174533,-0.575621,-0.693777,-0.169702,-0.190151,1.67783,-0.2438,-0.144938,0.468523
26,60,-0.567232,-0.698132,-0.174533,-0.174533,-0.575621,-0.693777,-0.169702,-0.190151,1.67783,-0.2438,-0.144939,0.468523
26,60,-0.567232,-0.698132,-0.174533,-0.174533,-0.575621,-0.693777,-0.169702,-0.190151,1.67783,-0.2438,-0.144939,0.468523
26,60,-0.567232,-0.698132,-0.174533,-0.174533,-0.575621,-0.693777,-0.169702,-0.190151,1.67783,-0.2438,-0.144939,0.468522
26,60,-0.567232,-0.698132,-0.174533,-0.174533,-0.575621,-0.693777,-0.169702,-0.190151,1.67783,-0.2438,-0.144939,0.468522
26,60,-0.567232,-0.698132,-0.174533,-0.174533,-0.575621,-0.693777,-0.169702,-0.190151,1.67783,-0.2438,-0.144939,0.468522
26,60,-0.567232,-0.698132,-0.174533,-0.174533,-0.575621,-0.693777,-0.169702,-0.190151,1.67783,-0.2438,-0.144939,0.468522
26,60,-0.567232,-0.698132,-0.174533,-0.174533,-0.575621,-0.693777,-0.169702,-0.190151,1.67783,-0.2438,-0.144939,0.468521
26,60,-0.567232,-0.698132,-0.174533,-0.174533,-0.575621,-0.693777,-0.169702,-0.190151,1.67783,-0.2438,-0.144939,0.468521
26,60,-0.567232,-0.698132,-0.174533,-0.174533,-0.575621,-0.693777,-0.169702,-0.190151,1.67783,-0.2438,-0.144939,0.468521
26,60,-0.567232,-0.698132,-0.174533,-0.174533,-0.575621,-0.693777,-0.169706,-0.190211,1.67783,-0.2438,-0.144834,0.470326
26,60,-0.567232,-0.698132,-0.174533,-0.174533,-0.575621,-0.693777,-0.169706,-0.190211,1.67783,-0.2438,-0.144834,0.470326
26,60,-0.567232,-0.698132,-0.174533,-0.174533,-0.575621,-0.693777,-0.169706,-0.190211,1.67783,-0.2438,-0.144834,0.470326
26,60,-0.567232,-0.698132,-0.174533,-0.174533,-0.575621,-0.693777,-0.169706,-0.190211,1.67783,-0.2438,-0.144834,0.470326
26,60,-0.567232,-0.698132,-0.174533,-0.174533,-0.575621,-0.693777,-0.169706,-0.190211,1.67783,-0.2438,-0.144834,0.470326
26,60,-0.567232,-0.698132,-0.174533,-0.174533,-0.575621,-0.693777,-0.169706,-0.190211,1.67783,-0.2438,-0.144834,0.470326
26,60,-0.567232,-0.698132,-0.174533,-0.174533,-0.575621,-0.693777,-0.169706,-0.190211,1.67783,-0.2438,-0.144834,0.470326
26,60,-0.567232,-0.698132,-0.174533,-0.174533,-0.575621,-0.693777,-0.169706,-0.190211,1.67783,-0.2438,-0.144834,0.470326
26,60,-0.567232,-0.698132,-0.174533,-0.174533,-0.575621,-0.693777,-0.169706,-0.190211,1.67783,-0.2438,-0.144834,0.470326
26,60,-0.567232,-0.698132,-0.174533,-0.174533,-0.575621,-0.693777,-0.169706,-0.190211,1.67783,-0.2438,-0.144834,0.470326
26,60,-0.567232,-0.698132,-0.174533,-0.174533,-0.575621,-0.693777,-0.169706,-0.190211,1.67783,-0.2438,-0.144834,0.470326
26,60,-0.567232,-0.698132,-0.174533,-0.174533,-0.575621,-0.693777,-0.169706,-0.190211,1.67783,-0.2438,-0.144834,0.470326
26,60,-0.567232,-0.698132,-0.174533,-0.174533,-0.575621,-0.693777,-0.169706,-0.190211,1.67783,-0.2438,-0.144834,0.470326
26,60,-0.567232,-0.698132,-0.174533,-0.174533,-0.575621,-0.693777,-0.169706,-0.190211,1.67783,-0.2438,-0.144834,0.470326
26,60,-0.567232,-0.698132,-0.174533,-0.174533,-0.575621,-0.693777,-0.169706,-0.190211,1.67783,-0.2438,-0.144834,0.470326
26,60,-0.567232,-0.698132,-0.174533,-0.174533,-0.575621,-0.693777,-0.169706,-0.190211,1.67783,-0.2438,-0.144834,0.470326
26,60,-0.567232,-0.698132,-0.174533,-0.174533,-0.575621,-0.693777,-0.169706,-0.190211,1.67783,-0.2438,-0.144834,0.470326
26,60,-0.567232,-0.698132,-0.174533,-0.174533,-0.575621,-0.693777,-0.169706,-0.190211,1.67783,-0.2438,-0.144834,0.470326
26,60,-0.567232,-0.698132,-0.174533,-0.174533,-0.575621,-0.693777,-0.169706,-0.190211,1.67783,-0.2438,-0.144834,0.470326
26,60,-0.567232,-0.698132,-0.174533,-0.174533,-0.575621,-0.693777,-0.169706,-0.190211,1.67783,-0.2438,-0.144834,0.470326
26,60,-0.567232,-0.698132,-0.174533,-0.174533,-0.575621,-0.693777,-0.169706,-0.190211,1.67783,-0.2438,-0.144834,0.470326
26,60,-0.567232,-0.698132,-0.174533,-0.174533,-0.575621,-0.693777,-0.169706,-0.190211,1.67783,-0.2438,-0.144834,0.470326
26,60,-0.567232,-0.698132,-0.174533,-0.174533,-0.575621,-0.693777,-0.169706,-0.190211,1.67783,-0.2438,-0.144834,0.470326
26,60,-0.567232,-0.698132,-0.174533,-0.174533,-0.575621,-0.693777,-0.169706,-0.190211,1.67783,-0.2438,-0.144834,0.470326
26,60,-0.567232,-0.698132,-0.174533,-0.174533,-0.575621,-0.693777,-0.169706,-0.190211,1.67783,-0.2438,-0.144834,0.470326
26,60,-0.567232,-0.698132,-0.174533,-0.174533,-0.575621,-0.693777,-0.169706,-0.190211,1.67783,-0.2438,-0.144834,0.470326
26,60,-0.567232,-0.698132,-0.174533,-0.174533,-0.575621,-0.693777,-0.169706,-0.190211,1.67783,-0.2438,-0.144834,0.470326
26,60,-0.567232,-0.698132,-0.174533,-0.174533,-0.575621,-0.693777,-0.169706,-0.190211,1.67783,-0.2438,-0.144834,0.470326
26,60,-0.567232,-0.698132,-0.174533,-0.174533,-0.575621,-0.693777,-0.169706,-0.190211,1.67783,-0.2438,-0.144834,0.470326
26,60,-0.567232,-0.698132,-0.174533,-0.174533,-0.575621,-0.693777,-0.169706,-0.190211,1.67783,-0.2438,-0.144834,0.470326
26,60,-0.567232,-0.698132,-0.174533,-0.174533,-0.575621,-0.693777,-0.169706,-0.190211,1.67783,-0.2438,-0.144834,0.470326
26,60,-0.567232,-0.698132,-0.174533,-0.174533,-0.575621,-0.693777,-0.169706,-0.190211,1.67783,-0.2438,-0.144834,0.470326
26,60,-0.567232,-0.698132,-0.174533,-0.174533,-0.575621,-0.693777,-0.169706,-0.190211,1.67783,-0.2438,-0.144834,0.470326
26,60,-0.567232,-0.698132,-0.174533,-0.174533,-0.575621,-0.693777,-0.169706,-0.190211,1.67783,-0.2438,-0.144834,0.470326
26,60,-0.567232,-0.698132,-0.174533,-0.174533,-0.575621,-0.693777,-0.169706,-0.190211,1.67783,-0.2438,-0.144834,0.470326
26,60,-0.567232,-0.698132,-0.174533,-0.174533,-0.575621,-0.693777,-0.169706,-0.190211,1.67783,-0.2438,-0.144834,0.470326
26,60,-0.567232,-0.698132,-0.174533,-0.174533,-0.575621,-0.693777,-0.169706,-0.190211,1.67783,-0.2438,-0.144834,0.470326
26,60,-0.567232,-0.698132,-0.174533,-0.174533,-0.575621,-0.693777,-0.169706,-0.190211,1.67783,-0.2438,-0.144834,0.470326
26,60,-0.567232,-0.698132,-0.174533,-0.174533,-0.575621,-0.693777,-0.169767,-0.190192,1.67783,-0.2438,-0.143,0.46976
26,60,-0.567232,-0.698132,-0.174533,-0.174533,-0.575621,-0.693777,-0.169767,-0.190192,1.67783,-0.2438,-0.143,0.46976
26,60,-0.567232,-0.698132,-0.174533,-0.174533,-0.575621,-0.693777,-0.169767,-0.190192,1.67783,-0.2438,-0.143,0.46976
26,60,-0.567232,-0.698132,-0.174533,-0.174533,-0.575621,-0.693777,-0.169767,-0.190192,1.67783,-0.2438,-0.143,0.46976
26,60,-0.567232,-0.698132,-0.174533,-0.174533,-0.575621,-0.693777,-0.169767,-0.190192,1.67783,-0.2438,-0.143,0.46976
26,60,-0.567232,-0.698132,-0.174533,-0.174533,-0.575621,-0.693777,-0.169767,-0.190192,1.67783,-0.2438,-0.143,0.46976
26,60,-0.567232,-0.698132,-0.174533,-0.174533,-0.575621,-0.693777,-0.169767,-0.190192,1.67783,-0.2438,-0.143,0.46976
26,60,-0.567232,-0.698132,-0.174533,-0.174533,-0.575621,-0.693777,-0.169767,-0.190192,1.67783,-0.2438,-0.143,0.46976
26,60,-0.567232,-0.698132,-0.174533,-0.174533,-0.575621,-0.693777,-0.169767,-0.190192,1.67783,-0.2438,-0.143,0.46976
26,60,-0.567232,-0.698132,-0.174533,-0.174533,-0.575621,-0.693777,-0.169767,-0.190192,1.67783,-0.2438,-0.143,0.46976
26,60,-0.567232,-0.698132,-0.174533,-0.174533,-0.575621,-0.693777,-0.169767,-0.190192,1.67783,-0.2438,-0.143,0.46976
26,60,-0.567232,-0.698132,-0.174533,-0.174533,-0.575621,-0.693777,-0.169767,-0.190192,1.67783,-0.2438,-0.143,0.46976
26,60,-0.567232,-0.698132,-0.174533,-0.174533,-0.575621,-0.693777,-0.169767,-0.190192,1.67783,-0.2438,-0.143,0.46976
26,60,-0.567232,-0.698132,-0.174533,-0.174533,-0.575621,-0.693777,-0.169767,-0.190192,1.67783,-0.2438,-0.143,0.46976
26,60,-0.567232,-0.698132,-0.174533,-0.174533,-0.575621,-0.693777,-0.169767,-0.190192,1.67783,-0.2438,-0.143,0.46976
26,60,-0.567232,-0.698132,-0.174533,-0.174533,-0.575621,-0.693777,-0.169767,-0.190192,1.67783,-0.2438,-0.143,0.46976
26,60,-0.567232,-0.698132,-0.174533,-0.174533,-0.575621,-0.693777,-0.169767,-0.190192,1.67783,-0.2438,-0.143,0.46976
26,60,-0.567232,-0.698132,-0.174533,-0.174533,-0.575621,-0.693777,-0.169767,-0.190192,1.67783,-0.2438,-0.143,0.46976
26,60,-0.567232,-0.698132,-0.174533,-0.174533,-0.575621,-0.693777,-0.169767,-0.190192,1.67783,-0.2438,-0.143,0.46976
26,60,-0.567232,-0.698132,-0.174533,-0.174533,-0.575621,-0.693777,-0.169767,-0.190192,1.67783,-0.2438,-0.143,0.46976
26,60,-0.567232,-0.698132,-0.174533,-0.174533,-0.575621,-0.693777,-0.169767,-0.190192,1.67783,-0.2438,-0.143,0.46976
26,60,-0.567232,-0.698132,-0.174533,-0.174533,-0.575621,-0.693777,-0.169767,-0.190192,1.67783,-0.2438,-0.143,0.46976
26,60,-0.567232,-0.698132,-0.174533,-0.174533,-0.575621,-0.693777,-0.169767,-0.190192,1.67783,-0.2438,-0.143,0.46976
26,60,-0.567232,-0.698132,-0.174533,-0.174533,-0.575621,-0.693777,-0.169767,-0.190192,1.67783,-0.2438,-0.143,0.46976
26,60,-0.567232,-0.698132,-0.174533,-0.174533,-0.575621,-0.693777,-0.169767,-0.190192,1.67783,-0.2438,-0.143,0.46976
26,60,-0.567232,-0.698132,-0.174533,-0.174533,-0.575621,-0.693777,-0.169767,-0.190192,1.67783,-0.2438,-0.143,0.46976
26,60,-0.567232,-0.698132,-0.174533,-0.174533,-0.575621,-0.693777,-0.169767,-0.190192,1.67783,-0.2438,-0.143,0.46976
26,60,-0.567232,-0.698132,-0.174533,-0.174533,-0.575621,-0.693777,-0.169767,-0.190192,1.67783,-0.2438,-0.143,0.46976
26,60,-0.567232,-0.698132,-0.174533,-0.174533,-0.575621,-0.693777,-0.169767,-0.190192,1.67783,-0.2438,-0.143,0.46976
26,60,-0.567232,-0.698132,-0.174533,-0.174533,-0.575621,-0.693777,-0.169767,-0.190192,1.67783,-0.2438,-0.143,0.46976
26,60,-0.567232,-0.698132,-0.174533,-0.174533,-0.575621,-0.693777,-0.169767,-0.190192,1.67783,-0.243879,-0.143,0.46976
26,60,-0.567232,-0.698132,-0.174533,-0.174533,-0.575621,-0.693777,-0.169767,-0.190192,1.67783,-0.243879,-0.143,0.46976
26,60,-0.567232,-0.698132,-0.174533,-0.174533,-0.575621,-0.693777,-0.169767,-0.190192,1.67783,-0.243879,-0.143,0.46976
26,60,-0.567232,-0.698132,-0.174533,-0.174533,-0.575621,-0.693777,-0.169767,-0.190192,1.67783,-0.243879,-0.143,0.46976
26,60,-0.567232,-0.698132,-0.174533,-0.174533,-0.575621,-0.693777,-0.169767,-0.190192,1.67783,-0.243879,-0.143,0.46976
26,60,-0.567232,-0.698132,-0.174533,-0.174533,-0.575621,-0.693777,-0.169767,-0.190192,1.67783,-0.243879,-0.143,0.46976
26,60,-0.567232,-0.698132,-0.174533,-0.174533,-0.575621,-0.693777,-0.169767,-0.190192,1.67783,-0.243879,-0.143,0.46976
26,60,-0.567232,-0.698132,-0.174533,-0.174533,-0.575621,-0.693777,-0.169767,-0.190192,1.67783,-0.243879,-0.143,0.46976
26,60,-0.567232,-0.698132,-0.174533,-0.174533,-0.575621,-0.693777,-0.169767,-0.190192,1.67783,-0.243879,-0.143,0.46976
26,60,-0.567232,-0.698132,-0.174533,-0.174533,-0.575621,-0.693777,-0.169767,-0.190192,1.67783,-0.243879,-0.143,0.46976
26,60,-0.567232,-0.698132,-0.174533,-0.174533,-0.575621,-0.693777,-0.169767,-0.190192,1.67783,-0.243879,-0.143,0.46976
26,60,-0.567232,-0.698132,-0.174533,-0.174533,-0.575621,-0.693777,-0.169767,-0.190192,1.67783,-0.243879,-0.143,0.46976
26,60,-0.567232,-0.698132,-0.174533,-0.174533,-0.575621,-0.693777,-0.169767,-0.190192,1.67783,-0.243879,-0.143,0.46976
26,60,-0.567232,-0.698132,-0.174533,-0.174533,-0.575621,-0.693777,-0.169767,-0.190192,1.67783,-0.243879,-0.143,0.46976
26,60,-0.567232,-0.698132,-0.174533,-0.174533,-0.575621,-0.693777,-0.169767,-0.190192,1.67783,-0.243879,-0.143,0.46976
26,60,-0.567232,-0.698132,-0.174533,-0.174533,-0.575621,-0.693777,-0.169767,-0.190192,1.67783,-0.243879,-0.143,0.46976
26,60,-0.567232,-0.698132,-0.174533,-0.174533,-0.575621,-0.693777,-0.169767,-0.190192,1.67783,-0.243879,-0.143,0.46976
26,60,-0.567232,-0.698132,-0.174533,-0.174533,-0.575621,-0.693777,-0.169767,-0.190192,1.67783,-0.243879,-0.143,0.46976
26,60,-0.567232,-0.698132,-0.174533,-0.174533,-0.575621,-0.693777,-0.169767,-0.190192,1.67783,-0.243879,-0.143,0.46976
26,60,-0.567232,-0.698132,-0.174533,-0.174533,-0.575621,-0.693777,-0.169767,-0.190192,1.67783,-0.243879,-0.143,0.46976
26,60,-0.567232,-0.698132,-0.174533,-0.174533,-0.575621,-0.693777,-0.169767,-0.190192,1.67783,-0.243879,-0.143,0.46976
26,60,-0.567232,-0.698132,-0.174533,-0.174533,-0.575621,-0.693777,-0.169828,-0.190173,1.67783,-0.243879,-0.141162,0.469193
26,60,-0.567232,-0.698132,-0.174533,-0.174533,-0.575621,-0.693777,-0.169828,-0.190173,1.67783,-0.243879,-0.141162,0.469193
26,60,-0.567232,-0.698132,-0.174533,-0.174533,-0.575621,-0.693777,-0.169828,-0.190173,1.67783,-0.243879,-0.141162,0.469193
26,60,-0.567232,-0.698132,-0.174533,-0.174533,-0.575621,-0.693777,-0.169828,-0.190173,1.67783,-0.243879,-0.141162,0.469193
26,60,-0.567232,-0.698132,-0.174533,-0.174533,-0.575621,-0.693777,-0.169828,-0.190173,1.67783,-0.243879,-0.141162,0.469193
26,60,-0.567232,-0.698132,-0.174533,-0.174533,-0.575621,-0.693777,-0.169828,-0.190173,1.67783,-0.243879,-0.141162,0.469193
26,60,-0.567232,-0.698132,-0.174533,-0.174533,-0.575621,-0.693777,-0.169828,-0.190173,1.67783,-0.243879,-0.141162,0.469193
26,60,-0.567232,-0.698132,-0.174533,-0.174533,-0.575621,-0.693777,-0.169828,-0.190173,1.67783,-0.243879,-0.141162,0.469193
26,60,-0.567232,-0.698132,-0.174533,-0.174533,-0.575621,-0.693777,-0.169889,-0.190154,1.67783,-0.243879,-0.139332,0.468628
26,60,-0.567232,-0.698132,-0.174533,-0.174533,-0.575621,-0.693777,-0.169889,-0.190154,1.67783,-0.243879,-0.139332,0.468628
26,60,-0.567232,-0.698132,-0.174533,-0.174533,-0.575621,-0.693777,-0.169889,-0.190154,1.67783,-0.243879,-0.139332,0.468628
26,60,-0.567232,-0.698132,-0.174533,-0.174533,-0.575621,-0.693777,-0.169889,-0.190154,1.67783,-0.243879,-0.139332,0.468628
26,60,-0.567232,-0.698132,-0.174533,-0.174533,-0.575621,-0.693777,-0.16995,-0.190136,1.67783,-0.243879,-0.137495,0.468061
26,60,-0.567232,-0.698132,-0.174533,-0.174533,-0.575621,-0.693777,-0.16995,-0.190136,1.67783,-0.243879,-0.137495,0.468061
26,60,-0.567232,-0.698132,-0.174533,-0.174533,-0.575621,-0.693777,-0.16995,-0.190136,1.67783,-0.243879,-0.137495,0.468061
26,60,-0.567232,-0.698132,-0.174533,-0.174533,-0.575621,-0.693777,-0.16995,-0.190136,1.67783,-0.243879,-0.137495,0.468061
26,60,-0.567232,-0.698132,-0.174533,-0.174533,-0.575621,-0.693777,-0.16995,-0.190136,1.67783,-0.243879,-0.137495,0.46806
26,60,-0.567232,-0.698132,-0.174533,-0.174533,-0.575621,-0.693777,-0.170012,-0.190117,1.67783,-0.243879,-0.135651,0.467491
26,60,-0.567232,-0.698132,-0.174533,-0.174533,-0.575621,-0.693777,-0.170012,-0.190117,1.67783,-0.243879,-0.135651,0.467491
26,60,-0.567232,-0.698132,-0.174533,-0.174533,-0.575621,-0.693777,-0.170012,-0.190117,1.67783,-0.243879,-0.135651,0.467491
26,60,-0.567232,-0.698132,-0.174533,-0.174533,-0.575621,-0.693777,-0.170073,-0.190098,1.67783,-0.243879,-0.133788,0.466917
26,60,-0.567232,-0.698132,-0.174533,-0.174533,-0.575621,-0.693777,-0.170073,-0.190098,1.67783,-0.243879,-0.133788,0.466917
26,60,-0.567232,-0.698132,-0.174533,-0.174533,-0.575621,-0.693777,-0.170073,-0.190098,1.67783,-0.243879,-0.133788,0.466917
26,60,-0.567232,-0.698132,-0.174533,-0.174533,-0.575621,-0.693777,-0.170073,-0.190098,1.67783,-0.243879,-0.133788,0.466917
26,60,-0.567232,-0.698132,-0.174533,-0.174533,-0.575621,-0.693777,-0.170073,-0.190098,1.67783,-0.243879,-0.133788,0.466917
26,60,-0.567232,-0.698132,-0.174533,-0.174533,-0.575621,-0.693777,-0.170073,-0.190098,1.67783,-0.243879,-0.133788,0.466917
26,60,-0.567232,-0.698132,-0.174533,-0.174533,-0.575621,-0.693777,-0.170134,-0.190079,1.67783,-0.243879,-0.131784,0.466296
26,60,-0.567232,-0.698132,-0.174533,-0.174533,-0.575621,-0.693777,-0.170134,-0.190079,1.67783,-0.243879,-0.131784,0.466295
26,60,-0.567232,-0.698132,-0.174533,-0.174533,-0.575621,-0.693777,-0.170134,-0.190079,1.67783,-0.243879,-0.131784,0.466295
26,60,-0.567232,-0.698132,-0.174533,-0.174533,-0.575621,-0.693777,-0.170195,-0.19006,1.67783,-0.243879,-0.129913,0.465718
26,60,-0.567232,-0.698132,-0.174533,-0.174533,-0.575621,-0.693777,-0.170195,-0.19006,1.67783,-0.243879,-0.129913,0.465718
26,60,-0.567232,-0.698132,-0.174533,-0.174533,-0.575621,-0.693777,-0.170195,-0.19006,1.67783,-0.243879,-0.129913,0.465717
26,60,-0.567232,-0.698132,-0.174533,-0.174533,-0.575621,-0.693777,-0.170195,-0.19006,1.67783,-0.243879,-0.129913,0.465717
26,60,-0.567232,-0.698132,-0.174533,-0.174533,-0.575621,-0.693777,-0.170195,-0.19006,1.67783,-0.243879,-0.129913,0.465717
26,60,-0.567232,-0.698132,-0.174533,-0.174533,-0.575621,-0.693777,-0.170256,-0.190041,1.67783,-0.243879,-0.128075,0.46515
26,60,-0.567232,-0.698132,-0.174533,-0.174533,-0.575621,-0.693777,-0.170256,-0.190041,1.67783,-0.243879,-0.128075,0.46515
26,60,-0.567232,-0.698132,-0.174533,-0.174533,-0.575621,-0.693777,-0.170256,-0.190041,1.67783,-0.243879,-0.128075,0.465149
26,60,-0.567232,-0.698132,-0.174533,-0.174533,-0.575621,-0.693777,-0.170256,-0.190041,1.67783,-0.243879,-0.128075,0.465149
26,60,-0.567232,-0.698132,-0.174533,-0.174533,-0.575621,-0.693777,-0.170317,-0.190022,1.67783,-0.243879,-0.12624,0.464583
26,60,-0.567232,-0.698132,-0.174533,-0.174533,-0.575621,-0.693777,-0.170317,-0.190022,1.67783,-0.243879,-0.12624,0.464583
26,60,-0.567232,-0.698132,-0.174533,-0.174533,-0.575621,-0.693777,-0.170317,-0.190022,1.67783,-0.243879,-0.12624,0.464582
26,60,-0.567232,-0.698132,-0.174533,-0.174533,-0.575621,-0.693777,-0.170317,-0.190022,1.67783,-0.243879,-0.126241,0.464582
26,60,-0.567232,-0.698132,-0.174533,-0.174533,-0.575621,-0.693777,-0.170317,-0.190022,1.67783,-0.243879,-0.126241,0.464582
26,60,-0.567232,-0.698132,-0.174533,-0.174533,-0.575621,-0.693777,-0.170317,-0.190022,1.67783,-0.243879,-0.126241,0.464582
26,60,-0.567232,-0.698132,-0.174533,-0.174533,-0.575621,-0.693777,-0.170317,-0.190022,1.67783,-0.243879,-0.126241,0.464582
26,60,-0.567232,-0.698132,-0.174533,-0.174533,-0.575621,-0.693777,-0.170317,-0.190022,1.67783,-0.243879,-0.126271,0.464591
26,60,-0.567232,-0.698132,-0.174533,-0.174533,-0.575621,-0.693777,-0.170378,-0.190004,1.67783,-0.243879,-0.124411,0.464017
26,60,-0.567232,-0.698132,-0.174533,-0.174533,-0.575621,-0.693777,-0.170378,-0.190004,1.67783,-0.243879,-0.124411,0.464017
26,60,-0.567232,-0.698132,-0.174533,-0.174533,-0.575621,-0.693777,-0.170378,-0.190004,1.67783,-0.243879,-0.124411,0.464017
26,60,-0.567232,-0.698132,-0.174533,-0.174533,-0.575621,-0.693777,-0.170439,-0.189985,1.67783,-0.243879,-0.122616,0.463463
26,60,-0.567232,-0.698132,-0.174533,-0.174533,-0.575621,-0.693777,-0.170439,-0.189985,1.67783,-0.243879,-0.122616,0.463463
26,60,-0.567232,-0.698132,-0.174533,-0.174533,-0.575621,-0.693777,-0.170439,-0.189985,1.67783,-0.243879,-0.122616,0.463463
26,60,-0.567232,-0.698132,-0.174533,-0.174533,-0.575621,-0.693777,-0.170439,-0.189985,1.67783,-0.243879,-0.122616,0.463462
26,60,-0.567232,-0.698132,-0.174533,-0.174533,-0.575621,-0.693777,-0.170439,-0.189985,1.67783,-0.243879,-0.122616,0.463462
26,60,-0.567232,-0.698132,-0.174533,-0.174533,-0.575621,-0.693777,-0.170439,-0.189985,1.67783,-0.243879,-0.122616,0.463462
26,60,-0.567232,-0.698132,-0.174533,-0.174533,-0.575621,-0.693777,-0.170439,-0.189985,1.67783,-0.243879,-0.122616,0.463462
26,60,-0.567232,-0.698132,-0.174533,-0.174533,-0.575621,-0.693777,-0.170439,-0.189985,1.67783,-0.243879,-0.122616,0.463462
26,60,-0.567232,-0.698132,-0.174533,-0.174533,-0.575621,-0.693777,-0.170439,-0.189985,1.67783,-0.243879,-0.122623,0.463464
26,60,-0.567232,-0.698132,-0.174533,-0.174533,-0.575621,-0.693777,-0.1705,-0.189966,1.67783,-0.243879,-0.120784,0.462896
26,60,-0.567232,-0.698132,-0.174533,-0.174533,-0.575621,-0.693777,-0.1705,-0.189966,1.67783,-0.243879,-0.120784,0.462896
26,60,-0.567232,-0.698132,-0.174533,-0.174533,-0.575621,-0.693777,-0.1705,-0.189966,1.67783,-0.243879,-0.120784,0.462896
