stim_pw [us],stim_amp [mA],com_elbow_fe [rad],com_forearm_ps [rad],com_wrist_fe [rad],com_wrist_ru [rad],act_elbow_fe [rad],act_forearm_ps [rad],act_wrist_fe [rad],act_wrist_ru [rad],elbow_fe_trq [Nm],forearm_ps_trq [Nm],wrist_fe_trq [Nm],wrist_ru_trq [Nm]
26,40,-0.567232,-0.698132,-0.174533,-0.174533,-0.572901,-0.694692,-0.161706,-0.199334,1.14499,-0.192733,-0.384949,0.743923
26,40,-0.567232,-0.698132,-0.174533,-0.174533,-0.572901,-0.694692,-0.161638,-0.199291,1.14499,-0.192733,-0.387005,0.742622
26,40,-0.567232,-0.698132,-0.174533,-0.174533,-0.572901,-0.694692,-0.161638,-0.199291,1.14499,-0.192733,-0.387005,0.742622
26,40,-0.567232,-0.698132,-0.174533,-0.174533,-0.572901,-0.694692,-0.161638,-0.199291,1.14499,-0.192733,-0.387005,0.742621
26,40,-0.567232,-0.698132,-0.174533,-0.174533,-0.572901,-0.694692,-0.161638,-0.199291,1.14499,-0.192733,-0.387005,0.742621
26,40,-0.567232,-0.698132,-0.174533,-0.174533,-0.572901,-0.694692,-0.161638,-0.199291,1.14499,-0.192733,-0.387005,0.742621
26,40,-0.567232,-0.698132,-0.174533,-0.174533,-0.572901,-0.694692,-0.161638,-0.199291,1.14499,-0.192733,-0.387005,0.742621
26,40,-0.567232,-0.698132,-0.174533,-0.174533,-0.572901,-0.694692,-0.161638,-0.199291,1.14499,-0.192733,-0.387005,0.742621
26,40,-0.567232,-0.698132,-0.174533,-0.174533,-0.572901,-0.694692,-0.16157,-0.199248,1.14499,-0.192733,-0.389066,0.741317
26,40,-0.567232,-0.698132,-0.174533,-0.174533,-0.572901,-0.694692,-0.16157,-0.199248,1.14499,-0.192733,-0.389066,0.741317
26,40,-0.567232,-0.698132,-0.174533,-0.174533,-0.572901,-0.694692,-0.16157,-0.199248,1.14499,-0.192733,-0.389066,0.741317
26,40,-0.567232,-0.698132,-0.174533,-0.174533,-0.572901,-0.694692,-0.161632,-0.199229,1.14499,-0.192733,-0.387197,0.740745
26,40,-0.567232,-0.698132,-0.174533,-0.174533,-0.572901,-0.694692,-0.161632,-0.199229,1.13378,-0.192733,-0.387197,0.740745
26,40,-0.567232,-0.698132,-0.174533,-0.174533,-0.572901,-0.694692,-0.161632,-0.199229,1.13378,-0.192733,-0.387197,0.740745
26,40,-0.567232,-0.698132,-0.174533,-0.174533,-0.572901,-0.694692,-0.161563,-0.199185,1.13378,-0.192733,-0.389264,0.739436
26,40,-0.567232,-0.698132,-0.174533,-0.174533,-0.572901,-0.694692,-0.161563,-0.199185,1.13378,-0.192733,-0.389264,0.739436
26,40,-0.567232,-0.698132,-0.174533,-0.174533,-0.572901,-0.694692,-0.161563,-0.199185,1.13378,-0.192733,-0.389264,0.739436
26,40,-0.567232,-0.698132,-0.174533,-0.174533,-0.572901,-0.694692,-0.161563,-0.199185,1.13378,-0.192733,-0.389264,0.739436
26,40,-0.567232,-0.698132,-0.174533,-0.174533,-0.572901,-0.694692,-0.161563,-0.199185,1.13378,-0.192733,-0.389264,0.739436
26,40,-0.567232,-0.698132,-0.174533,-0.174533,-0.572901,-0.694692,-0.161495,-0.199142,1.13378,-0.192733,-0.391369,0.738104
26,40,-0.567232,-0.698132,-0.174533,-0.174533,-0.572901,-0.694692,-0.161495,-0.199142,1.13378,-0.192733,-0.391369,0.738104
26,40,-0.567232,-0.698132,-0.174533,-0.174533,-0.572901,-0.694692,-0.161495,-0.199142,1.13378,-0.192733,-0.391369,0.738104
26,40,-0.567232,-0.698132,-0.174533,-0.174533,-0.572901,-0.694692,-0.161495,-0.199142,1.13378,-0.192733,-0.391369,0.738104
26,40,-0.567232,-0.698132,-0.174533,-0.174533,-0.572901,-0.694692,-0.161557,-0.199123,1.13378,-0.192733,-0.3895,0.737532
26,40,-0.567232,-0.698132,-0.174533,-0.174533,-0.572901,-0.694692,-0.161557,-0.199123,1.13378,-0.192733,-0.3895,0.737532
26,40,-0.567232,-0.698132,-0.174533,-0.174533,-0.572901,-0.694692,-0.161557,-0.199123,1.13378,-0.192733,-0.3895,0.737532
26,40,-0.567232,-0.698132,-0.174533,-0.174533,-0.572901,-0.694692,-0.161557,-0.199123,1.13378,-0.192733,-0.389501,0.737516
26,40,-0.567232,-0.698132,-0.174533,-0.174533,-0.572901,-0.694692,-0.161557,-0.199123,1.13378,-0.192733,-0.389501,0.737516
26,40,-0.567232,-0.698132,-0.174533,-0.174533,-0.572901,-0.694692,-0.161557,-0.199123,1.13378,-0.192733,-0.389501,0.737516
26,40,-0.567232,-0.698132,-0.174533,-0.174533,-0.572901,-0.694692,-0.161557,-0.199123,1.13378,-0.192733,-0.389501,0.737516
26,40,-0.567232,-0.698132,-0.174533,-0.174533,-0.572901,-0.694692,-0.161557,-0.199123,1.13378,-0.192733,-0.389501,0.737516
26,40,-0.567232,-0.698132,-0.174533,-0.174533,-0.572901,-0.694692,-0.161557,-0.199123,1.13378,-0.192733,-0.389501,0.737516
26,40,-0.567232,-0.698132,-0.174533,-0.174533,-0.572901,-0.694692,-0.161557,-0.199123,1.13378,-0.192733,-0.389501,0.737516
26,40,-0.567232,-0.698132,-0.174533,-0.174533,-0.572901,-0.694692,-0.161489,-0.19908,1.13378,-0.192733,-0.391538,0.736228
26,40,-0.567232,-0.698132,-0.174533,-0.174533,-0.572901,-0.694692,-0.16155,-0.199061,1.13378,-0.192733,-0.389679,0.735658
26,40,-0.567232,-0.698132,-0.174533,-0.174533,-0.572901,-0.694692,-0.16155,-0.199061,1.13378,-0.192733,-0.389679,0.735658
26,40,-0.567232,-0.698132,-0.174533,-0.174533,-0.572901,-0.694692,-0.16155,-0.199061,1.13378,-0.192733,-0.389679,0.735658
26,40,-0.567232,-0.698132,-0.174533,-0.174533,-0.572901,-0.694692,-0.16155,-0.199061,1.13378,-0.192733,-0.389679,0.735658
26,40,-0.567232,-0.698132,-0.174533,-0.174533,-0.572901,-0.694692,-0.16155,-0.199061,1.13378,-0.192733,-0.389679,0.735658
26,40,-0.567232,-0.698132,-0.174533,-0.174533,-0.572901,-0.694692,-0.16155,-0.199061,1.13378,-0.192733,-0.389679,0.735658
26,40,-0.567232,-0.698132,-0.174533,-0.174533,-0.572901,-0.694692,-0.16155,-0.199061,1.13378,-0.192733,-0.389679,0.735658
26,40,-0.567232,-0.698132,-0.174533,-0.174533,-0.572901,-0.694692,-0.16155,-0.199061,1.13378,-0.192733,-0.389679,0.735658
26,40,-0.567232,-0.698132,-0.174533,-0.174533,-0.572901,-0.694692,-0.161612,-0.199042,1.13378,-0.192733,-0.387819,0.735089
26,40,-0.567232,-0.698132,-0.174533,-0.174533,-0.572901,-0.694692,-0.161612,-0.199042,1.13378,-0.192733,-0.387819,0.735089
26,40,-0.567232,-0.698132,-0.174533,-0.174533,-0.572901,-0.694692,-0.161612,-0.199042,1.13378,-0.192733,-0.387819,0.735089
26,40,-0.567232,-0.698132,-0.174533,-0.174533,-0.572901,-0.694692,-0.161544,-0.198999,1.13378,-0.192733,-0.389768,0.733855
26,40,-0.567232,-0.698132,-0.174533,-0.174533,-0.572901,-0.694692,-0.161544,-0.198999,1.13378,-0.192733,-0.389768,0.733855
26,40,-0.567232,-0.698132,-0.174533,-0.174533,-0.572901,-0.694692,-0.161544,-0.198999,1.13378,-0.192733,-0.389768,0.733855
26,40,-0.567232,-0.698132,-0.174533,-0.174533,-0.572901,-0.694692,-0.161544,-0.198999,1.13378,-0.192733,-0.389768,0.733855
26,40,-0.567232,-0.698132,-0.174533,-0.174533,-0.572901,-0.694692,-0.161544,-0.198999,1.13378,-0.192733,-0.389768,0.733855
26,40,-0.567232,-0.698132,-0.174533,-0.174533,-0.572901,-0.694692,-0.161544,-0.198999,1.13378,-0.192733,-0.389768,0.733855
26,40,-0.567232,-0.698132,-0.174533,-0.174533,-0.572901,-0.694692,-0.161544,-0.198999,1.13378,-0.192733,-0.389768,0.733855
26,40,-0.567232,-0.698132,-0.174533,-0.174533,-0.572901,-0.694692,-0.161544,-0.198999,1.13378,-0.192733,-0.389768,0.733855
26,40,-0.567232,-0.698132,-0.174533,-0.174533,-0.572901,-0.694692,-0.161544,-0.198999,1.13378,-0.192631,-0.389768,0.733855
26,40,-0.567232,-0.698132,-0.174533,-0.174533,-0.572901,-0.694692,-0.161475,-0.198956,1.13378,-0.192631,-0.391793,0.732574
26,40,-0.567232,-0.698132,-0.174533,-0.174533,-0.572901,-0.694692,-0.161475,-0.198956,1.13378,-0.192631,-0.391793,0.732574
26,40,-0.567232,-0.698132,-0.174533,-0.174533,-0.572901,-0.694692,-0.161475,-0.198956,1.13378,-0.192631,-0.391793,0.732574
26,40,-0.567232,-0.698132,-0.174533,-0.174533,-0.572901,-0.694692,-0.161475,-0.198956,1.13378,-0.192631,-0.391793,0.732574
26,40,-0.567232,-0.698132,-0.174533,-0.174533,-0.572901,-0.694692,-0.161475,-0.198956,1.13378,-0.192631,-0.391793,0.732574
26,40,-0.567232,-0.698132,-0.174533,-0.174533,-0.572901,-0.694692,-0.161537,-0.198937,1.13378,-0.192631,-0.389902,0.731995
26,40,-0.567232,-0.698132,-0.174533,-0.174533,-0.572901,-0.694692,-0.161469,-0.198894,1.13378,-0.192631,-0.391938,0.730706
26,40,-0.567232,-0.698132,-0.174533,-0.174533,-0.572901,-0.694692,-0.161469,-0.198894,1.13378,-0.192631,-0.391938,0.730706
26,40,-0.567232,-0.698132,-0.174533,-0.174533,-0.572901,-0.694692,-0.161469,-0.198894,1.13378,-0.192631,-0.391938,0.730706
26,40,-0.567232,-0.698132,-0.174533,-0.174533,-0.572901,-0.694692,-0.161469,-0.198894,1.13378,-0.192631,-0.391938,0.730706
26,40,-0.567232,-0.698132,-0.174533,-0.174533,-0.572901,-0.694692,-0.161469,-0.198894,1.13378,-0.192631,-0.391938,0.730706
26,40,-0.567232,-0.698132,-0.174533,-0.174533,-0.572901,-0.694692,-0.161469,-0.198894,1.13378,-0.192631,-0.391938,0.730706
26,40,-0.567232,-0.698132,-0.174533,-0.174533,-0.572901,-0.694692,-0.161469,-0.198894,1.13378,-0.192631,-0.391938,0.730706
26,40,-0.567232,-0.698132,-0.174533,-0.174533,-0.572901,-0.694692,-0.161469,-0.198894,1.13378,-0.192631,-0.391938,0.730706
26,40,-0.567232,-0.698132,-0.174533,-0.174533,-0.572901,-0.694692,-0.161469,-0.198894,1.13378,-0.192631,-0.391938,0.730706
26,40,-0.567232,-0.698132,-0.174533,-0.174533,-0.572901,-0.694692,-0.161469,-0.198894,1.13378,-0.192631,-0.391938,0.730706
26,40,-0.567232,-0.698132,-0.174533,-0.174533,-0.572901,-0.694692,-0.161469,-0.198894,1.13378,-0.192631,-0.391938,0.730706
26,40,-0.567232,-0.698132,-0.174533,-0.174533,-0.572901,-0.694692,-0.161469,-0.198894,1.13378,-0.192631,-0.391938,0.730706
26,40,-0.567232,-0.698132,-0.174533,-0.174533,-0.572901,-0.694692,-0.161469,-0.198894,1.13378,-0.192631,-0.391938,0.730706
26,40,-0.567232,-0.698132,-0.174533,-0.174533,-0.572901,-0.694692,-0.161401,-0.198851,1.13378,-0.192631,-0.393983,0.729411
26,40,-0.567232,-0.698132,-0.174533,-0.174533,-0.572901,-0.694692,-0.161401,-0.198851,1.13378,-0.192631,-0.393983,0.729411
26,40,-0.567232,-0.698132,-0.174533,-0.174533,-0.572901,-0.694692,-0.161401,-0.198851,1.13378,-0.192631,-0.393983,0.729411
26,40,-0.567232,-0.698132,-0.174533,-0.174533,-0.572901,-0.694692,-0.161401,-0.198851,1.13378,-0.192631,-0.393983,0.729411
26,40,-0.567232,-0.698132,-0.174533,-0.174533,-0.572901,-0.694692,-0.161401,-0.198851,1.13378,-0.192631,-0.393983,0.729411
26,40,-0.567232,-0.698132,-0.174533,-0.174533,-0.572901,-0.694692,-0.161462,-0.198832,1.13378,-0.192631,-0.392148,0.728849
26,40,-0.567232,-0.698132,-0.174533,-0.174533,-0.572901,-0.694692,-0.161462,-0.198832,1.13378,-0.192631,-0.392148,0.728849
26,40,-0.567232,-0.698132,-0.174533,-0.174533,-0.572901,-0.694692,-0.161462,-0.198832,1.13378,-0.192631,-0.392148,0.728849
26,40,-0.567232,-0.698132,-0.174533,-0.174533,-0.572901,-0.694692,-0.161462,-0.198832,1.13378,-0.192631,-0.392148,0.728849
26,40,-0.567232,-0.698132,-0.174533,-0.174533,-0.572901,-0.694692,-0.161462,-0.198832,1.13378,-0.192631,-0.392148,0.728849
26,40,-0.567232,-0.698132,-0.174533,-0.174533,-0.572901,-0.694692,-0.161462,-0.198832,1.13378,-0.192631,-0.392148,0.728849
26,40,-0.567232,-0.698132,-0.174533,-0.174533,-0.572901,-0.694692,-0.161462,-0.198832,1.13378,-0.192631,-0.392148,0.728849
26,40,-0.567232,-0.698132,-0.174533,-0.174533,-0.572901,-0.694692,-0.161462,-0.198832,1.13378,-0.192631,-0.392148,0.728849
26,40,-0.567232,-0.698132,-0.174533,-0.174533,-0.572901,-0.694692,-0.161462,-0.198832,1.13378,-0.192631,-0.392148,0.728849
26,40,-0.567232,-0.698132,-0.174533,-0.174533,-0.572901,-0.694692,-0.161462,-0.198832,1.13378,-0.192631,-0.392148,0.728849
26,40,-0.567232,-0.698132,-0.174533,-0.174533,-0.572901,-0.694692,-0.161462,-0.198832,1.13378,-0.192631,-0.392148,0.728849
26,40,-0.567232,-0.698132,-0.174533,-0.174533,-0.572901,-0.694692,-0.161462,-0.198832,1.13378,-0.192631,-0.392148,0.728849
26,40,-0.567232,-0.698132,-0.174533,-0.174533,-0.572901,-0.694692,-0.161462,-0.198832,1.13378,-0.192631,-0.392148,0.728849
26,40,-0.567232,-0.698132,-0.174533,-0.174533,-0.572901,-0.694692,-0.161462,-0.198832,1.13378,-0.192631,-0.392148,0.728849
26,40,-0.567232,-0.698132,-0.174533,-0.174533,-0.572901,-0.694692,-0.161462,-0.198832,1.13378,-0.192631,-0.392148,0.728849
26,40,-0.567232,-0.698132,-0.174533,-0.174533,-0.572901,-0.694692,-0.161524,-0.198813,1.13378,-0.192631,-0.390311,0.728286
26,40,-0.567232,-0.698132,-0.174533,-0.174533,-0.572901,-0.694692,-0.161524,-0.198813,1.13378,-0.192631,-0.390311,0.728286
26,40,-0.567232,-0.698132,-0.174533,-0.174533,-0.572901,-0.694692,-0.161524,-0.198813,1.13378,-0.192631,-0.390311,0.728286
26,40,-0.567232,-0.698132,-0.174533,-0.174533,-0.572901,-0.694692,-0.161524,-0.198813,1.13378,-0.192631,-0.390311,0.728286
26,40,-0.567232,-0.698132,-0.174533,-0.174533,-0.572901,-0.694692,-0.161524,-0.198813,1.13378,-0.192631,-0.390311,0.728286
26,40,-0.567232,-0.698132,-0.174533,-0.174533,-0.572901,-0.694692,-0.161524,-0.198813,1.13378,-0.192631,-0.390311,0.728286
26,40,-0.567232,-0.698132,-0.174533,-0.174533,-0.572901,-0.694692,-0.161524,-0.198813,1.13378,-0.192631,-0.390311,0.728286
26,40,-0.567232,-0.698132,-0.174533,-0.174533,-0.572901,-0.694692,-0.161524,-0.198813,1.13378,-0.192631,-0.390311,0.728286
26,40,-0.567232,-0.698132,-0.174533,-0.174533,-0.572901,-0.694692,-0.161524,-0.198813,1.13378,-0.192631,-0.390311,0.728286
26,40,-0.567232,-0.698132,-0.174533,-0.174533,-0.572901,-0.694692,-0.161524,-0.198813,1.13378,-0.192631,-0.390311,0.728286
26,40,-0.567232,-0.698132,-0.174533,-0.174533,-0.572901,-0.694692,-0.161524,-0.198813,1.13378,-0.192631,-0.390311,0.728286
26,40,-0.567232,-0.698132,-0.174533,-0.174533,-0.572901,-0.694692,-0.161524,-0.198813,1.13378,-0.192631,-0.390311,0.728286
26,40,-0.567232,-0.698132,-0.174533,-0.174533,-0.572901,-0.694692,-0.161524,-0.198813,1.13378,-0.192631,-0.390311,0.728286
26,40,-0.567232,-0.698132,-0.174533,-0.174533,-0.572901,-0.694692,-0.161524,-0.198813,1.13378,-0.192631,-0.390311,0.728286
26,40,-0.567232,-0.698132,-0.174533,-0.174533,-0.572901,-0.694692,-0.161524,-0.198813,1.13378,-0.192631,-0.390311,0.728286
26,40,-0.567232,-0.698132,-0.174533,-0.174533,-0.572901,-0.694692,-0.161524,-0.198813,1.13378,-0.192631,-0.390311,0.728286
26,40,-0.567232,-0.698132,-0.174533,-0.174533,-0.572901,-0.694692,-0.161524,-0.198813,1.13378,-0.192631,-0.390311,0.728286
26,40,-0.567232,-0.698132,-0.174533,-0.174533,-0.572901,-0.694692,-0.161524,-0.198813,1.13378,-0.192631,-0.390311,0.728286
26,40,-0.567232,-0.698132,-0.174533,-0.174533,-0.572901,-0.694692,-0.161524,-0.198813,1.13378,-0.192631,-0.390311,0.728286
26,40,-0.567232,-0.698132,-0.174533,-0.174533,-0.572901,-0.694692,-0.161524,-0.198813,1.13378,-0.192631,-0.390311,0.728286
26,40,-0.567232,-0.698132,-0.174533,-0.174533,-0.572901,-0.694692,-0.161524,-0.198813,1.13378,-0.192631,-0.390311,0.728286
26,40,-0.567232,-0.698132,-0.174533,-0.174533,-0.572901,-0.694692,-0.161524,-0.198813,1.13378,-0.192631,-0.390311,0.728286
26,40,-0.567232,-0.698132,-0.174533,-0.174533,-0.572901,-0.694692,-0.161524,-0.198813,1.13378,-0.192631,-0.390311,0.728286
26,40,-0.567232,-0.698132,-0.174533,-0.174533,-0.572901,-0.694692,-0.161524,-0.198813,1.13378,-0.192631,-0.390311,0.728286
26,40,-0.567232,-0.698132,-0.174533,-0.174533,-0.572901,-0.694692,-0.161524,-0.198813,1.13378,-0.192631,-0.390311,0.728286
26,40,-0.567232,-0.698132,-0.174533,-0.174533,-0.572901,-0.694692,-0.161524,-0.198813,1.13378,-0.192631,-0.390311,0.728286
26,40,-0.567232,-0.698132,-0.174533,-0.174533,-0.572901,-0.694692,-0.161524,-0.198813,1.13378,-0.192631,-0.390311,0.728286
26,40,-0.567232,-0.698132,-0.174533,-0.174533,-0.572901,-0.694692,-0.161524,-0.198813,1.13378,-0.192631,-0.390311,0.728286
26,40,-0.567232,-0.698132,-0.174533,-0.174533,-0.572901,-0.694692,-0.161524,-0.198813,1.13378,-0.192631,-0.390311,0.728286
26,40,-0.567232,-0.698132,-0.174533,-0.174533,-0.572901,-0.694692,-0.161524,-0.198813,1.13378,-0.192631,-0.390311,0.728286
26,40,-0.567232,-0.698132,-0.174533,-0.174533,-0.572901,-0.694692,-0.161524,-0.198813,1.13378,-0.192631,-0.390311,0.728286
26,40,-0.567232,-0.698132,-0.174533,-0.174533,-0.572901,-0.694692,-0.161524,-0.198813,1.13378,-0.192631,-0.390311,0.728286
26,40,-0.567232,-0.698132,-0.174533,-0.174533,-0.572901,-0.694692,-0.161524,-0.198813,1.13378,-0.192631,-0.390311,0.728286
26,40,-0.567232,-0.698132,-0.174533,-0.174533,-0.572901,-0.694692,-0.161524,-0.198813,1.13378,-0.192631,-0.390311,0.728286
26,40,-0.567232,-0.698132,-0.174533,-0.174533,-0.572901,-0.694692,-0.161524,-0.198813,1.13378,-0.192631,-0.390311,0.728286
26,40,-0.567232,-0.698132,-0.174533,-0.174533,-0.572901,-0.694692,-0.161524,-0.198813,1.13378,-0.192631,-0.390311,0.728286
26,40,-0.567232,-0.698132,-0.174533,-0.174533,-0.572901,-0.694692,-0.161524,-0.198813,1.13378,-0.192631,-0.390311,0.728286
26,40,-0.567232,-0.698132,-0.174533,-0.174533,-0.572901,-0.694692,-0.161524,-0.198813,1.13378,-0.192631,-0.390311,0.728286
26,40,-0.567232,-0.698132,-0.174533,-0.174533,-0.572901,-0.694692,-0.161524,-0.198813,1.13378,-0.192631,-0.390313,0.728287
26,40,-0.567232,-0.698132,-0.174533,-0.174533,-0.572901,-0.694692,-0.161524,-0.198813,1.13378,-0.192631,-0.390315,0.728287
26,40,-0.567232,-0.698132,-0.174533,-0.174533,-0.572901,-0.694692,-0.161524,-0.198813,1.13378,-0.192631,-0.390317,0.728288
26,40,-0.567232,-0.698132,-0.174533,-0.174533,-0.572901,-0.694692,-0.161524,-0.198813,1.13378,-0.192631,-0.390319,0.728288
26,40,-0.567232,-0.698132,-0.174533,-0.174533,-0.572901,-0.694692,-0.161524,-0.198813,1.13378,-0.192631,-0.390321,0.728289
26,40,-0.567232,-0.698132,-0.174533,-0.174533,-0.572901,-0.694692,-0.161524,-0.198813,1.13378,-0.192631,-0.390323,0.72829
26,40,-0.567232,-0.698132,-0.174533,-0.174533,-0.572901,-0.694692,-0.161524,-0.198813,1.13378,-0.192631,-0.390324,0.72829
26,40,-0.567232,-0.698132,-0.174533,-0.174533,-0.572901,-0.694692,-0.161524,-0.198813,1.13378,-0.192631,-0.390326,0.728291
26,40,-0.567232,-0.698132,-0.174533,-0.174533,-0.572901,-0.694692,-0.161524,-0.198813,1.13378,-0.192631,-0.390328,0.728291
26,40,-0.567232,-0.698132,-0.174533,-0.174533,-0.572901,-0.694692,-0.161524,-0.198813,1.13378,-0.192631,-0.390329,0.728292
26,40,-0.567232,-0.698132,-0.174533,-0.174533,-0.572901,-0.694692,-0.161524,-0.198813,1.13378,-0.192631,-0.390331,0.728292
26,40,-0.567232,-0.698132,-0.174533,-0.174533,-0.572901,-0.694692,-0.161524,-0.198813,1.13378,-0.192631,-0.390332,0.728292
26,40,-0.567232,-0.698132,-0.174533,-0.174533,-0.572901,-0.694692,-0.161524,-0.198813,1.13378,-0.192631,-0.390333,0.728293
26,40,-0.567232,-0.698132,-0.174533,-0.174533,-0.572901,-0.694692,-0.161524,-0.198813,1.13378,-0.192631,-0.390335,0.728293
26,40,-0.567232,-0.698132,-0.174533,-0.174533,-0.572901,-0.694692,-0.161524,-0.198813,1.13378,-0.192631,-0.390336,0.728294
26,40,-0.567232,-0.698132,-0.174533,-0.174533,-0.572901,-0.694692,-0.161524,-0.198813,1.13378,-0.192631,-0.390337,0.728294
26,40,-0.567232,-0.698132,-0.174533,-0.174533,-0.572901,-0.694692,-0.161524,-0.198813,1.13378,-0.192631,-0.390338,0.728294
26,40,-0.567232,-0.698132,-0.174533,-0.174533,-0.572901,-0.694692,-0.161524,-0.198813,1.13378,-0.192631,-0.390339,0.728295
26,40,-0.567232,-0.698132,-0.174533,-0.174533,-0.572901,-0.694692,-0.161524,-0.198813,1.13378,-0.192631,-0.39034,0.728295
26,40,-0.567232,-0.698132,-0.174533,-0.174533,-0.572901,-0.694692,-0.161524,-0.198813,1.13378,-0.192631,-0.390341,0.728295
26,40,-0.567232,-0.698132,-0.174533,-0.174533,-0.572901,-0.694692,-0.161524,-0.198813,1.13378,-0.192631,-0.390342,0.728296
26,40,-0.567232,-0.698132,-0.174533,-0.174533,-0.572901,-0.694692,-0.161524,-0.198813,1.13378,-0.192631,-0.390343,0.728296
26,40,-0.567232,-0.698132,-0.174533,-0.174533,-0.572901,-0.694692,-0.161524,-0.198813,1.13378,-0.192631,-0.390344,0.728296
26,40,-0.567232,-0.698132,-0.174533,-0.174533,-0.572901,-0.694692,-0.161524,-0.198813,1.13378,-0.192631,-0.390345,0.728297
26,40,-0.567232,-0.698132,-0.174533,-0.174533,-0.572901,-0.694692,-0.161524,-0.198813,1.13378,-0.192631,-0.390346,0.728297
26,40,-0.567232,-0.698132,-0.174533,-0.174533,-0.572901,-0.694692,-0.161524,-0.198813,1.13378,-0.192631,-0.390347,0.728297
26,40,-0.567232,-0.698132,-0.174533,-0.174533,-0.572901,-0.694692,-0.161524,-0.198813,1.13378,-0.192631,-0.390348,0.728297
26,40,-0.567232,-0.698132,-0.174533,-0.174533,-0.572901,-0.694692,-0.161524,-0.198813,1.13378,-0.192631,-0.390349,0.728298
26,40,-0.567232,-0.698132,-0.174533,-0.174533,-0.572901,-0.694692,-0.161524,-0.198813,1.13378,-0.192631,-0.390349,0.728298
26,40,-0.567232,-0.698132,-0.174533,-0.174533,-0.572901,-0.694692,-0.161524,-0.198813,1.13378,-0.192631,-0.39035,0.728298
26,40,-0.567232,-0.698132,-0.174533,-0.174533,-0.572901,-0.694692,-0.161524,-0.198813,1.13378,-0.192631,-0.390351,0.728298
26,40,-0.567232,-0.698132,-0.174533,-0.174533,-0.572901,-0.694692,-0.161524,-0.198813,1.13378,-0.192631,-0.390351,0.728298
26,40,-0.567232,-0.698132,-0.174533,-0.174533,-0.572901,-0.694692,-0.161524,-0.198813,1.13378,-0.192631,-0.390352,0.728299
26,40,-0.567232,-0.698132,-0.174533,-0.174533,-0.572901,-0.694692,-0.161524,-0.198813,1.13378,-0.192631,-0.390353,0.728299
26,40,-0.567232,-0.698132,-0.174533,-0.174533,-0.572901,-0.694692,-0.161524,-0.198813,1.13378,-0.192631,-0.390353,0.728299
26,40,-0.567232,-0.698132,-0.174533,-0.174533,-0.572901,-0.694692,-0.161524,-0.198813,1.13378,-0.192631,-0.390354,0.728299
26,40,-0.567232,-0.698132,-0.174533,-0.174533,-0.572901,-0.694692,-0.161524,-0.198813,1.13378,-0.192631,-0.390355,0.728299
26,40,-0.567232,-0.698132,-0.174533,-0.174533,-0.572901,-0.694692,-0.161524,-0.198813,1.13378,-0.192631,-0.390355,0.7283
26,40,-0.567232,-0.698132,-0.174533,-0.174533,-0.572901,-0.694692,-0.161524,-0.198813,1.13378,-0.192631,-0.390356,0.7283
26,40,-0.567232,-0.698132,-0.174533,-0.174533,-0.572901,-0.694692,-0.161524,-0.198813,1.13378,-0.192631,-0.390356,0.7283
26,40,-0.567232,-0.698132,-0.174533,-0.174533,-0.572901,-0.694692,-0.161524,-0.198813,1.13378,-0.192631,-0.390357,0.7283
26,40,-0.567232,-0.698132,-0.174533,-0.174533,-0.572901,-0.694692,-0.161524,-0.198813,1.13378,-0.192631,-0.390358,0.7283
26,40,-0.567232,-0.698132,-0.174533,-0.174533,-0.572901,-0.694692,-0.161524,-0.198813,1.13378,-0.192631,-0.390358,0.7283
26,40,-0.567232,-0.698132,-0.174533,-0.174533,-0.572901,-0.694692,-0.161524,-0.198813,1.13378,-0.192631,-0.390359,0.728301
26,40,-0.567232,-0.698132,-0.174533,-0.174533,-0.572901,-0.694692,-0.161524,-0.198813,1.13378,-0.192631,-0.390359,0.728301
26,40,-0.567232,-0.698132,-0.174533,-0.174533,-0.572901,-0.694692,-0.161524,-0.198813,1.13378,-0.192631,-0.39036,0.728301
26,40,-0.567232,-0.698132,-0.174533,-0.174533,-0.572901,-0.694692,-0.161524,-0.198813,1.13378,-0.192631,-0.39036,0.728301
26,40,-0.567232,-0.698132,-0.174533,-0.174533,-0.572901,-0.694692,-0.161524,-0.198813,1.13378,-0.192631,-0.39036,0.728301
26,40,-0.567232,-0.698132,-0.174533,-0.174533,-0.572901,-0.694692,-0.161524,-0.198813,1.13378,-0.192631,-0.390361,0.728301
26,40,-0.567232,-0.698132,-0.174533,-0.174533,-0.572901,-0.694692,-0.161524,-0.198813,1.13378,-0.192631,-0.390361,0.728301
26,40,-0.567232,-0.698132,-0.174533,-0.174533,-0.572901,-0.694692,-0.161524,-0.198813,1.13378,-0.192631,-0.390362,0.728302
26,40,-0.567232,-0.698132,-0.174533,-0.174533,-0.572901,-0.694692,-0.161524,-0.198813,1.13378,-0.192631,-0.390362,0.728302
26,40,-0.567232,-0.698132,-0.174533,-0.174533,-0.572901,-0.694692,-0.161524,-0.198813,1.13378,-0.192631,-0.390363,0.728302
26,40,-0.567232,-0.698132,-0.174533,-0.174533,-0.572901,-0.694692,-0.161524,-0.198813,1.13378,-0.192631,-0.390363,0.728302
26,40,-0.567232,-0.698132,-0.174533,-0.174533,-0.572901,-0.694692,-0.161524,-0.198813,1.13378,-0.192631,-0.390363,0.728302
26,40,-0.567232,-0.698132,-0.174533,-0.174533,-0.572901,-0.694692,-0.161524,-0.198813,1.13378,-0.192631,-0.390364,0.728302
26,40,-0.567232,-0.698132,-0.174533,-0.174533,-0.572901,-0.694692,-0.161524,-0.198813,1.13378,-0.192631,-0.390364,0.728302
26,40,-0.567232,-0.698132,-0.174533,-0.174533,-0.572901,-0.694692,-0.161524,-0.198813,1.13378,-0.192631,-0.390365,0.728302
26,40,-0.567232,-0.698132,-0.174533,-0.174533,-0.572901,-0.694692,-0.161524,-0.198813,1.13378,-0.192631,-0.390365,0.728303
26,40,-0.567232,-0.698132,-0.174533,-0.174533,-0.572901,-0.694692,-0.161524,-0.198813,1.13378,-0.192631,-0.390365,0.728303
26,40,-0.567232,-0.698132,-0.174533,-0.174533,-0.572901,-0.694692,-0.161524,-0.198813,1.13378,-0.192631,-0.390366,0.728303
26,40,-0.567232,-0.698132,-0.174533,-0.174533,-0.572901,-0.694692,-0.161524,-0.198813,1.13378,-0.192631,-0.390366,0.728303
26,40,-0.567232,-0.698132,-0.174533,-0.174533,-0.572901,-0.694692,-0.161524,-0.198813,1.13378,-0.192631,-0.390366,0.728303
26,40,-0.567232,-0.698132,-0.174533,-0.174533,-0.572901,-0.694692,-0.161524,-0.198813,1.13378,-0.192631,-0.390367,0.728303
26,40,-0.567232,-0.698132,-0.174533,-0.174533,-0.572901,-0.694692,-0.161524,-0.198813,1.13378,-0.192631,-0.390367,0.728303
26,40,-0.567232,-0.698132,-0.174533,-0.174533,-0.572901,-0.694692,-0.161524,-0.198813,1.13378,-0.192631,-0.390367,0.728303
26,40,-0.567232,-0.698132,-0.174533,-0.174533,-0.572901,-0.694692,-0.161524,-0.198813,1.13378,-0.192631,-0.390368,0.728303
26,40,-0.567232,-0.698132,-0.174533,-0.174533,-0.572901,-0.694692,-0.161524,-0.198813,1.13378,-0.192631,-0.390368,0.728303
26,40,-0.567232,-0.698132,-0.174533,-0.174533,-0.572901,-0.694692,-0.161524,-0.198813,1.13378,-0.192631,-0.390368,0.728304
26,40,-0.567232,-0.698132,-0.174533,-0.174533,-0.572901,-0.694692,-0.161524,-0.198813,1.13378,-0.192631,-0.390369,0.728304
26,40,-0.567232,-0.698132,-0.174533,-0.174533,-0.572901,-0.694692,-0.161524,-0.198813,1.13378,-0.192631,-0.390369,0.728304
26,40,-0.567232,-0.698132,-0.174533,-0.174533,-0.572901,-0.694692,-0.161524,-0.198813,1.13378,-0.192631,-0.390369,0.728304
26,40,-0.567232,-0.698132,-0.174533,-0.174533,-0.572901,-0.694692,-0.161524,-0.198813,1.13378,-0.192631,-0.390369,0.728304
26,40,-0.567232,-0.698132,-0.174533,-0.174533,-0.572901,-0.694692,-0.161524,-0.198813,1.13378,-0.192631,-0.39037,0.728304
26,40,-0.567232,-0.698132,-0.174533,-0.174533,-0.572901,-0.694641,-0.161524,-0.198813,1.13378,-0.195543,-0.39037,0.728304
26,40,-0.567232,-0.698132,-0.174533,-0.174533,-0.572901,-0.694641,-0.161524,-0.198813,1.13378,-0.195543,-0.39037,0.728304
26,40,-0.567232,-0.698132,-0.174533,-0.174533,-0.572901,-0.694641,-0.161524,-0.198813,1.13378,-0.195543,-0.39037,0.728304
26,40,-0.567232,-0.698132,-0.174533,-0.174533,-0.572901,-0.694641,-0.161524,-0.198813,1.13378,-0.195543,-0.390371,0.728304
26,40,-0.567232,-0.698132,-0.174533,-0.174533,-0.572901,-0.694641,-0.161524,-0.198813,1.13378,-0.195543,-0.390371,0.728304
26,40,-0.567232,-0.698132,-0.174533,-0.174533,-0.572901,-0.694641,-0.161524,-0.198813,1.13378,-0.195543,-0.390371,0.728304
26,40,-0.567232,-0.698132,-0.174533,-0.174533,-0.572901,-0.694641,-0.161524,-0.198813,1.13378,-0.195543,-0.390371,0.728305
26,40,-0.567232,-0.698132,-0.174533,-0.174533,-0.572901,-0.694641,-0.161524,-0.198813,1.13378,-0.195543,-0.390372,0.728305
26,40,-0.567232,-0.698132,-0.174533,-0.174533,-0.572901,-0.694641,-0.161524,-0.198813,1.13378,-0.195543,-0.390372,0.728305
26,40,-0.567232,-0.698132,-0.174533,-0.174533,-0.572901,-0.694641,-0.161524,-0.198813,1.13378,-0.195543,-0.390372,0.728305
26,40,-0.567232,-0.698132,-0.174533,-0.174533,-0.572901,-0.694641,-0.161524,-0.198813,1.13378,-0.195543,-0.390372,0.728305
26,40,-0.567232,-0.698132,-0.174533,-0.174533,-0.572901,-0.694641,-0.161524,-0.198813,1.13378,-0.195543,-0.390373,0.728305
26,40,-0.567232,-0.698132,-0.174533,-0.174533,-0.572901,-0.694641,-0.161524,-0.198813,1.13378,-0.195543,-0.390373,0.728305
26,40,-0.567232,-0.698132,-0.174533,-0.174533,-0.572901,-0.694641,-0.161524,-0.198813,1.13378,-0.195543,-0.390373,0.728305
26,40,-0.567232,-0.698132,-0.174533,-0.174533,-0.572901,-0.694641,-0.161524,-0.198813,1.13378,-0.195543,-0.390373,0.728305
26,40,-0.567232,-0.698132,-0.174533,-0.174533,-0.572901,-0.694641,-0.161524,-0.198813,1.13378,-0.195543,-0.390373,0.728305
26,40,-0.567232,-0.698132,-0.174533,-0.174533,-0.572901,-0.694641,-0.161524,-0.198813,1.13378,-0.195543,-0.390374,0.728305
26,40,-0.567232,-0.698132,-0.174533,-0.174533,-0.572901,-0.694641,-0.161524,-0.198813,1.13378,-0.195543,-0.390374,0.728305
26,40,-0.567232,-0.698132,-0.174533,-0.174533,-0.572901,-0.694641,-0.161524,-0.198813,1.13378,-0.195543,-0.390374,0.728305
26,40,-0.567232,-0.698132,-0.174533,-0.174533,-0.572901,-0.694641,-0.161524,-0.198813,1.13378,-0.195543,-0.390374,0.728305
26,40,-0.567232,-0.698132,-0.174533,-0.174533,-0.572901,-0.694641,-0.161524,-0.198813,1.13378,-0.195543,-0.390374,0.728305
26,40,-0.567232,-0.698132,-0.174533,-0.174533,-0.572901,-0.694641,-0.161524,-0.198813,1.13378,-0.195543,-0.390375,0.728306
26,40,-0.567232,-0.698132,-0.174533,-0.174533,-0.572901,-0.694641,-0.161524,-0.198813,1.13378,-0.195543,-0.390375,0.728306
26,40,-0.567232,-0.698132,-0.174533,-0.174533,-0.572901,-0.694641,-0.161524,-0.198813,1.13378,-0.195543,-0.390375,0.728306
26,40,-0.567232,-0.698132,-0.174533,-0.174533,-0.572901,-0.694641,-0.161524,-0.198813,1.13378,-0.195543,-0.390375,0.728306
26,40,-0.567232,-0.698132,-0.174533,-0.174533,-0.572901,-0.694641,-0.161524,-0.198813,1.13378,-0.195543,-0.390375,0.728306
26,40,-0.567232,-0.698132,-0.174533,-0.174533,-0.572901,-0.694641,-0.161524,-0.198813,1.13378,-0.195543,-0.390376,0.728306
26,40,-0.567232,-0.698132,-0.174533,-0.174533,-0.572901,-0.694641,-0.161524,-0.198813,1.13378,-0.195543,-0.390376,0.728306
26,40,-0.567232,-0.698132,-0.174533,-0.174533,-0.572901,-0.694641,-0.161524,-0.198813,1.13378,-0.195543,-0.390376,0.728306
26,40,-0.567232,-0.698132,-0.174533,-0.174533,-0.572901,-0.694641,-0.161524,-0.198813,1.13378,-0.195543,-0.390376,0.728306
26,40,-0.567232,-0.698132,-0.174533,-0.174533,-0.572901,-0.694641,-0.161524,-0.198813,1.13378,-0.195543,-0.390376,0.728306
26,40,-0.567232,-0.698132,-0.174533,-0.174533,-0.572901,-0.694641,-0.161524,-0.198813,1.13378,-0.195543,-0.390376,0.728306
26,40,-0.567232,-0.698132,-0.174533,-0.174533,-0.572901,-0.694641,-0.161524,-0.198813,1.13378,-0.195543,-0.390377,0.728306
26,40,-0.567232,-0.698132,-0.174533,-0.174533,-0.572901,-0.694641,-0.161524,-0.198813,1.13378,-0.195543,-0.390377,0.728306
26,40,-0.567232,-0.698132,-0.174533,-0.174533,-0.572901,-0.694641,-0.161524,-0.198813,1.13378,-0.195543,-0.390377,0.728306
26,40,-0.567232,-0.698132,-0.174533,-0.174533,-0.572901,-0.694641,-0.161524,-0.198813,1.13378,-0.195543,-0.390377,0.728306
26,40,-0.567232,-0.698132,-0.174533,-0.174533,-0.572901,-0.694641,-0.161524,-0.198813,1.13378,-0.195543,-0.390377,0.728306
26,40,-0.567232,-0.698132,-0.174533,-0.174533,-0.572901,-0.694641,-0.161524,-0.198813,1.13378,-0.195543,-0.390377,0.728306
26,40,-0.567232,-0.698132,-0.174533,-0.174533,-0.572901,-0.694641,-0.161524,-0.198813,1.13378,-0.195543,-0.390377,0.728306
26,40,-0.567232,-0.698132,-0.174533,-0.174533,-0.572901,-0.694641,-0.161524,-0.198813,1.13378,-0.195543,-0.390378,0.728306
26,40,-0.567232,-0.698132,-0.174533,-0.174533,-0.572901,-0.694641,-0.161524,-0.198813,1.13378,-0.195543,-0.390378,0.728306
26,40,-0.567232,-0.698132,-0.174533,-0.174533,-0.572901,-0.694641,-0.161524,-0.198813,1.13378,-0.195543,-0.390378,0.728307
26,40,-0.567232,-0.698132,-0.174533,-0.174533,-0.572901,-0.694641,-0.161524,-0.198813,1.13378,-0.195543,-0.390378,0.728307
26,40,-0.567232,-0.698132,-0.174533,-0.174533,-0.572901,-0.694641,-0.161524,-0.198813,1.13378,-0.195543,-0.390378,0.728307
26,40,-0.567232,-0.698132,-0.174533,-0.174533,-0.572901,-0.694641,-0.161524,-0.198813,1.13378,-0.195543,-0.390378,0.728307
26,40,-0.567232,-0.698132,-0.174533,-0.174533,-0.572901,-0.694641,-0.161524,-0.198813,1.13378,-0.195543,-0.390378,0.728307
26,40,-0.567232,-0.698132,-0.174533,-0.174533,-0.572901,-0.694641,-0.161524,-0.198813,1.13378,-0.195543,-0.390379,0.728307
26,40,-0.567232,-0.698132,-0.174533,-0.174533,-0.572901,-0.694641,-0.161524,-0.198813,1.13378,-0.195543,-0.390379,0.728307
26,40,-0.567232,-0.698132,-0.174533,-0.174533,-0.572901,-0.694641,-0.161524,-0.198813,1.13378,-0.195543,-0.390379,0.728307
26,40,-0.567232,-0.698132,-0.174533,-0.174533,-0.572901,-0.694641,-0.161524,-0.198813,1.13378,-0.195543,-0.390379,0.728307
26,40,-0.567232,-0.698132,-0.174533,-0.174533,-0.572901,-0.694641,-0.161524,-0.198813,1.13378,-0.195543,-0.390379,0.728307
26,40,-0.567232,-0.698132,-0.174533,-0.174533,-0.572901,-0.694641,-0.161524,-0.198813,1.13378,-0.195543,-0.390379,0.728307
26,40,-0.567232,-0.698132,-0.174533,-0.174533,-0.572901,-0.694641,-0.161524,-0.198813,1.13378,-0.195543,-0.390379,0.728307
26,40,-0.567232,-0.698132,-0.174533,-0.174533,-0.572901,-0.694641,-0.161524,-0.198813,1.13378,-0.195543,-0.390379,0.728307
26,40,-0.567232,-0.698132,-0.174533,-0.174533,-0.572901,-0.694641,-0.161524,-0.198813,1.13378,-0.195543,-0.39038,0.728307
26,40,-0.567232,-0.698132,-0.174533,-0.174533,-0.572901,-0.694641,-0.161524,-0.198813,1.13378,-0.195543,-0.39038,0.728307
26,40,-0.567232,-0.698132,-0.174533,-0.174533,-0.572901,-0.694641,-0.161524,-0.198813,1.13378,-0.195543,-0.39038,0.728307
26,40,-0.567232,-0.698132,-0.174533,-0.174533,-0.572901,-0.694641,-0.161524,-0.198813,1.13378,-0.195543,-0.39038,0.728307
26,40,-0.567232,-0.698132,-0.174533,-0.174533,-0.572901,-0.694641,-0.161524,-0.198813,1.13378,-0.195543,-0.39038,0.728307
26,40,-0.567232,-0.698132,-0.174533,-0.174533,-0.572901,-0.694641,-0.161524,-0.198813,1.13378,-0.195543,-0.39038,0.728307
26,40,-0.567232,-0.698132,-0.174533,-0.174533,-0.572901,-0.694641,-0.161524,-0.198813,1.13378,-0.195543,-0.39038,0.728307
26,40,-0.567232,-0.698132,-0.174533,-0.174533,-0.572901,-0.694641,-0.161524,-0.198813,1.13378,-0.195543,-0.39038,0.728307
26,40,-0.567232,-0.698132,-0.174533,-0.174533,-0.572901,-0.694641,-0.161524,-0.198813,1.13378,-0.195543,-0.39038,0.728307
26,40,-0.567232,-0.698132,-0.174533,-0.174533,-0.572901,-0.694641,-0.161524,-0.198813,1.13378,-0.195543,-0.390381,0.728307
26,40,-0.567232,-0.698132,-0.174533,-0.174533,-0.572901,-0.694641,-0.161524,-0.198813,1.13378,-0.195543,-0.390381,0.728307
26,40,-0.567232,-0.698132,-0.174533,-0.174533,-0.572901,-0.694641,-0.161524,-0.198813,1.13378,-0.195543,-0.390381,0.728307
26,40,-0.567232,-0.698132,-0.174533,-0.174533,-0.572901,-0.694641,-0.161524,-0.198813,1.13378,-0.195543,-0.390381,0.728307
26,40,-0.567232,-0.698132,-0.174533,-0.174533,-0.572901,-0.694641,-0.161524,-0.198813,1.13378,-0.195543,-0.390381,0.728308
26,40,-0.567232,-0.698132,-0.174533,-0.174533,-0.572901,-0.694641,-0.161524,-0.198813,1.13378,-0.195543,-0.390381,0.728308
26,40,-0.567232,-0.698132,-0.174533,-0.174533,-0.572901,-0.694641,-0.161524,-0.198813,1.13378,-0.195543,-0.390381,0.728308
26,40,-0.567232,-0.698132,-0.174533,-0.174533,-0.572901,-0.694641,-0.161524,-0.198813,1.13378,-0.195543,-0.390381,0.728308
26,40,-0.567232,-0.698132,-0.174533,-0.174533,-0.572901,-0.694641,-0.161524,-0.198813,1.13378,-0.195543,-0.390381,0.728308
26,40,-0.567232,-0.698132,-0.174533,-0.174533,-0.572901,-0.694641,-0.161524,-0.198813,1.13378,-0.195543,-0.390382,0.728308
26,40,-0.567232,-0.698132,-0.174533,-0.174533,-0.572901,-0.694641,-0.161524,-0.198813,1.13378,-0.195543,-0.390382,0.728308
26,40,-0.567232,-0.698132,-0.174533,-0.174533,-0.572901,-0.694641,-0.161524,-0.198813,1.13378,-0.195543,-0.390382,0.728308
26,40,-0.567232,-0.698132,-0.174533,-0.174533,-0.572901,-0.694641,-0.161524,-0.198813,1.13378,-0.195543,-0.390382,0.728308
26,40,-0.567232,-0.698132,-0.174533,-0.174533,-0.572901,-0.694641,-0.161524,-0.198813,1.13378,-0.195543,-0.390382,0.728308
26,40,-0.567232,-0.698132,-0.174533,-0.174533,-0.572901,-0.694641,-0.161524,-0.198813,1.13378,-0.195543,-0.390382,0.728308
26,40,-0.567232,-0.698132,-0.174533,-0.174533,-0.572901,-0.694641,-0.161524,-0.198813,1.13378,-0.195543,-0.390247,0.728393
26,40,-0.567232,-0.698132,-0.174533,-0.174533,-0.572901,-0.694641,-0.161524,-0.198813,1.13378,-0.195543,-0.390247,0.728393
26,40,-0.567232,-0.698132,-0.174533,-0.174533,-0.572901,-0.694641,-0.161524,-0.198813,1.13378,-0.195543,-0.390247,0.728394
26,40,-0.567232,-0.698132,-0.174533,-0.174533,-0.572901,-0.694641,-0.161524,-0.198813,1.13378,-0.195543,-0.390247,0.728394
26,40,-0.567232,-0.698132,-0.174533,-0.174533,-0.572901,-0.694641,-0.161524,-0.198813,1.13378,-0.195543,-0.390247,0.728394
26,40,-0.567232,-0.698132,-0.174533,-0.174533,-0.572901,-0.694641,-0.161524,-0.198813,1.13378,-0.195543,-0.390247,0.728394
26,40,-0.567232,-0.698132,-0.174533,-0.174533,-0.572901,-0.694641,-0.161524,-0.198813,1.13378,-0.195543,-0.390247,0.728394
26,40,-0.567232,-0.698132,-0.174533,-0.174533,-0.572901,-0.694641,-0.161524,-0.198813,1.13378,-0.195543,-0.390247,0.728394
26,40,-0.567232,-0.698132,-0.174533,-0.174533,-0.572901,-0.694641,-0.161524,-0.198813,1.13378,-0.195543,-0.390248,0.728394
26,40,-0.567232,-0.698132,-0.174533,-0.174533,-0.572901,-0.694641,-0.161524,-0.198813,1.13378,-0.195543,-0.390248,0.728394
26,40,-0.567232,-0.698132,-0.174533,-0.174533,-0.572901,-0.694641,-0.161524,-0.198813,1.13378,-0.195543,-0.390248,0.728394
26,40,-0.567232,-0.698132,-0.174533,-0.174533,-0.572901,-0.694641,-0.161524,-0.198813,1.13378,-0.195543,-0.390248,0.728394
26,40,-0.567232,-0.698132,-0.174533,-0.174533,-0.572901,-0.694641,-0.161524,-0.198813,1.13378,-0.195543,-0.390248,0.728394
26,40,-0.567232,-0.698132,-0.174533,-0.174533,-0.572901,-0.694641,-0.161524,-0.198813,1.13378,-0.195543,-0.390248,0.728394
26,40,-0.567232,-0.698132,-0.174533,-0.174533,-0.572901,-0.694641,-0.161524,-0.198813,1.13378,-0.195543,-0.390248,0.728394
26,40,-0.567232,-0.698132,-0.174533,-0.174533,-0.572901,-0.694641,-0.161524,-0.198813,1.13378,-0.195543,-0.390248,0.728394
26,40,-0.567232,-0.698132,-0.174533,-0.174533,-0.572901,-0.694641,-0.161524,-0.198813,1.13378,-0.195543,-0.390248,0.728394
26,40,-0.567232,-0.698132,-0.174533,-0.174533,-0.572901,-0.694641,-0.161524,-0.198813,1.13378,-0.195543,-0.390248,0.728394
26,40,-0.567232,-0.698132,-0.174533,-0.174533,-0.572901,-0.694641,-0.161524,-0.198813,1.13378,-0.195543,-0.390248,0.728394
26,40,-0.567232,-0.698132,-0.174533,-0.174533,-0.572901,-0.694641,-0.161524,-0.198813,1.13378,-0.195543,-0.390248,0.728394
26,40,-0.567232,-0.698132,-0.174533,-0.174533,-0.572901,-0.694641,-0.161524,-0.198813,1.13378,-0.195543,-0.390264,0.728399
26,40,-0.567232,-0.698132,-0.174533,-0.174533,-0.572901,-0.694641,-0.161524,-0.198813,1.13378,-0.195543,-0.390264,0.728399
26,40,-0.567232,-0.698132,-0.174533,-0.174533,-0.572901,-0.694641,-0.161524,-0.198813,1.13378,-0.195543,-0.390264,0.728399
26,40,-0.567232,-0.698132,-0.174533,-0.174533,-0.572901,-0.694641,-0.161524,-0.198813,1.13378,-0.195543,-0.390264,0.728399
26,40,-0.567232,-0.698132,-0.174533,-0.174533,-0.572901,-0.694641,-0.161524,-0.198813,1.13378,-0.195543,-0.390264,0.728399
26,40,-0.567232,-0.698132,-0.174533,-0.174533,-0.572901,-0.694641,-0.161524,-0.198813,1.13378,-0.195543,-0.390264,0.728399
26,40,-0.567232,-0.698132,-0.174533,-0.174533,-0.572901,-0.694641,-0.161524,-0.198813,1.13378,-0.195543,-0.390264,0.728399
26,40,-0.567232,-0.698132,-0.174533,-0.174533,-0.572901,-0.694641,-0.161524,-0.198813,1.13378,-0.195543,-0.390264,0.728399
26,40,-0.567232,-0.698132,-0.174533,-0.174533,-0.572901,-0.694641,-0.161524,-0.198813,1.13378,-0.195543,-0.390264,0.728399
26,40,-0.567232,-0.698132,-0.174533,-0.174533,-0.572901,-0.694641,-0.161524,-0.198813,1.13378,-0.195543,-0.390264,0.728399
26,40,-0.567232,-0.698132,-0.174533,-0.174533,-0.572901,-0.694641,-0.161524,-0.198813,1.13378,-0.195543,-0.390264,0.728399
26,40,-0.567232,-0.698132,-0.174533,-0.174533,-0.572901,-0.694641,-0.161524,-0.198813,1.13378,-0.195543,-0.390264,0.728399
26,40,-0.567232,-0.698132,-0.174533,-0.174533,-0.572901,-0.694641,-0.161524,-0.198813,1.13378,-0.195543,-0.390264,0.728399
26,40,-0.567232,-0.698132,-0.174533,-0.174533,-0.572901,-0.694641,-0.161524,-0.198813,1.13378,-0.195543,-0.390264,0.728399
26,40,-0.567232,-0.698132,-0.174533,-0.174533,-0.572901,-0.694641,-0.161524,-0.198813,1.13378,-0.195543,-0.390264,0.728399
26,40,-0.567232,-0.698132,-0.174533,-0.174533,-0.572901,-0.694641,-0.161524,-0.198813,1.13378,-0.195543,-0.390264,0.728399
26,40,-0.567232,-0.698132,-0.174533,-0.174533,-0.572901,-0.694641,-0.161524,-0.198813,1.13378,-0.195543,-0.390264,0.728399
26,40,-0.567232,-0.698132,-0.174533,-0.174533,-0.572901,-0.694641,-0.161524,-0.198813,1.13378,-0.195543,-0.390264,0.728399
26,40,-0.567232,-0.698132,-0.174533,-0.174533,-0.572901,-0.694641,-0.161524,-0.198813,1.13378,-0.195543,-0.390264,0.728399
26,40,-0.567232,-0.698132,-0.174533,-0.174533,-0.572901,-0.694641,-0.161524,-0.198813,1.13378,-0.195543,-0.390264,0.728399
26,40,-0.567232,-0.698132,-0.174533,-0.174533,-0.572901,-0.694641,-0.161524,-0.198813,1.13378,-0.195543,-0.390264,0.728399
26,40,-0.567232,-0.698132,-0.174533,-0.174533,-0.572901,-0.694641,-0.161524,-0.198813,1.13378,-0.195543,-0.390264,0.728399
26,40,-0.567232,-0.698132,-0.174533,-0.174533,-0.572901,-0.694641,-0.161524,-0.198813,1.13378,-0.195543,-0.390264,0.728399
26,40,-0.567232,-0.698132,-0.174533,-0.174533,-0.572901,-0.694641,-0.161524,-0.198813,1.13378,-0.195543,-0.390264,0.728399
26,40,-0.567232,-0.698132,-0.174533,-0.174533,-0.572901,-0.694641,-0.161524,-0.198813,1.13378,-0.195543,-0.390264,0.728399
26,40,-0.567232,-0.698132,-0.174533,-0.174533,-0.572901,-0.694641,-0.161524,-0.198813,1.13378,-0.195543,-0.390264,0.728399
26,40,-0.567232,-0.698132,-0.174533,-0.174533,-0.572901,-0.694641,-0.161524,-0.198813,1.13378,-0.195543,-0.390264,0.728399
26,40,-0.567232,-0.698132,-0.174533,-0.174533,-0.572901,-0.694641,-0.161524,-0.198813,1.13378,-0.195543,-0.390264,0.728399
26,40,-0.567232,-0.698132,-0.174533,-0.174533,-0.572901,-0.694641,-0.161524,-0.198813,1.13378,-0.195543,-0.390264,0.728399
26,40,-0.567232,-0.698132,-0.174533,-0.174533,-0.572901,-0.694641,-0.161524,-0.198813,1.13378,-0.195543,-0.390264,0.728399
26,40,-0.567232,-0.698132,-0.174533,-0.174533,-0.572901,-0.694641,-0.161524,-0.198813,1.13378,-0.195543,-0.390264,0.728399
26,40,-0.567232,-0.698132,-0.174533,-0.174533,-0.572901,-0.694641,-0.161524,-0.198813,1.13378,-0.195543,-0.390264,0.728399
26,40,-0.567232,-0.698132,-0.174533,-0.174533,-0.572901,-0.694641,-0.161524,-0.198813,1.13378,-0.195543,-0.390264,0.728399
26,40,-0.567232,-0.698132,-0.174533,-0.174533,-0.572901,-0.694641,-0.161524,-0.198813,1.13378,-0.195543,-0.390264,0.728399
26,40,-0.567232,-0.698132,-0.174533,-0.174533,-0.572901,-0.694641,-0.161524,-0.198813,1.13378,-0.195543,-0.390264,0.728399
26,40,-0.567232,-0.698132,-0.174533,-0.174533,-0.572901,-0.694641,-0.161524,-0.198813,1.13378,-0.195543,-0.390264,0.728399
26,40,-0.567232,-0.698132,-0.174533,-0.174533,-0.572901,-0.694641,-0.161524,-0.198813,1.13378,-0.195543,-0.390264,0.728399
26,40,-0.567232,-0.698132,-0.174533,-0.174533,-0.572901,-0.694641,-0.161524,-0.198813,1.13378,-0.195543,-0.390264,0.728399
26,40,-0.567232,-0.698132,-0.174533,-0.174533,-0.572901,-0.694641,-0.161524,-0.198813,1.13378,-0.195543,-0.390264,0.728399
26,40,-0.567232,-0.698132,-0.174533,-0.174533,-0.572901,-0.694641,-0.161524,-0.198813,1.13378,-0.195543,-0.390264,0.728399
26,40,-0.567232,-0.698132,-0.174533,-0.174533,-0.572901,-0.694641,-0.161524,-0.198813,1.13378,-0.195543,-0.390264,0.728399
26,40,-0.567232,-0.698132,-0.174533,-0.174533,-0.572901,-0.694641,-0.161524,-0.198813,1.13378,-0.195543,-0.390264,0.728399
26,40,-0.567232,-0.698132,-0.174533,-0.174533,-0.572901,-0.694641,-0.161524,-0.198813,1.13378,-0.195543,-0.390264,0.728399
26,40,-0.567232,-0.698132,-0.174533,-0.174533,-0.572901,-0.694641,-0.161524,-0.198813,1.13378,-0.195543,-0.390264,0.728399
26,40,-0.567232,-0.698132,-0.174533,-0.174533,-0.572901,-0.694641,-0.161524,-0.198813,1.13378,-0.195543,-0.390264,0.728399
26,40,-0.567232,-0.698132,-0.174533,-0.174533,-0.572901,-0.694641,-0.161524,-0.198813,1.13378,-0.195543,-0.390264,0.728399
26,40,-0.567232,-0.698132,-0.174533,-0.174533,-0.572901,-0.69459,-0.161524,-0.198813,1.13378,-0.198362,-0.390264,0.728399
26,40,-0.567232,-0.698132,-0.174533,-0.174533,-0.572901,-0.69459,-0.161524,-0.198813,1.13378,-0.198362,-0.390264,0.728399
26,40,-0.567232,-0.698132,-0.174533,-0.174533,-0.572901,-0.69459,-0.161524,-0.198813,1.13378,-0.198362,-0.390264,0.728399
26,40,-0.567232,-0.698132,-0.174533,-0.174533,-0.572901,-0.69459,-0.161524,-0.198813,1.13378,-0.198362,-0.390264,0.728399
26,40,-0.567232,-0.698132,-0.174533,-0.174533,-0.572901,-0.69459,-0.161524,-0.198813,1.13378,-0.198362,-0.390264,0.728399
26,40,-0.567232,-0.698132,-0.174533,-0.174533,-0.572901,-0.69459,-0.161524,-0.198813,1.13378,-0.198362,-0.390264,0.728399
26,40,-0.567232,-0.698132,-0.174533,-0.174533,-0.572901,-0.69459,-0.161524,-0.198813,1.13378,-0.198362,-0.390264,0.728399
26,40,-0.567232,-0.698132,-0.174533,-0.174533,-0.572901,-0.69459,-0.161524,-0.198813,1.13378,-0.198362,-0.390264,0.728399
26,40,-0.567232,-0.698132,-0.174533,-0.174533,-0.572901,-0.69459,-0.161524,-0.198813,1.13378,-0.198362,-0.390264,0.728399
26,40,-0.567232,-0.698132,-0.174533,-0.174533,-0.572901,-0.69459,-0.161524,-0.198813,1.13378,-0.198362,-0.390264,0.728399
26,40,-0.567232,-0.698132,-0.174533,-0.174533,-0.572901,-0.69459,-0.161524,-0.198813,1.13378,-0.198362,-0.390264,0.728399
26,40,-0.567232,-0.698132,-0.174533,-0.174533,-0.572901,-0.69459,-0.161524,-0.198813,1.13378,-0.198362,-0.390264,0.728399
26,40,-0.567232,-0.698132,-0.174533,-0.174533,-0.572901,-0.69459,-0.161524,-0.198813,1.13378,-0.198362,-0.390264,0.728399
26,40,-0.567232,-0.698132,-0.174533,-0.174533,-0.572901,-0.69459,-0.161524,-0.198813,1.13378,-0.198362,-0.390264,0.728399
26,40,-0.567232,-0.698132,-0.174533,-0.174533,-0.572901,-0.69459,-0.161524,-0.198813,1.13378,-0.198362,-0.390264,0.728399
26,40,-0.567232,-0.698132,-0.174533,-0.174533,-0.572901,-0.69459,-0.161524,-0.198813,1.13378,-0.198362,-0.390264,0.728399
26,40,-0.567232,-0.698132,-0.174533,-0.174533,-0.572901,-0.69459,-0.161524,-0.198813,1.13378,-0.198362,-0.390264,0.728399
26,40,-0.567232,-0.698132,-0.174533,-0.174533,-0.572901,-0.69459,-0.161524,-0.198813,1.13378,-0.198362,-0.390264,0.728399
26,40,-0.567232,-0.698132,-0.174533,-0.174533,-0.572901,-0.69459,-0.161524,-0.198813,1.13378,-0.198362,-0.390264,0.728399
26,40,-0.567232,-0.698132,-0.174533,-0.174533,-0.572901,-0.69459,-0.161524,-0.198813,1.13378,-0.198362,-0.390264,0.728399
26,40,-0.567232,-0.698132,-0.174533,-0.174533,-0.572901,-0.69459,-0.161524,-0.198813,1.13378,-0.198362,-0.390264,0.728399
26,40,-0.567232,-0.698132,-0.174533,-0.174533,-0.572901,-0.69459,-0.161524,-0.198813,1.13378,-0.198362,-0.390264,0.728399
26,40,-0.567232,-0.698132,-0.174533,-0.174533,-0.572901,-0.69459,-0.161524,-0.198813,1.13378,-0.198362,-0.390264,0.728399
26,40,-0.567232,-0.698132,-0.174533,-0.174533,-0.572901,-0.69459,-0.161524,-0.198813,1.13378,-0.198362,-0.390264,0.728399
26,40,-0.567232,-0.698132,-0.174533,-0.174533,-0.572901,-0.69459,-0.161524,-0.198813,1.13378,-0.198362,-0.390264,0.728399
26,40,-0.567232,-0.698132,-0.174533,-0.174533,-0.572901,-0.69459,-0.161524,-0.198813,1.13378,-0.198362,-0.390264,0.728399
26,40,-0.567232,-0.698132,-0.174533,-0.174533,-0.572901,-0.69459,-0.161524,-0.198813,1.13378,-0.198362,-0.390264,0.728399
26,40,-0.567232,-0.698132,-0.174533,-0.174533,-0.572901,-0.69459,-0.161524,-0.198813,1.13378,-0.198362,-0.390264,0.728399
26,40,-0.567232,-0.698132,-0.174533,-0.174533,-0.572901,-0.69459,-0.161524,-0.198813,1.13378,-0.198362,-0.390264,0.728399
26,40,-0.567232,-0.698132,-0.174533,-0.174533,-0.572901,-0.69459,-0.161524,-0.198813,1.13378,-0.198362,-0.390264,0.728399
26,40,-0.567232,-0.698132,-0.174533,-0.174533,-0.572901,-0.69459,-0.161524,-0.198813,1.13378,-0.198362,-0.390264,0.728399
26,40,-0.567232,-0.698132,-0.174533,-0.174533,-0.572901,-0.69459,-0.161524,-0.198813,1.13378,-0.198362,-0.390264,0.728399
26,40,-0.567232,-0.698132,-0.174533,-0.174533,-0.572901,-0.69459,-0.161524,-0.198813,1.13378,-0.198362,-0.390264,0.728399
26,40,-0.567232,-0.698132,-0.174533,-0.174533,-0.572901,-0.69459,-0.161524,-0.198813,1.13378,-0.198362,-0.390264,0.728399
26,40,-0.567232,-0.698132,-0.174533,-0.174533,-0.572901,-0.69459,-0.161524,-0.198813,1.13378,-0.198362,-0.390264,0.728399
26,40,-0.567232,-0.698132,-0.174533,-0.174533,-0.572901,-0.69459,-0.161524,-0.198813,1.13378,-0.198362,-0.390264,0.728399
26,40,-0.567232,-0.698132,-0.174533,-0.174533,-0.572901,-0.69459,-0.161524,-0.198813,1.13378,-0.198362,-0.390264,0.728399
26,40,-0.567232,-0.698132,-0.174533,-0.174533,-0.572901,-0.69459,-0.161524,-0.198813,1.13378,-0.198362,-0.390264,0.728399
26,40,-0.567232,-0.698132,-0.174533,-0.174533,-0.572901,-0.69459,-0.161524,-0.198813,1.13378,-0.198362,-0.390264,0.728399
26,40,-0.567232,-0.698132,-0.174533,-0.174533,-0.572901,-0.69459,-0.161524,-0.198813,1.13378,-0.198362,-0.390264,0.728399
26,40,-0.567232,-0.698132,-0.174533,-0.174533,-0.572901,-0.69459,-0.161524,-0.198813,1.13378,-0.198362,-0.390264,0.728399
26,40,-0.567232,-0.698132,-0.174533,-0.174533,-0.572901,-0.69459,-0.161524,-0.198813,1.13378,-0.198362,-0.390264,0.728399
26,40,-0.567232,-0.698132,-0.174533,-0.174533,-0.572901,-0.69459,-0.161524,-0.198813,1.13378,-0.198362,-0.390264,0.728399
26,40,-0.567232,-0.698132,-0.174533,-0.174533,-0.572901,-0.69459,-0.161524,-0.198813,1.13378,-0.198362,-0.390264,0.728399
26,40,-0.567232,-0.698132,-0.174533,-0.174533,-0.572901,-0.69459,-0.161524,-0.198813,1.13378,-0.198362,-0.390264,0.728399
26,40,-0.567232,-0.698132,-0.174533,-0.174533,-0.572901,-0.69459,-0.161524,-0.198813,1.13378,-0.198362,-0.390264,0.728399
26,40,-0.567232,-0.698132,-0.174533,-0.174533,-0.572901,-0.69459,-0.161524,-0.198813,1.13378,-0.198362,-0.390264,0.728399
26,40,-0.567232,-0.698132,-0.174533,-0.174533,-0.572901,-0.69459,-0.161524,-0.198813,1.13378,-0.198362,-0.390264,0.728399
26,40,-0.567232,-0.698132,-0.174533,-0.174533,-0.572901,-0.69459,-0.161524,-0.198813,1.13378,-0.198362,-0.390264,0.728399
26,40,-0.567232,-0.698132,-0.174533,-0.174533,-0.572901,-0.69459,-0.161524,-0.198813,1.13378,-0.198362,-0.390264,0.728399
26,40,-0.567232,-0.698132,-0.174533,-0.174533,-0.572901,-0.69459,-0.161524,-0.198813,1.13378,-0.198362,-0.390264,0.728399
26,40,-0.567232,-0.698132,-0.174533,-0.174533,-0.572901,-0.69459,-0.161524,-0.198813,1.13378,-0.198362,-0.390264,0.728399
26,40,-0.567232,-0.698132,-0.174533,-0.174533,-0.572901,-0.69459,-0.161524,-0.198813,1.13378,-0.198362,-0.390264,0.728399
26,40,-0.567232,-0.698132,-0.174533,-0.174533,-0.572901,-0.69459,-0.161524,-0.198813,1.13378,-0.198362,-0.390264,0.728399
26,40,-0.567232,-0.698132,-0.174533,-0.174533,-0.572901,-0.69459,-0.161524,-0.198813,1.13378,-0.198362,-0.390264,0.728399
26,40,-0.567232,-0.698132,-0.174533,-0.174533,-0.572901,-0.69459,-0.161524,-0.198813,1.13378,-0.198362,-0.390264,0.728399
26,40,-0.567232,-0.698132,-0.174533,-0.174533,-0.572901,-0.69459,-0.161524,-0.198813,1.13378,-0.198362,-0.390264,0.728399
26,40,-0.567232,-0.698132,-0.174533,-0.174533,-0.572901,-0.69459,-0.161524,-0.198813,1.13378,-0.198362,-0.390264,0.728399
26,40,-0.567232,-0.698132,-0.174533,-0.174533,-0.572901,-0.69459,-0.161524,-0.198813,1.13378,-0.198362,-0.390264,0.728399
26,40,-0.567232,-0.698132,-0.174533,-0.174533,-0.572901,-0.69459,-0.161524,-0.198813,1.13378,-0.198362,-0.390264,0.728399
26,40,-0.567232,-0.698132,-0.174533,-0.174533,-0.572901,-0.69459,-0.161524,-0.198813,1.13378,-0.198362,-0.390264,0.728399
26,40,-0.567232,-0.698132,-0.174533,-0.174533,-0.572901,-0.69459,-0.161524,-0.198813,1.13378,-0.198362,-0.390264,0.728399
26,40,-0.567232,-0.698132,-0.174533,-0.174533,-0.572901,-0.69459,-0.161524,-0.198813,1.13378,-0.198362,-0.390264,0.728399
26,40,-0.567232,-0.698132,-0.174533,-0.174533,-0.572901,-0.69459,-0.161524,-0.198813,1.13378,-0.198362,-0.390264,0.728399
26,40,-0.567232,-0.698132,-0.174533,-0.174533,-0.572901,-0.69459,-0.161524,-0.198813,1.13378,-0.198362,-0.390264,0.728399
26,40,-0.567232,-0.698132,-0.174533,-0.174533,-0.572901,-0.69459,-0.161524,-0.198813,1.13378,-0.198362,-0.390264,0.728399
26,40,-0.567232,-0.698132,-0.174533,-0.174533,-0.572901,-0.69459,-0.161524,-0.198813,1.13378,-0.198362,-0.390264,0.728399
26,40,-0.567232,-0.698132,-0.174533,-0.174533,-0.572901,-0.69459,-0.161524,-0.198813,1.13378,-0.198362,-0.390264,0.728399
26,40,-0.567232,-0.698132,-0.174533,-0.174533,-0.572901,-0.69459,-0.161524,-0.198813,1.13378,-0.198362,-0.390264,0.728399
26,40,-0.567232,-0.698132,-0.174533,-0.174533,-0.572901,-0.69459,-0.161524,-0.198813,1.13378,-0.198362,-0.390264,0.728399
26,40,-0.567232,-0.698132,-0.174533,-0.174533,-0.572901,-0.69459,-0.161524,-0.198813,1.13378,-0.198362,-0.390264,0.728399
26,40,-0.567232,-0.698132,-0.174533,-0.174533,-0.572901,-0.69459,-0.161524,-0.198813,1.13378,-0.198362,-0.390264,0.728399
26,40,-0.567232,-0.698132,-0.174533,-0.174533,-0.572901,-0.69459,-0.161524,-0.198813,1.13378,-0.198362,-0.390264,0.728399
26,40,-0.567232,-0.698132,-0.174533,-0.174533,-0.572901,-0.69459,-0.161524,-0.198813,1.13378,-0.198362,-0.390264,0.728399
26,40,-0.567232,-0.698132,-0.174533,-0.174533,-0.572901,-0.69459,-0.161524,-0.198813,1.13378,-0.198362,-0.390264,0.728399
26,40,-0.567232,-0.698132,-0.174533,-0.174533,-0.572901,-0.69459,-0.161524,-0.198813,1.13378,-0.198362,-0.390264,0.728399
26,40,-0.567232,-0.698132,-0.174533,-0.174533,-0.572901,-0.69459,-0.161524,-0.198813,1.13378,-0.198362,-0.390264,0.728399
26,40,-0.567232,-0.698132,-0.174533,-0.174533,-0.572901,-0.69459,-0.161524,-0.198813,1.13378,-0.198362,-0.390264,0.728399
26,40,-0.567232,-0.698132,-0.174533,-0.174533,-0.572901,-0.69459,-0.161524,-0.198813,1.13378,-0.198362,-0.390264,0.728399
26,40,-0.567232,-0.698132,-0.174533,-0.174533,-0.572901,-0.69459,-0.161524,-0.198813,1.13378,-0.198362,-0.390264,0.728399
26,40,-0.567232,-0.698132,-0.174533,-0.174533,-0.572901,-0.69459,-0.161524,-0.198813,1.13378,-0.198362,-0.390264,0.728399
26,40,-0.567232,-0.698132,-0.174533,-0.174533,-0.572901,-0.69459,-0.161524,-0.198813,1.13378,-0.198362,-0.390264,0.728399
26,40,-0.567232,-0.698132,-0.174533,-0.174533,-0.572901,-0.69459,-0.161524,-0.198813,1.13378,-0.198362,-0.390264,0.728399
26,40,-0.567232,-0.698132,-0.174533,-0.174533,-0.572901,-0.69459,-0.161524,-0.198813,1.13378,-0.198362,-0.390264,0.728399
26,40,-0.567232,-0.698132,-0.174533,-0.174533,-0.572901,-0.69459,-0.161524,-0.198813,1.13378,-0.198362,-0.390264,0.728399
26,40,-0.567232,-0.698132,-0.174533,-0.174533,-0.572901,-0.694539,-0.161524,-0.198813,1.13378,-0.201441,-0.390264,0.728399
26,40,-0.567232,-0.698132,-0.174533,-0.174533,-0.572901,-0.694539,-0.161524,-0.198813,1.13378,-0.201441,-0.390264,0.728399
26,40,-0.567232,-0.698132,-0.174533,-0.174533,-0.572901,-0.694539,-0.161524,-0.198813,1.13378,-0.201441,-0.390264,0.728399
26,40,-0.567232,-0.698132,-0.174533,-0.174533,-0.572901,-0.694539,-0.161524,-0.198813,1.13378,-0.201441,-0.390264,0.728399
26,40,-0.567232,-0.698132,-0.174533,-0.174533,-0.572901,-0.694539,-0.161524,-0.198813,1.13378,-0.201441,-0.390264,0.728399
26,40,-0.567232,-0.698132,-0.174533,-0.174533,-0.572901,-0.694539,-0.161524,-0.198813,1.13378,-0.201441,-0.390264,0.728399
26,40,-0.567232,-0.698132,-0.174533,-0.174533,-0.572901,-0.694539,-0.161524,-0.198813,1.13378,-0.201441,-0.390264,0.728399
26,40,-0.567232,-0.698132,-0.174533,-0.174533,-0.572901,-0.694539,-0.161524,-0.198813,1.13378,-0.201441,-0.390264,0.728399
26,40,-0.567232,-0.698132,-0.174533,-0.174533,-0.572901,-0.694539,-0.161524,-0.198813,1.13378,-0.201441,-0.390264,0.728399
26,40,-0.567232,-0.698132,-0.174533,-0.174533,-0.572901,-0.694539,-0.161524,-0.198813,1.13378,-0.201441,-0.390264,0.728399
26,40,-0.567232,-0.698132,-0.174533,-0.174533,-0.572901,-0.694539,-0.161524,-0.198813,1.13378,-0.201441,-0.390264,0.728399
26,40,-0.567232,-0.698132,-0.174533,-0.174533,-0.572901,-0.694539,-0.161462,-0.198832,1.13378,-0.201441,-0.392124,0.728969
26,40,-0.567232,-0.698132,-0.174533,-0.174533,-0.572901,-0.694539,-0.161462,-0.198832,1.13378,-0.201441,-0.392124,0.728969
26,40,-0.567232,-0.698132,-0.174533,-0.174533,-0.572901,-0.694539,-0.161462,-0.198832,1.13378,-0.201441,-0.392124,0.728969
26,40,-0.567232,-0.698132,-0.174533,-0.174533,-0.572901,-0.694539,-0.161462,-0.198832,1.13378,-0.201441,-0.392124,0.728969
26,40,-0.567232,-0.698132,-0.174533,-0.174533,-0.572901,-0.694539,-0.161462,-0.198832,1.13378,-0.201441,-0.392124,0.728969
26,40,-0.567232,-0.698132,-0.174533,-0.174533,-0.572901,-0.694539,-0.161462,-0.198832,1.13378,-0.201441,-0.392124,0.728969
26,40,-0.567232,-0.698132,-0.174533,-0.174533,-0.572901,-0.694539,-0.161462,-0.198832,1.13378,-0.201441,-0.392124,0.728969
26,40,-0.567232,-0.698132,-0.174533,-0.174533,-0.572901,-0.694539,-0.161462,-0.198832,1.13378,-0.201441,-0.392124,0.728969
26,40,-0.567232,-0.698132,-0.174533,-0.174533,-0.572901,-0.694539,-0.161462,-0.198832,1.13378,-0.201441,-0.392124,0.728969
26,40,-0.567232,-0.698132,-0.174533,-0.174533,-0.572901,-0.694539,-0.161462,-0.198832,1.13378,-0.201441,-0.392124,0.728969
26,40,-0.567232,-0.698132,-0.174533,-0.174533,-0.572901,-0.694539,-0.161394,-0.198789,1.13378,-0.201441,-0.39418,0.727668
26,40,-0.567232,-0.698132,-0.174533,-0.174533,-0.572901,-0.694539,-0.161394,-0.198789,1.13378,-0.201441,-0.39418,0.727668
26,40,-0.567232,-0.698132,-0.174533,-0.174533,-0.572901,-0.694539,-0.161332,-0.198808,1.13378,-0.201441,-0.396029,0.728234
26,40,-0.567232,-0.698132,-0.174533,-0.174533,-0.572901,-0.694539,-0.161332,-0.198808,1.13378,-0.201441,-0.396029,0.728234
26,40,-0.567232,-0.698132,-0.174533,-0.174533,-0.572901,-0.694539,-0.161332,-0.198808,1.13378,-0.201441,-0.396029,0.728234
26,40,-0.567232,-0.698132,-0.174533,-0.174533,-0.572901,-0.694539,-0.161332,-0.198808,1.13378,-0.201441,-0.396029,0.728234
26,40,-0.567232,-0.698132,-0.174533,-0.174533,-0.572901,-0.694539,-0.161332,-0.198808,1.13378,-0.201441,-0.396029,0.728234
26,40,-0.567232,-0.698132,-0.174533,-0.174533,-0.572901,-0.694539,-0.161332,-0.198808,1.13378,-0.201441,-0.396029,0.728234
26,40,-0.567232,-0.698132,-0.174533,-0.174533,-0.572901,-0.694539,-0.161332,-0.198808,1.13378,-0.201441,-0.396029,0.728234
26,40,-0.567232,-0.698132,-0.174533,-0.174533,-0.572901,-0.694539,-0.161332,-0.198808,1.13378,-0.201441,-0.396029,0.728234
26,40,-0.567232,-0.698132,-0.174533,-0.174533,-0.572901,-0.694539,-0.161332,-0.198808,1.13378,-0.201441,-0.396029,0.728234
26,40,-0.567232,-0.698132,-0.174533,-0.174533,-0.572901,-0.694539,-0.161332,-0.198808,1.13378,-0.201441,-0.396029,0.728234
26,40,-0.567232,-0.698132,-0.174533,-0.174533,-0.572901,-0.694539,-0.161332,-0.198808,1.13378,-0.201441,-0.396029,0.728234
26,40,-0.567232,-0.698132,-0.174533,-0.174533,-0.572901,-0.694539,-0.161336,-0.198867,1.13378,-0.201441,-0.39593,0.730031
26,40,-0.567232,-0.698132,-0.174533,-0.174533,-0.572901,-0.694539,-0.161336,-0.198867,1.13378,-0.201441,-0.39593,0.730031
26,40,-0.567232,-0.698132,-0.174533,-0.174533,-0.572901,-0.694539,-0.161336,-0.198867,1.13378,-0.201441,-0.39593,0.730031
26,40,-0.567232,-0.698132,-0.174533,-0.174533,-0.572901,-0.694539,-0.161268,-0.198824,1.13378,-0.201441,-0.397975,0.728737
26,40,-0.567232,-0.698132,-0.174533,-0.174533,-0.572901,-0.694539,-0.161268,-0.198824,1.13378,-0.201441,-0.397975,0.728737
26,40,-0.567232,-0.698132,-0.174533,-0.174533,-0.572901,-0.694539,-0.161268,-0.198824,1.13378,-0.201441,-0.397975,0.728737
26,40,-0.567232,-0.698132,-0.174533,-0.174533,-0.572901,-0.694539,-0.161268,-0.198824,1.13378,-0.201441,-0.397975,0.728737
26,40,-0.567232,-0.698132,-0.174533,-0.174533,-0.572901,-0.694539,-0.161268,-0.198824,1.13378,-0.201441,-0.397975,0.728737
26,40,-0.567232,-0.698132,-0.174533,-0.174533,-0.572901,-0.694539,-0.161268,-0.198824,1.13378,-0.201441,-0.397975,0.728737
26,40,-0.567232,-0.698132,-0.174533,-0.174533,-0.572901,-0.694539,-0.161268,-0.198824,1.13378,-0.201441,-0.397975,0.728737
26,40,-0.567232,-0.698132,-0.174533,-0.174533,-0.572901,-0.694539,-0.161268,-0.198824,1.13378,-0.201441,-0.397975,0.728737
26,40,-0.567232,-0.698132,-0.174533,-0.174533,-0.572901,-0.694539,-0.161268,-0.198824,1.13378,-0.201441,-0.397975,0.728737
26,40,-0.567232,-0.698132,-0.174533,-0.174533,-0.572901,-0.694539,-0.161271,-0.198884,1.13378,-0.201441,-0.397877,0.73053
26,40,-0.567232,-0.698132,-0.174533,-0.174533,-0.572901,-0.694539,-0.161271,-0.198884,1.13378,-0.201441,-0.397877,0.73053
26,40,-0.567232,-0.698132,-0.174533,-0.174533,-0.572901,-0.694539,-0.161271,-0.198884,1.13378,-0.201441,-0.397877,0.73053
26,40,-0.567232,-0.698132,-0.174533,-0.174533,-0.572901,-0.694539,-0.161271,-0.198884,1.13378,-0.201441,-0.397877,0.73053
26,40,-0.567232,-0.698132,-0.174533,-0.174533,-0.572901,-0.694539,-0.161271,-0.198884,1.13378,-0.201441,-0.397877,0.73053
26,40,-0.567232,-0.698132,-0.174533,-0.174533,-0.572901,-0.694539,-0.161271,-0.198884,1.13378,-0.201441,-0.397877,0.73053
26,40,-0.567232,-0.698132,-0.174533,-0.174533,-0.572901,-0.694539,-0.161271,-0.198884,1.13378,-0.201441,-0.397877,0.73053
26,40,-0.567232,-0.698132,-0.174533,-0.174533,-0.572901,-0.694539,-0.161271,-0.198884,1.13378,-0.201441,-0.397877,0.73053
26,40,-0.567232,-0.698132,-0.174533,-0.174533,-0.572901,-0.694539,-0.161271,-0.198884,1.13378,-0.201441,-0.397877,0.73053
26,40,-0.567232,-0.698132,-0.174533,-0.174533,-0.572901,-0.694539,-0.161271,-0.198884,1.13378,-0.201441,-0.397877,0.73053
26,40,-0.567232,-0.698132,-0.174533,-0.174533,-0.572901,-0.694539,-0.161271,-0.198884,1.13378,-0.201441,-0.397877,0.73053
26,40,-0.567232,-0.698132,-0.174533,-0.174533,-0.572901,-0.694539,-0.161271,-0.198884,1.13378,-0.201441,-0.397877,0.73053
26,40,-0.567232,-0.698132,-0.174533,-0.174533,-0.572901,-0.694539,-0.161274,-0.198944,1.13378,-0.201441,-0.397775,0.732372
26,40,-0.567232,-0.698132,-0.174533,-0.174533,-0.572901,-0.694539,-0.161274,-0.198944,1.13378,-0.201441,-0.397775,0.732372
26,40,-0.567232,-0.698132,-0.174533,-0.174533,-0.572901,-0.694539,-0.161274,-0.198944,1.13378,-0.201441,-0.397775,0.732372
26,40,-0.567232,-0.698132,-0.174533,-0.174533,-0.572901,-0.694539,-0.161274,-0.198944,1.13378,-0.201441,-0.397775,0.732372
26,40,-0.567232,-0.698132,-0.174533,-0.174533,-0.572901,-0.694539,-0.161274,-0.198944,1.13378,-0.201441,-0.397775,0.732372
26,40,-0.567232,-0.698132,-0.174533,-0.174533,-0.572901,-0.694539,-0.161274,-0.198944,1.13378,-0.201441,-0.397775,0.732372
26,40,-0.567232,-0.698132,-0.174533,-0.174533,-0.572901,-0.694539,-0.161274,-0.198944,1.13378,-0.201441,-0.397775,0.732372
26,40,-0.567232,-0.698132,-0.174533,-0.174533,-0.572901,-0.694539,-0.161274,-0.198944,1.13378,-0.201441,-0.397775,0.732372
26,40,-0.567232,-0.698132,-0.174533,-0.174533,-0.572901,-0.694539,-0.161277,-0.199003,1.13378,-0.201441,-0.39767,0.734277
26,40,-0.567232,-0.698132,-0.174533,-0.174533,-0.572901,-0.694539,-0.161277,-0.199003,1.13378,-0.201441,-0.39767,0.734277
26,40,-0.567232,-0.698132,-0.174533,-0.174533,-0.572901,-0.694539,-0.161277,-0.199003,1.13378,-0.201441,-0.39767,0.734277
26,40,-0.567232,-0.698132,-0.174533,-0.174533,-0.572901,-0.694539,-0.161277,-0.199003,1.13378,-0.201441,-0.39767,0.734277
26,40,-0.567232,-0.698132,-0.174533,-0.174533,-0.572901,-0.694539,-0.161277,-0.199003,1.13378,-0.201441,-0.39767,0.734277
26,40,-0.567232,-0.698132,-0.174533,-0.174533,-0.572901,-0.694539,-0.161277,-0.199003,1.13378,-0.201441,-0.39767,0.734277
26,40,-0.567232,-0.698132,-0.174533,-0.174533,-0.572901,-0.694539,-0.161277,-0.199003,1.13378,-0.201441,-0.39767,0.734277
26,40,-0.567232,-0.698132,-0.174533,-0.174533,-0.572901,-0.694539,-0.161277,-0.199003,1.13378,-0.201441,-0.39767,0.734277
26,40,-0.567232,-0.698132,-0.174533,-0.174533,-0.572901,-0.694539,-0.161277,-0.199003,1.13378,-0.201441,-0.39767,0.734277
26,40,-0.567232,-0.698132,-0.174533,-0.174533,-0.572901,-0.694539,-0.161277,-0.199003,1.13378,-0.201441,-0.39767,0.734277
26,40,-0.567232,-0.698132,-0.174533,-0.174533,-0.572901,-0.694539,-0.161277,-0.199003,1.13378,-0.201441,-0.39767,0.734277
26,40,-0.567232,-0.698132,-0.174533,-0.174533,-0.572901,-0.694539,-0.161277,-0.199003,1.13378,-0.201441,-0.39767,0.734277
26,40,-0.567232,-0.698132,-0.174533,-0.174533,-0.572901,-0.694539,-0.161277,-0.199003,1.13378,-0.201441,-0.39767,0.734277
26,40,-0.567232,-0.698132,-0.174533,-0.174533,-0.572901,-0.694539,-0.161281,-0.199063,1.13378,-0.201441,-0.397575,0.73601
26,40,-0.567232,-0.698132,-0.174533,-0.174533,-0.572901,-0.694539,-0.161281,-0.199063,1.13378,-0.201441,-0.397575,0.73601
26,40,-0.567232,-0.698132,-0.174533,-0.174533,-0.572901,-0.694539,-0.161281,-0.199063,1.13378,-0.201441,-0.397575,0.73601
26,40,-0.567232,-0.698132,-0.174533,-0.174533,-0.572901,-0.694539,-0.161281,-0.199063,1.13378,-0.201441,-0.397575,0.73601
26,40,-0.567232,-0.698132,-0.174533,-0.174533,-0.572901,-0.694539,-0.161281,-0.199063,1.13378,-0.201441,-0.397575,0.73601
26,40,-0.567232,-0.698132,-0.174533,-0.174533,-0.572901,-0.694539,-0.161281,-0.199063,1.13378,-0.201441,-0.397575,0.73601
26,40,-0.567232,-0.698132,-0.174533,-0.174533,-0.572901,-0.694539,-0.161212,-0.19902,1.13378,-0.201441,-0.399689,0.734672
26,40,-0.567232,-0.698132,-0.174533,-0.174533,-0.572901,-0.694539,-0.161212,-0.19902,1.13378,-0.201441,-0.399689,0.734672
26,40,-0.567232,-0.698132,-0.174533,-0.174533,-0.572901,-0.694539,-0.161151,-0.199039,1.13378,-0.201441,-0.401618,0.735263
26,40,-0.567232,-0.698132,-0.174533,-0.174533,-0.572901,-0.694539,-0.161151,-0.199039,1.13378,-0.201441,-0.401618,0.735263
26,40,-0.567232,-0.698132,-0.174533,-0.174533,-0.572901,-0.694539,-0.161151,-0.199039,1.13378,-0.201441,-0.401618,0.735263
26,40,-0.567232,-0.698132,-0.174533,-0.174533,-0.572901,-0.694539,-0.161151,-0.199039,1.13378,-0.201441,-0.401618,0.735263
26,40,-0.567232,-0.698132,-0.174533,-0.174533,-0.572901,-0.694539,-0.161151,-0.199039,1.13378,-0.201441,-0.401618,0.735263
26,40,-0.567232,-0.698132,-0.174533,-0.174533,-0.572901,-0.694539,-0.161154,-0.199099,1.13378,-0.201441,-0.40152,0.737043
26,40,-0.567232,-0.698132,-0.174533,-0.174533,-0.572901,-0.694539,-0.161154,-0.199099,1.13378,-0.201441,-0.40152,0.737043
26,40,-0.567232,-0.698132,-0.174533,-0.174533,-0.572901,-0.694539,-0.161154,-0.199099,1.13378,-0.201441,-0.40152,0.737043
26,40,-0.567232,-0.698132,-0.174533,-0.174533,-0.572901,-0.694539,-0.161154,-0.199099,1.13378,-0.201441,-0.40152,0.737043
26,40,-0.567232,-0.698132,-0.174533,-0.174533,-0.572901,-0.694539,-0.161154,-0.199099,1.13378,-0.201441,-0.40152,0.737043
26,40,-0.567232,-0.698132,-0.174533,-0.174533,-0.572901,-0.694539,-0.161154,-0.199099,1.13378,-0.201441,-0.40152,0.737043
26,40,-0.567232,-0.698132,-0.174533,-0.174533,-0.572901,-0.694539,-0.161154,-0.199099,1.13378,-0.201441,-0.40152,0.737043
26,40,-0.567232,-0.698132,-0.174533,-0.174533,-0.572901,-0.694539,-0.161154,-0.199099,1.13378,-0.201441,-0.40152,0.737043
26,40,-0.567232,-0.698132,-0.174533,-0.174533,-0.572901,-0.694539,-0.161154,-0.199099,1.13378,-0.201441,-0.40152,0.737043
26,40,-0.567232,-0.698132,-0.174533,-0.174533,-0.572901,-0.694539,-0.161154,-0.199099,1.13378,-0.201441,-0.40152,0.737043
26,40,-0.567232,-0.698132,-0.174533,-0.174533,-0.572901,-0.694539,-0.161154,-0.199099,1.13378,-0.201441,-0.40152,0.737043
26,40,-0.567232,-0.698132,-0.174533,-0.174533,-0.572901,-0.694539,-0.161154,-0.199099,1.13378,-0.201441,-0.40152,0.737043
26,40,-0.567232,-0.698132,-0.174533,-0.174533,-0.572901,-0.694539,-0.161154,-0.199099,1.13378,-0.201441,-0.40152,0.737043
26,40,-0.567232,-0.698132,-0.174533,-0.174533,-0.572901,-0.694539,-0.161154,-0.199099,1.13378,-0.201441,-0.40152,0.737043
26,40,-0.567232,-0.698132,-0.174533,-0.174533,-0.572901,-0.694539,-0.161154,-0.199099,1.13378,-0.201441,-0.40152,0.737043
26,40,-0.567232,-0.698132,-0.174533,-0.174533,-0.572901,-0.694539,-0.161154,-0.199099,1.13378,-0.201441,-0.40152,0.737043
26,40,-0.567232,-0.698132,-0.174533,-0.174533,-0.572901,-0.694539,-0.161154,-0.199099,1.13378,-0.201441,-0.40152,0.737043
26,40,-0.567232,-0.698132,-0.174533,-0.174533,-0.572901,-0.694539,-0.161154,-0.199099,1.13378,-0.201441,-0.40152,0.737043
26,40,-0.567232,-0.698132,-0.174533,-0.174533,-0.572901,-0.694539,-0.161154,-0.199099,1.13378,-0.201441,-0.40152,0.737043
26,40,-0.567232,-0.698132,-0.174533,-0.174533,-0.572901,-0.694539,-0.161154,-0.199099,1.13378,-0.201441,-0.40152,0.737043
26,40,-0.567232,-0.698132,-0.174533,-0.174533,-0.572901,-0.694539,-0.161154,-0.199099,1.13378,-0.201441,-0.40152,0.737043
26,40,-0.567232,-0.698132,-0.174533,-0.174533,-0.572901,-0.694539,-0.161154,-0.199099,1.13378,-0.201441,-0.40152,0.737043
26,40,-0.567232,-0.698132,-0.174533,-0.174533,-0.572901,-0.694539,-0.161154,-0.199099,1.13378,-0.201441,-0.40152,0.737043
26,40,-0.567232,-0.698132,-0.174533,-0.174533,-0.572901,-0.694539,-0.161154,-0.199099,1.13378,-0.201441,-0.40152,0.737043
26,40,-0.567232,-0.698132,-0.174533,-0.174533,-0.572901,-0.694539,-0.161154,-0.199099,1.13378,-0.201441,-0.40152,0.737043
26,40,-0.567232,-0.698132,-0.174533,-0.174533,-0.572901,-0.694539,-0.161154,-0.199099,1.13378,-0.201441,-0.40152,0.737043
26,40,-0.567232,-0.698132,-0.174533,-0.174533,-0.572901,-0.694539,-0.161086,-0.199055,1.13378,-0.201441,-0.403507,0.735785
26,40,-0.567232,-0.698132,-0.174533,-0.174533,-0.572901,-0.694539,-0.161086,-0.199055,1.13378,-0.201441,-0.403507,0.735785
26,40,-0.567232,-0.698132,-0.174533,-0.174533,-0.572901,-0.694539,-0.161086,-0.199055,1.13378,-0.201441,-0.403507,0.735785
26,40,-0.567232,-0.698132,-0.174533,-0.174533,-0.572901,-0.694539,-0.161086,-0.199055,1.13378,-0.201441,-0.403507,0.735785
26,40,-0.567232,-0.698132,-0.174533,-0.174533,-0.572901,-0.694539,-0.161086,-0.199055,1.13378,-0.201441,-0.403507,0.735785
26,40,-0.567232,-0.698132,-0.174533,-0.174533,-0.572901,-0.694539,-0.161086,-0.199055,1.13378,-0.201441,-0.403507,0.735785
26,40,-0.567232,-0.698132,-0.174533,-0.174533,-0.572901,-0.694539,-0.161086,-0.199055,1.13378,-0.201441,-0.403507,0.735785
26,40,-0.567232,-0.698132,-0.174533,-0.174533,-0.572901,-0.694539,-0.161086,-0.199055,1.13378,-0.201441,-0.403507,0.735785
26,40,-0.567232,-0.698132,-0.174533,-0.174533,-0.572901,-0.694539,-0.161086,-0.199055,1.13378,-0.201441,-0.403507,0.735784
26,40,-0.567232,-0.698132,-0.174533,-0.174533,-0.572901,-0.694539,-0.161086,-0.199055,1.13378,-0.201441,-0.403507,0.735782
26,40,-0.567232,-0.698132,-0.174533,-0.174533,-0.572901,-0.694539,-0.161086,-0.199055,1.13378,-0.201441,-0.403505,0.735778
26,40,-0.567232,-0.698132,-0.174533,-0.174533,-0.572901,-0.694539,-0.161086,-0.199055,1.13378,-0.201441,-0.403503,0.735775
26,40,-0.567232,-0.698132,-0.174533,-0.174533,-0.572901,-0.694539,-0.161086,-0.199055,1.13378,-0.201441,-0.403502,0.735773
26,40,-0.567232,-0.698132,-0.174533,-0.174533,-0.572901,-0.694539,-0.161086,-0.199055,1.13378,-0.201441,-0.4035,0.73577
26,40,-0.567232,-0.698132,-0.174533,-0.174533,-0.572901,-0.694539,-0.161086,-0.199055,1.13378,-0.201441,-0.403498,0.735767
26,40,-0.567232,-0.698132,-0.174533,-0.174533,-0.572901,-0.694539,-0.161086,-0.199055,1.13378,-0.201441,-0.403497,0.735765
26,40,-0.567232,-0.698132,-0.174533,-0.174533,-0.572901,-0.694539,-0.161086,-0.199055,1.13378,-0.201441,-0.403495,0.735762
26,40,-0.567232,-0.698132,-0.174533,-0.174533,-0.572901,-0.694539,-0.161086,-0.199055,1.13378,-0.201441,-0.403494,0.73576
26,40,-0.567232,-0.698132,-0.174533,-0.174533,-0.572901,-0.694539,-0.161086,-0.199055,1.13378,-0.201441,-0.403493,0.735758
26,40,-0.567232,-0.698132,-0.174533,-0.174533,-0.572901,-0.694539,-0.161086,-0.199055,1.13378,-0.201441,-0.403491,0.735756
26,40,-0.567232,-0.698132,-0.174533,-0.174533,-0.572901,-0.694539,-0.161086,-0.199055,1.13378,-0.201441,-0.40349,0.735754
26,40,-0.567232,-0.698132,-0.174533,-0.174533,-0.572901,-0.694539,-0.161086,-0.199055,1.13378,-0.201441,-0.403489,0.735752
26,40,-0.567232,-0.698132,-0.174533,-0.174533,-0.572901,-0.694539,-0.161086,-0.199055,1.13378,-0.201441,-0.403488,0.73575
26,40,-0.567232,-0.698132,-0.174533,-0.174533,-0.572901,-0.694539,-0.161086,-0.199055,1.13378,-0.201441,-0.403487,0.735749
26,40,-0.567232,-0.698132,-0.174533,-0.174533,-0.572901,-0.694539,-0.161086,-0.199055,1.13378,-0.201441,-0.403486,0.735747
26,40,-0.567232,-0.698132,-0.174533,-0.174533,-0.572901,-0.694539,-0.161086,-0.199055,1.13378,-0.201441,-0.403485,0.735745
26,40,-0.567232,-0.698132,-0.174533,-0.174533,-0.572901,-0.694539,-0.161086,-0.199055,1.13378,-0.201441,-0.403484,0.735744
26,40,-0.567232,-0.698132,-0.174533,-0.174533,-0.572901,-0.694539,-0.161086,-0.199055,1.13378,-0.201441,-0.403483,0.735742
26,40,-0.567232,-0.698132,-0.174533,-0.174533,-0.572901,-0.694539,-0.161086,-0.199055,1.13378,-0.201441,-0.403482,0.735741
26,40,-0.567232,-0.698132,-0.174533,-0.174533,-0.572901,-0.694539,-0.161086,-0.199055,1.13378,-0.201441,-0.403481,0.73574
26,40,-0.567232,-0.698132,-0.174533,-0.174533,-0.572901,-0.694539,-0.161086,-0.199055,1.13378,-0.201441,-0.40348,0.735738
26,40,-0.567232,-0.698132,-0.174533,-0.174533,-0.572901,-0.694539,-0.161086,-0.199055,1.13378,-0.201441,-0.403479,0.735737
26,40,-0.567232,-0.698132,-0.174533,-0.174533,-0.572901,-0.694539,-0.161086,-0.199055,1.13378,-0.201441,-0.403479,0.735736
26,40,-0.567232,-0.698132,-0.174533,-0.174533,-0.572901,-0.694539,-0.161086,-0.199055,1.13378,-0.201441,-0.403478,0.735735
26,40,-0.567232,-0.698132,-0.174533,-0.174533,-0.572901,-0.694539,-0.161086,-0.199055,1.13378,-0.201441,-0.403477,0.735733
26,40,-0.567232,-0.698132,-0.174533,-0.174533,-0.572901,-0.694539,-0.161086,-0.199055,1.13378,-0.201441,-0.403476,0.735732
26,40,-0.567232,-0.698132,-0.174533,-0.174533,-0.572901,-0.694539,-0.161086,-0.199055,1.13378,-0.201441,-0.403476,0.735731
26,40,-0.567232,-0.698132,-0.174533,-0.174533,-0.572901,-0.694539,-0.161086,-0.199055,1.13378,-0.201441,-0.403475,0.73573
26,40,-0.567232,-0.698132,-0.174533,-0.174533,-0.572901,-0.694539,-0.161086,-0.199055,1.13378,-0.201441,-0.403474,0.735729
26,40,-0.567232,-0.698132,-0.174533,-0.174533,-0.572901,-0.694539,-0.161086,-0.199055,1.13378,-0.201441,-0.403474,0.735728
26,40,-0.567232,-0.698132,-0.174533,-0.174533,-0.572901,-0.694539,-0.161086,-0.199055,1.13378,-0.201441,-0.403473,0.735727
26,40,-0.567232,-0.698132,-0.174533,-0.174533,-0.572901,-0.694539,-0.161086,-0.199055,1.13378,-0.201441,-0.403472,0.735726
26,40,-0.567232,-0.698132,-0.174533,-0.174533,-0.572901,-0.694539,-0.161086,-0.199055,1.13378,-0.201441,-0.403472,0.735725
26,40,-0.567232,-0.698132,-0.174533,-0.174533,-0.572901,-0.694539,-0.161086,-0.199055,1.13378,-0.201441,-0.403471,0.735724
26,40,-0.567232,-0.698132,-0.174533,-0.174533,-0.572901,-0.694539,-0.161086,-0.199055,1.13378,-0.201441,-0.403471,0.735724
26,40,-0.567232,-0.698132,-0.174533,-0.174533,-0.572901,-0.694539,-0.161086,-0.199055,1.13378,-0.201441,-0.40347,0.735723
26,40,-0.567232,-0.698132,-0.174533,-0.174533,-0.572901,-0.694539,-0.161086,-0.199055,1.13378,-0.201441,-0.40347,0.735722
26,40,-0.567232,-0.698132,-0.174533,-0.174533,-0.572901,-0.694539,-0.161086,-0.199055,1.13378,-0.201441,-0.403469,0.735721
26,40,-0.567232,-0.698132,-0.174533,-0.174533,-0.572901,-0.694539,-0.161018,-0.199012,1.13378,-0.201441,-0.405555,0.7344
26,40,-0.567232,-0.698132,-0.174533,-0.174533,-0.572901,-0.694539,-0.161018,-0.199012,1.13378,-0.201441,-0.405554,0.7344
26,40,-0.567232,-0.698132,-0.174533,-0.174533,-0.572901,-0.694539,-0.161018,-0.199012,1.13378,-0.201441,-0.405554,0.734399
26,40,-0.567232,-0.698132,-0.174533,-0.174533,-0.572901,-0.694539,-0.161018,-0.199012,1.13378,-0.201441,-0.405553,0.734398
26,40,-0.567232,-0.698132,-0.174533,-0.174533,-0.572901,-0.694539,-0.161018,-0.199012,1.13378,-0.201441,-0.405553,0.734398
26,40,-0.567232,-0.698132,-0.174533,-0.174533,-0.572901,-0.694539,-0.161018,-0.199012,1.13378,-0.201441,-0.405552,0.734397
26,40,-0.567232,-0.698132,-0.174533,-0.174533,-0.572901,-0.694539,-0.161018,-0.199012,1.13378,-0.201441,-0.405552,0.734396
26,40,-0.567232,-0.698132,-0.174533,-0.174533,-0.572901,-0.694539,-0.161018,-0.199012,1.13378,-0.201441,-0.405551,0.734396
26,40,-0.567232,-0.698132,-0.174533,-0.174533,-0.572901,-0.694539,-0.160949,-0.198969,1.13378,-0.201441,-0.407575,0.733114
26,40,-0.567232,-0.698132,-0.174533,-0.174533,-0.572901,-0.694539,-0.160949,-0.198969,1.13378,-0.201441,-0.407575,0.733113
26,40,-0.567232,-0.698132,-0.174533,-0.174533,-0.572901,-0.694539,-0.160949,-0.198969,1.13378,-0.201441,-0.407574,0.733113
26,40,-0.567232,-0.698132,-0.174533,-0.174533,-0.572901,-0.694539,-0.160949,-0.198969,1.13378,-0.201441,-0.407574,0.733112
26,40,-0.567232,-0.698132,-0.174533,-0.174533,-0.572901,-0.694539,-0.160949,-0.198969,1.13378,-0.201441,-0.407574,0.733112
26,40,-0.567232,-0.698132,-0.174533,-0.174533,-0.572901,-0.694539,-0.160881,-0.198926,1.13378,-0.201441,-0.409625,0.731813
26,40,-0.567232,-0.698132,-0.174533,-0.174533,-0.572901,-0.694539,-0.160881,-0.198926,1.13378,-0.201441,-0.409625,0.731812
26,40,-0.567232,-0.698132,-0.174533,-0.174533,-0.572901,-0.694539,-0.160881,-0.198926,1.13378,-0.201441,-0.409624,0.731812
26,40,-0.567232,-0.698132,-0.174533,-0.174533,-0.572901,-0.694539,-0.160813,-0.198883,1.13378,-0.201441,-0.411688,0.730505
26,40,-0.567232,-0.698132,-0.174533,-0.174533,-0.572901,-0.694539,-0.160813,-0.198883,1.13378,-0.201441,-0.411687,0.730505
26,40,-0.567232,-0.698132,-0.174533,-0.174533,-0.572901,-0.694539,-0.160813,-0.198883,1.13378,-0.201441,-0.411687,0.730504
26,40,-0.567232,-0.698132,-0.174533,-0.174533,-0.572901,-0.694539,-0.160745,-0.19884,1.13378,-0.201441,-0.413763,0.729197
26,40,-0.567232,-0.698132,-0.174533,-0.174533,-0.572901,-0.694539,-0.160745,-0.19884,1.13378,-0.201441,-0.413763,0.729196
26,40,-0.567232,-0.698132,-0.174533,-0.174533,-0.572901,-0.694539,-0.160677,-0.198796,1.13378,-0.201441,-0.416002,0.727772
26,40,-0.567232,-0.698132,-0.174533,-0.174533,-0.572901,-0.694539,-0.160677,-0.198796,1.13378,-0.201441,-0.416002,0.727771
26,40,-0.567232,-0.698132,-0.174533,-0.174533,-0.572901,-0.694539,-0.160609,-0.198753,1.13378,-0.201441,-0.41817,0.726398
26,40,-0.567232,-0.698132,-0.174533,-0.174533,-0.572901,-0.694539,-0.16054,-0.19871,1.13378,-0.201441,-0.420386,0.724995
26,40,-0.567232,-0.698132,-0.174533,-0.174533,-0.572901,-0.694539,-0.16054,-0.19871,1.13378,-0.201441,-0.420386,0.724995
26,40,-0.567232,-0.698132,-0.174533,-0.174533,-0.572901,-0.694539,-0.160472,-0.198667,1.13378,-0.201441,-0.422519,0.723644
26,40,-0.567232,-0.698132,-0.174533,-0.174533,-0.572901,-0.694539,-0.160472,-0.198667,1.13378,-0.201441,-0.422519,0.723644
26,40,-0.567232,-0.698132,-0.174533,-0.174533,-0.572901,-0.694539,-0.160407,-0.198684,1.13378,-0.201441,-0.424607,0.724121
26,40,-0.567232,-0.698132,-0.174533,-0.174533,-0.572901,-0.694539,-0.160339,-0.198641,1.13378,-0.201441,-0.42665,0.722827
26,40,-0.567232,-0.698132,-0.174533,-0.174533,-0.572901,-0.694539,-0.160339,-0.198641,1.13378,-0.201441,-0.42665,0.722827
26,40,-0.567232,-0.698132,-0.174533,-0.174533,-0.572901,-0.694539,-0.160271,-0.198597,1.13378,-0.201441,-0.428706,0.721526
26,40,-0.567232,-0.698132,-0.174533,-0.174533,-0.572901,-0.694539,-0.160271,-0.198597,1.13378,-0.201441,-0.428706,0.721526
26,40,-0.567232,-0.698132,-0.174533,-0.174533,-0.572901,-0.694539,-0.160203,-0.198554,1.13378,-0.201441,-0.430748,0.720233
26,40,-0.567232,-0.698132,-0.174533,-0.174533,-0.572901,-0.694539,-0.160135,-0.198511,1.13378,-0.201441,-0.432753,0.718964
26,40,-0.567232,-0.698132,-0.174533,-0.174533,-0.572901,-0.694539,-0.160067,-0.198468,1.13378,-0.201441,-0.43497,0.71756
26,40,-0.567232,-0.698132,-0.174533,-0.174533,-0.572901,-0.694539,-0.160067,-0.198468,1.13378,-0.201441,-0.43497,0.71756
26,40,-0.567232,-0.698132,-0.174533,-0.174533,-0.572901,-0.694539,-0.159999,-0.198425,1.13378,-0.201441,-0.436962,0.716299
26,40,-0.567232,-0.698132,-0.174533,-0.174533,-0.572901,-0.694539,-0.159931,-0.198382,1.13378,-0.201441,-0.438972,0.715026
26,40,-0.567232,-0.698132,-0.174533,-0.174533,-0.572901,-0.694539,-0.159863,-0.198339,1.13378,-0.201441,-0.441173,0.713633
26,40,-0.567232,-0.698132,-0.174533,-0.174533,-0.572901,-0.694539,-0.159866,-0.198399,1.13378,-0.201441,-0.44108,0.715357
26,40,-0.567232,-0.698132,-0.174533,-0.174533,-0.572901,-0.694539,-0.159798,-0.198356,1.13378,-0.201441,-0.443063,0.714102
26,40,-0.567232,-0.698132,-0.174533,-0.174533,-0.572901,-0.694539,-0.15973,-0.198312,1.13378,-0.201441,-0.445184,0.712759
26,40,-0.567232,-0.698132,-0.174533,-0.174533,-0.572901,-0.694539,-0.159662,-0.198269,1.13378,-0.201441,-0.447319,0.711407
26,40,-0.567232,-0.698132,-0.174533,-0.174533,-0.572901,-0.694539,-0.159594,-0.198226,1.13378,-0.201172,-0.449413,0.710081
26,40,-0.567232,-0.698132,-0.174533,-0.174533,-0.572901,-0.694539,-0.159594,-0.198226,1.13378,-0.201172,-0.449413,0.710081
26,40,-0.567232,-0.698132,-0.174533,-0.174533,-0.572901,-0.694539,-0.159526,-0.198183,1.13378,-0.201172,-0.451426,0.708807
26,40,-0.567232,-0.698132,-0.174533,-0.174533,-0.572901,-0.694539,-0.159461,-0.1982,1.13378,-0.201172,-0.453273,0.709368
26,40,-0.567232,-0.698132,-0.174533,-0.174533,-0.572901,-0.694539,-0.159325,-0.198114,1.13378,-0.201172,-0.45733,0.706799
26,40,-0.567232,-0.698132,-0.174533,-0.174533,-0.572901,-0.694539,-0.159328,-0.198174,1.13378,-0.201172,-0.457235,0.708593
26,40,-0.567232,-0.698132,-0.174533,-0.174533,-0.572901,-0.694539,-0.15926,-0.198131,1.13378,-0.201172,-0.459422,0.707208
26,40,-0.567232,-0.698132,-0.174533,-0.174533,-0.572901,-0.694539,-0.15926,-0.198131,1.13378,-0.201172,-0.459422,0.707208
26,40,-0.567232,-0.698132,-0.174533,-0.174533,-0.572901,-0.694539,-0.159195,-0.198147,1.13378,-0.201172,-0.461288,0.707761
26,40,-0.567232,-0.698132,-0.174533,-0.174533,-0.572901,-0.694539,-0.159127,-0.198104,1.13378,-0.201172,-0.463286,0.706496
26,40,-0.567232,-0.698132,-0.174533,-0.174533,-0.572901,-0.694539,-0.159059,-0.198061,1.13378,-0.201172,-0.465366,0.705179
26,40,-0.567232,-0.698132,-0.174533,-0.174533,-0.572901,-0.694539,-0.158994,-0.198078,1.13378,-0.201172,-0.467212,0.7059
26,40,-0.567232,-0.698132,-0.174533,-0.174533,-0.572901,-0.694539,-0.158926,-0.198035,1.13378,-0.201172,-0.469392,0.70452
26,40,-0.567232,-0.698132,-0.174533,-0.174533,-0.572901,-0.694539,-0.158991,-0.198076,1.13378,-0.201172,-0.467406,0.705854
26,40,-0.567232,-0.698132,-0.174533,-0.174533,-0.572901,-0.694539,-0.158923,-0.198033,1.13378,-0.201172,-0.469393,0.704596
26,40,-0.567232,-0.698132,-0.174533,-0.174533,-0.572901,-0.694539,-0.158858,-0.198049,1.13378,-0.201172,-0.471261,0.70528
26,40,-0.567232,-0.698132,-0.174533,-0.174533,-0.572901,-0.694539,-0.158722,-0.197963,1.13378,-0.201172,-0.475478,0.70261
26,40,-0.567232,-0.698132,-0.174533,-0.174533,-0.572901,-0.694539,-0.158658,-0.19798,1.13378,-0.201172,-0.477653,0.702983
26,40,-0.567232,-0.698132,-0.174533,-0.174533,-0.572901,-0.694539,-0.158719,-0.197961,1.13378,-0.201172,-0.475803,0.702413
26,40,-0.567232,-0.698132,-0.174533,-0.174533,-0.572901,-0.694539,-0.158654,-0.197978,1.13378,-0.201172,-0.477796,0.702924
26,40,-0.567232,-0.698132,-0.174533,-0.174533,-0.572901,-0.694539,-0.158651,-0.197975,1.13378,-0.201172,-0.477383,0.702951
26,40,-0.567232,-0.698132,-0.174533,-0.174533,-0.572901,-0.694539,-0.158587,-0.197992,1.13378,-0.201172,-0.479179,0.703586
26,40,-0.567232,-0.698132,-0.174533,-0.174533,-0.572901,-0.694539,-0.158522,-0.198009,1.13378,-0.201172,-0.48117,0.704176
26,40,-0.567232,-0.698132,-0.174533,-0.174533,-0.572901,-0.694539,-0.158515,-0.197947,1.13378,-0.201172,-0.481293,0.702254
26,40,-0.567232,-0.698132,-0.174533,-0.174533,-0.572901,-0.694539,-0.158451,-0.197963,1.13378,-0.201172,-0.483372,0.702829
26,40,-0.567232,-0.698132,-0.174533,-0.174533,-0.572901,-0.694539,-0.158386,-0.19798,1.13378,-0.201172,-0.485351,0.703384
26,40,-0.567232,-0.698132,-0.174533,-0.174533,-0.572901,-0.694539,-0.158383,-0.197978,1.13378,-0.201172,-0.485653,0.703573
26,40,-0.567232,-0.698132,-0.174533,-0.174533,-0.572901,-0.694539,-0.15838,-0.197976,1.13378,-0.201172,-0.485484,0.703404
26,40,-0.567232,-0.698132,-0.174533,-0.174533,-0.572901,-0.694539,-0.158315,-0.197992,1.13378,-0.201172,-0.487396,0.703902
26,40,-0.567232,-0.698132,-0.174533,-0.174533,-0.572901,-0.694539,-0.158312,-0.19799,1.13378,-0.201172,-0.487386,0.703797
26,40,-0.567232,-0.698132,-0.174533,-0.174533,-0.572901,-0.694539,-0.15825,-0.198066,1.13378,-0.201172,-0.489193,0.706312
26,40,-0.567232,-0.698132,-0.174533,-0.174533,-0.572901,-0.694539,-0.158247,-0.198064,1.13378,-0.201172,-0.489245,0.706283
26,40,-0.567232,-0.698132,-0.174533,-0.174533,-0.572901,-0.694539,-0.158244,-0.198062,1.13378,-0.201172,-0.489342,0.706351
26,40,-0.567232,-0.698132,-0.174533,-0.174533,-0.572901,-0.694539,-0.158173,-0.198017,1.13378,-0.201172,-0.491561,0.704765
26,40,-0.567232,-0.698132,-0.174533,-0.174533,-0.572901,-0.694539,-0.158111,-0.198093,1.13378,-0.201172,-0.493413,0.707013
26,40,-0.567232,-0.698132,-0.174533,-0.174533,-0.572901,-0.694539,-0.158111,-0.19815,1.13378,-0.201172,-0.493498,0.70866
26,40,-0.567232,-0.698132,-0.174533,-0.174533,-0.572901,-0.694539,-0.158046,-0.198167,1.13378,-0.201172,-0.495464,0.70932
26,40,-0.567232,-0.698132,-0.174533,-0.174533,-0.572901,-0.694539,-0.158108,-0.198206,1.13378,-0.201172,-0.49353,0.710727
26,40,-0.567232,-0.698132,-0.174533,-0.174533,-0.572901,-0.694539,-0.15804,-0.19822,1.13378,-0.201172,-0.495272,0.711465
26,40,-0.567232,-0.698132,-0.174533,-0.174533,-0.572901,-0.694539,-0.158037,-0.198218,1.13378,-0.201172,-0.495297,0.711454
26,40,-0.567232,-0.698132,-0.174533,-0.174533,-0.572901,-0.694539,-0.158037,-0.198275,1.13378,-0.201172,-0.495217,0.712752
26,40,-0.567232,-0.698132,-0.174533,-0.174533,-0.572901,-0.694539,-0.158034,-0.198273,1.13378,-0.201172,-0.494874,0.712363
26,40,-0.567232,-0.698132,-0.174533,-0.174533,-0.572901,-0.694539,-0.158027,-0.198268,1.13378,-0.201172,-0.495343,0.712419
26,40,-0.567232,-0.698132,-0.174533,-0.174533,-0.572901,-0.694539,-0.157966,-0.198345,1.13378,-0.201172,-0.497214,0.71485
26,40,-0.567232,-0.698132,-0.174533,-0.174533,-0.572901,-0.694539,-0.157962,-0.198342,1.13378,-0.201172,-0.497165,0.714902
26,40,-0.567232,-0.698132,-0.174533,-0.174533,-0.572901,-0.694539,-0.157962,-0.1984,1.13378,-0.201172,-0.497566,0.716603
26,40,-0.567232,-0.698132,-0.174533,-0.174533,-0.572901,-0.694539,-0.157956,-0.198395,1.13378,-0.201172,-0.497546,0.716571
26,40,-0.567232,-0.698132,-0.174533,-0.174533,-0.572901,-0.694539,-0.157959,-0.198512,1.13378,-0.201172,-0.497548,0.720379
26,40,-0.567232,-0.698132,-0.174533,-0.174533,-0.572901,-0.694539,-0.157956,-0.19851,1.13378,-0.201172,-0.497532,0.720188
26,40,-0.567232,-0.698132,-0.174533,-0.174533,-0.572901,-0.694539,-0.157953,-0.198565,1.13378,-0.201172,-0.497392,0.721576
26,40,-0.567232,-0.698132,-0.174533,-0.174533,-0.572901,-0.694539,-0.158011,-0.198544,1.13378,-0.201172,-0.495432,0.72089
26,40,-0.567232,-0.698132,-0.174533,-0.174533,-0.572901,-0.694539,-0.157944,-0.198558,1.13378,-0.201172,-0.497403,0.721166
26,40,-0.567232,-0.698132,-0.174533,-0.174533,-0.572901,-0.694539,-0.157937,-0.198554,1.13378,-0.201172,-0.497844,0.720744
26,40,-0.567232,-0.698132,-0.174533,-0.174533,-0.572901,-0.694539,-0.157869,-0.198568,1.13378,-0.201172,-0.500117,0.721329
26,40,-0.567232,-0.698132,-0.174533,-0.174533,-0.572901,-0.694539,-0.157931,-0.198606,1.13378,-0.201172,-0.498484,0.722505
26,40,-0.567232,-0.698132,-0.174533,-0.174533,-0.572901,-0.694539,-0.157993,-0.198645,1.13378,-0.201172,-0.496257,0.723885
26,40,-0.567232,-0.698132,-0.174533,-0.174533,-0.572901,-0.694539,-0.157925,-0.198659,1.13378,-0.201172,-0.498365,0.724477
26,40,-0.567232,-0.698132,-0.174533,-0.174533,-0.572901,-0.694539,-0.157986,-0.198698,1.13378,-0.201172,-0.496034,0.72571
26,40,-0.567232,-0.698132,-0.174533,-0.174533,-0.572901,-0.694539,-0.157986,-0.198755,1.13378,-0.201172,-0.495927,0.727319
26,40,-0.567232,-0.698132,-0.174533,-0.174533,-0.572901,-0.694539,-0.158048,-0.198793,1.13378,-0.201172,-0.494293,0.728406
26,40,-0.567232,-0.698132,-0.174533,-0.174533,-0.572901,-0.694539,-0.158042,-0.198789,1.13378,-0.201172,-0.49433,0.728429
26,40,-0.567232,-0.698132,-0.174533,-0.174533,-0.572901,-0.694539,-0.158042,-0.198846,1.13378,-0.201172,-0.494392,0.729968
26,40,-0.567232,-0.698132,-0.174533,-0.174533,-0.572901,-0.694539,-0.158035,-0.198842,1.13378,-0.201172,-0.494921,0.729705
26,40,-0.567232,-0.698132,-0.174533,-0.174533,-0.572901,-0.694539,-0.158035,-0.198899,1.13378,-0.201172,-0.494946,0.731452
26,40,-0.567232,-0.698132,-0.174533,-0.174533,-0.572901,-0.694539,-0.158097,-0.198937,1.13378,-0.201172,-0.493058,0.732544
26,40,-0.567232,-0.698132,-0.174533,-0.174533,-0.572901,-0.694539,-0.158094,-0.198935,1.13378,-0.201172,-0.49317,0.732442
26,40,-0.567232,-0.698132,-0.174533,-0.174533,-0.572901,-0.694539,-0.158088,-0.19893,1.13378,-0.201172,-0.492973,0.732383
26,40,-0.567232,-0.698132,-0.174533,-0.174533,-0.572901,-0.694539,-0.158149,-0.198969,1.13378,-0.201172,-0.49099,0.733333
26,40,-0.567232,-0.698132,-0.174533,-0.174533,-0.572901,-0.694539,-0.158143,-0.198964,1.13378,-0.201172,-0.491304,0.733219
26,40,-0.567232,-0.698132,-0.174533,-0.174533,-0.572901,-0.694539,-0.158072,-0.198919,1.13378,-0.201172,-0.493531,0.731615
26,40,-0.567232,-0.698132,-0.174533,-0.174533,-0.572901,-0.694539,-0.158201,-0.199,1.13378,-0.201172,-0.489923,0.734032
26,40,-0.567232,-0.698132,-0.174533,-0.174533,-0.572901,-0.694539,-0.15813,-0.198955,1.13378,-0.201172,-0.491766,0.732767
26,40,-0.567232,-0.698132,-0.174533,-0.174533,-0.572901,-0.694539,-0.158192,-0.198994,1.13378,-0.201172,-0.489957,0.734019
26,40,-0.567232,-0.698132,-0.174533,-0.174533,-0.572901,-0.694539,-0.158251,-0.198972,1.13378,-0.201172,-0.487964,0.733432
26,40,-0.567232,-0.698132,-0.174533,-0.174533,-0.572901,-0.694539,-0.158251,-0.19903,1.13378,-0.201172,-0.487873,0.73533
26,40,-0.567232,-0.698132,-0.174533,-0.174533,-0.572901,-0.694539,-0.158377,-0.199051,1.13378,-0.201172,-0.484087,0.735825
26,40,-0.567232,-0.698132,-0.174533,-0.174533,-0.572901,-0.694539,-0.158436,-0.19903,1.13378,-0.201172,-0.482453,0.735166
26,40,-0.567232,-0.698132,-0.174533,-0.174533,-0.572901,-0.694539,-0.158432,-0.199028,1.13378,-0.201172,-0.482136,0.735259
26,40,-0.567232,-0.698132,-0.174533,-0.174533,-0.572901,-0.694539,-0.158429,-0.199025,1.13378,-0.201172,-0.4821,0.734933
26,40,-0.567232,-0.698132,-0.174533,-0.174533,-0.572901,-0.694539,-0.158491,-0.199064,1.13378,-0.201172,-0.480359,0.735962
26,40,-0.567232,-0.698132,-0.174533,-0.174533,-0.572901,-0.694539,-0.158553,-0.199045,1.13378,-0.201172,-0.478616,0.735424
26,40,-0.567232,-0.698132,-0.174533,-0.174533,-0.572901,-0.694539,-0.158549,-0.199042,1.13378,-0.201172,-0.47871,0.735403
26,40,-0.567232,-0.698132,-0.174533,-0.174533,-0.572901,-0.694539,-0.158608,-0.199021,1.13378,-0.201172,-0.477112,0.734772
26,40,-0.567232,-0.698132,-0.174533,-0.174533,-0.572901,-0.694539,-0.158673,-0.199062,1.13378,-0.201172,-0.475265,0.73591
26,40,-0.567232,-0.698132,-0.174533,-0.174533,-0.572901,-0.694539,-0.158799,-0.199083,1.13378,-0.201172,-0.471358,0.7365
26,40,-0.567232,-0.698132,-0.174533,-0.174533,-0.572901,-0.694539,-0.158802,-0.199143,1.13378,-0.201172,-0.471271,0.738165
26,40,-0.567232,-0.698132,-0.174533,-0.174533,-0.572901,-0.694539,-0.158796,-0.199081,1.13378,-0.201172,-0.471611,0.736209
26,40,-0.567232,-0.698132,-0.174533,-0.174533,-0.572901,-0.694539,-0.158858,-0.199062,1.13378,-0.201172,-0.470061,0.735731
26,40,-0.567232,-0.698132,-0.174533,-0.174533,-0.572901,-0.694539,-0.158922,-0.199103,1.13378,-0.201172,-0.468018,0.736897
26,40,-0.567232,-0.698132,-0.174533,-0.174533,-0.572901,-0.694539,-0.159046,-0.199065,1.13378,-0.201172,-0.464595,0.735842
26,40,-0.567232,-0.698132,-0.174533,-0.174533,-0.572901,-0.694539,-0.159046,-0.199065,1.13378,-0.201172,-0.464595,0.735842
26,40,-0.567232,-0.698132,-0.174533,-0.174533,-0.572901,-0.694539,-0.159107,-0.199046,1.13378,-0.201172,-0.462481,0.735015
26,40,-0.567232,-0.698132,-0.174533,-0.174533,-0.572901,-0.694539,-0.159169,-0.199027,1.13378,-0.201172,-0.460863,0.734331
26,40,-0.567232,-0.698132,-0.174533,-0.174533,-0.572901,-0.694539,-0.15923,-0.199008,1.13378,-0.201172,-0.458971,0.733627
26,40,-0.567232,-0.698132,-0.174533,-0.174533,-0.572901,-0.694539,-0.159292,-0.198989,1.13378,-0.201172,-0.457192,0.732994
26,40,-0.567232,-0.698132,-0.174533,-0.174533,-0.572901,-0.694539,-0.159292,-0.198989,1.13378,-0.201172,-0.457195,0.732932
26,40,-0.567232,-0.698132,-0.174533,-0.174533,-0.572901,-0.694539,-0.159354,-0.19897,1.13378,-0.201172,-0.455604,0.732393
26,40,-0.567232,-0.698132,-0.174533,-0.174533,-0.572901,-0.694539,-0.159415,-0.198951,1.13378,-0.201172,-0.453892,0.731826
26,40,-0.567232,-0.698132,-0.174533,-0.174533,-0.572901,-0.694539,-0.159415,-0.198951,1.13378,-0.201172,-0.453893,0.731795
26,40,-0.567232,-0.698132,-0.174533,-0.174533,-0.572901,-0.694539,-0.159477,-0.198932,1.13378,-0.201172,-0.451967,0.731176
26,40,-0.567232,-0.698132,-0.174533,-0.174533,-0.572901,-0.694539,-0.159477,-0.198932,1.13378,-0.201172,-0.451968,0.731154
26,40,-0.567232,-0.698132,-0.174533,-0.174533,-0.572901,-0.694539,-0.159539,-0.198913,1.13378,-0.201172,-0.450301,0.730621
26,40,-0.567232,-0.698132,-0.174533,-0.174533,-0.572901,-0.694539,-0.159539,-0.198913,1.13378,-0.201172,-0.450302,0.730605
26,40,-0.567232,-0.698132,-0.174533,-0.174533,-0.572901,-0.694539,-0.1596,-0.198894,1.13378,-0.201172,-0.448497,0.730035
26,40,-0.567232,-0.698132,-0.174533,-0.174533,-0.572901,-0.694539,-0.159662,-0.198875,1.13378,-0.201172,-0.446617,0.729443
26,40,-0.567232,-0.698132,-0.174533,-0.174533,-0.572901,-0.694539,-0.159662,-0.198875,1.13378,-0.201172,-0.446618,0.729432
26,40,-0.567232,-0.698132,-0.174533,-0.174533,-0.572901,-0.694539,-0.159662,-0.198875,1.13378,-0.201172,-0.446618,0.729423
26,40,-0.567232,-0.698132,-0.174533,-0.174533,-0.572901,-0.694539,-0.159723,-0.198856,1.13378,-0.201172,-0.444781,0.728848
26,40,-0.567232,-0.698132,-0.174533,-0.174533,-0.572901,-0.694539,-0.159723,-0.198856,1.13378,-0.201172,-0.444782,0.72884
26,40,-0.567232,-0.698132,-0.174533,-0.174533,-0.572901,-0.694539,-0.159723,-0.198856,1.13378,-0.201172,-0.444782,0.728832
26,40,-0.567232,-0.698132,-0.174533,-0.174533,-0.572901,-0.694539,-0.159723,-0.198856,1.13378,-0.201172,-0.444782,0.728826
26,40,-0.567232,-0.698132,-0.174533,-0.174533,-0.572901,-0.694539,-0.159785,-0.198837,1.13378,-0.201172,-0.443018,0.728276
26,40,-0.567232,-0.698132,-0.174533,-0.174533,-0.572901,-0.694539,-0.159785,-0.198837,1.13378,-0.201172,-0.443019,0.728271
26,40,-0.567232,-0.698132,-0.174533,-0.174533,-0.572901,-0.694539,-0.159785,-0.198837,1.13378,-0.201172,-0.443019,0.728266
26,40,-0.567232,-0.698132,-0.174533,-0.174533,-0.572901,-0.694539,-0.159847,-0.198818,1.13378,-0.201172,-0.441313,0.727735
26,40,-0.567232,-0.698132,-0.174533,-0.174533,-0.572901,-0.694539,-0.159847,-0.198818,1.13378,-0.201172,-0.441313,0.727731
26,40,-0.567232,-0.698132,-0.174533,-0.174533,-0.572901,-0.694539,-0.159847,-0.198818,1.13378,-0.201172,-0.441313,0.727727
26,40,-0.567232,-0.698132,-0.174533,-0.174533,-0.572901,-0.694539,-0.159847,-0.198818,1.13378,-0.201172,-0.441313,0.727723
26,40,-0.567232,-0.698132,-0.174533,-0.174533,-0.572901,-0.694539,-0.159847,-0.198818,1.13378,-0.201172,-0.441314,0.727719
26,40,-0.567232,-0.698132,-0.174533,-0.174533,-0.572901,-0.694539,-0.159847,-0.198818,1.13378,-0.201172,-0.441314,0.727716
26,40,-0.567232,-0.698132,-0.174533,-0.174533,-0.572901,-0.694539,-0.159847,-0.198818,1.13378,-0.201172,-0.441314,0.727713
26,40,-0.567232,-0.698132,-0.174533,-0.174533,-0.572901,-0.694539,-0.159847,-0.198818,1.13378,-0.201172,-0.441364,0.727725
26,40,-0.567232,-0.698132,-0.174533,-0.174533,-0.572901,-0.694539,-0.159915,-0.198861,1.13378,-0.201172,-0.437763,0.730052
26,40,-0.567232,-0.698132,-0.174533,-0.174533,-0.572901,-0.694539,-0.159915,-0.198861,1.13378,-0.201172,-0.437806,0.730063
26,40,-0.567232,-0.698132,-0.174533,-0.174533,-0.572901,-0.694539,-0.159915,-0.198861,1.13378,-0.201172,-0.437841,0.730071
26,40,-0.567232,-0.698132,-0.174533,-0.174533,-0.572901,-0.694539,-0.159983,-0.198904,1.13378,-0.201172,-0.436178,0.731147
26,40,-0.567232,-0.698132,-0.174533,-0.174533,-0.572901,-0.694539,-0.160044,-0.198885,1.13378,-0.201172,-0.434182,0.730531
26,40,-0.567232,-0.698132,-0.174533,-0.174533,-0.572901,-0.694539,-0.160044,-0.198885,1.13378,-0.201172,-0.434182,0.730528
26,40,-0.567232,-0.698132,-0.174533,-0.174533,-0.572901,-0.694539,-0.160112,-0.198928,1.13378,-0.201172,-0.431941,0.731945
26,40,-0.567232,-0.698132,-0.174533,-0.174533,-0.572901,-0.694539,-0.160112,-0.198928,1.13378,-0.201172,-0.431941,0.731943
26,40,-0.567232,-0.698132,-0.174533,-0.174533,-0.572901,-0.694539,-0.16018,-0.198971,1.13378,-0.201172,-0.429565,0.733445
26,40,-0.567232,-0.698132,-0.174533,-0.174533,-0.572901,-0.694539,-0.16018,-0.198971,1.13378,-0.201172,-0.429565,0.733443
26,40,-0.567232,-0.698132,-0.174533,-0.174533,-0.572901,-0.694539,-0.16018,-0.198971,1.13378,-0.201172,-0.429565,0.733442
26,40,-0.567232,-0.698132,-0.174533,-0.174533,-0.572901,-0.694539,-0.160248,-0.199014,1.13378,-0.201172,-0.427977,0.734458
26,40,-0.567232,-0.698132,-0.174533,-0.174533,-0.572901,-0.694539,-0.160316,-0.199057,1.13378,-0.201172,-0.425593,0.73599
26,40,-0.567232,-0.698132,-0.174533,-0.174533,-0.572901,-0.694539,-0.160316,-0.199057,1.13378,-0.201172,-0.425636,0.736002
26,40,-0.567232,-0.698132,-0.174533,-0.174533,-0.572901,-0.694539,-0.160384,-0.1991,1.13378,-0.201172,-0.423556,0.737349
26,40,-0.567232,-0.698132,-0.174533,-0.174533,-0.572901,-0.694539,-0.160384,-0.1991,1.13378,-0.201172,-0.423585,0.737356
26,40,-0.567232,-0.698132,-0.174533,-0.174533,-0.572901,-0.694539,-0.160452,-0.199143,1.13378,-0.201172,-0.421441,0.738734
26,40,-0.567232,-0.698132,-0.174533,-0.174533,-0.572901,-0.694539,-0.160452,-0.199143,1.13378,-0.201172,-0.421461,0.738739
26,40,-0.567232,-0.698132,-0.174533,-0.174533,-0.572901,-0.694539,-0.16052,-0.199186,1.13378,-0.201172,-0.419448,0.740029
26,40,-0.567232,-0.698132,-0.174533,-0.174533,-0.572901,-0.694539,-0.160588,-0.199229,1.13378,-0.201172,-0.417413,0.741329
26,40,-0.567232,-0.698132,-0.174533,-0.174533,-0.572901,-0.694539,-0.160588,-0.199229,1.13378,-0.201172,-0.417427,0.741332
26,40,-0.567232,-0.698132,-0.174533,-0.174533,-0.572901,-0.694539,-0.160656,-0.199272,1.13378,-0.201172,-0.415323,0.742674
26,40,-0.567232,-0.698132,-0.174533,-0.174533,-0.572901,-0.694539,-0.160724,-0.199315,1.13378,-0.201172,-0.413337,0.743939
26,40,-0.567232,-0.698132,-0.174533,-0.174533,-0.572901,-0.694539,-0.160792,-0.199358,1.13378,-0.201172,-0.411196,0.745302
26,40,-0.567232,-0.698132,-0.174533,-0.174533,-0.572901,-0.694539,-0.160792,-0.199358,1.13378,-0.201172,-0.411204,0.745304
26,40,-0.567232,-0.698132,-0.174533,-0.174533,-0.572901,-0.694539,-0.16086,-0.199401,1.13378,-0.201172,-0.408962,0.746729
26,40,-0.567232,-0.698132,-0.174533,-0.174533,-0.572901,-0.694539,-0.160928,-0.199444,1.13378,-0.201172,-0.407025,0.74796
26,40,-0.567232,-0.698132,-0.174533,-0.174533,-0.572901,-0.694539,-0.160928,-0.199444,1.13378,-0.201172,-0.407031,0.747961
26,40,-0.567232,-0.698132,-0.174533,-0.174533,-0.572901,-0.694539,-0.160996,-0.199487,1.13378,-0.201172,-0.404938,0.74929
26,40,-0.567232,-0.698132,-0.174533,-0.174533,-0.572901,-0.694539,-0.161064,-0.199531,1.13378,-0.201172,-0.402921,0.750571
26,40,-0.567232,-0.698132,-0.174533,-0.174533,-0.572901,-0.694539,-0.161064,-0.199531,1.13378,-0.201172,-0.402926,0.750572
26,40,-0.567232,-0.698132,-0.174533,-0.174533,-0.572901,-0.694539,-0.161132,-0.199574,1.13378,-0.201172,-0.40096,0.751819
26,40,-0.567232,-0.698132,-0.174533,-0.174533,-0.572901,-0.694539,-0.161201,-0.199617,1.13378,-0.201172,-0.398968,0.753083
26,40,-0.567232,-0.698132,-0.174533,-0.174533,-0.572901,-0.694539,-0.161201,-0.199617,1.13378,-0.201172,-0.398972,0.753083
26,40,-0.567232,-0.698132,-0.174533,-0.174533,-0.572901,-0.694539,-0.161269,-0.19966,1.13378,-0.201172,-0.396851,0.754428
26,40,-0.567232,-0.698132,-0.174533,-0.174533,-0.572901,-0.694539,-0.161337,-0.199703,1.13378,-0.201172,-0.394962,0.755626
26,40,-0.567232,-0.698132,-0.174533,-0.174533,-0.572901,-0.694539,-0.161337,-0.199703,1.13378,-0.201172,-0.394965,0.755626
26,40,-0.567232,-0.698132,-0.174533,-0.174533,-0.572901,-0.694539,-0.161405,-0.199746,1.13378,-0.201172,-0.392856,0.756963
26,40,-0.567232,-0.698132,-0.174533,-0.174533,-0.572901,-0.694539,-0.161473,-0.199789,1.13378,-0.201172,-0.39075,0.758297
26,40,-0.567232,-0.698132,-0.174533,-0.174533,-0.572901,-0.694539,-0.161541,-0.199832,1.13378,-0.201172,-0.388709,0.75959
26,40,-0.567232,-0.698132,-0.174533,-0.174533,-0.572901,-0.694539,-0.161609,-0.199875,1.13378,-0.201172,-0.386482,0.761001
26,40,-0.567232,-0.698132,-0.174533,-0.174533,-0.572901,-0.694539,-0.161609,-0.199875,1.13378,-0.201172,-0.386484,0.761001
26,40,-0.567232,-0.698132,-0.174533,-0.174533,-0.572901,-0.694539,-0.161746,-0.199961,1.13378,-0.201172,-0.382397,0.763588
26,40,-0.567232,-0.698132,-0.174533,-0.174533,-0.572901,-0.694539,-0.161746,-0.199961,1.13378,-0.201172,-0.382399,0.763588
26,40,-0.567232,-0.698132,-0.174533,-0.174533,-0.572901,-0.694539,-0.161814,-0.200005,1.13378,-0.201172,-0.380304,0.764915
26,40,-0.567232,-0.698132,-0.174533,-0.174533,-0.572901,-0.694539,-0.161814,-0.200005,1.13378,-0.201172,-0.380306,0.764915
26,40,-0.567232,-0.698132,-0.174533,-0.174533,-0.572901,-0.694539,-0.161882,-0.200048,1.13378,-0.201172,-0.378262,0.766209
26,40,-0.567232,-0.698132,-0.174533,-0.174533,-0.572901,-0.694539,-0.16195,-0.200091,1.13378,-0.201172,-0.376381,0.7674
26,40,-0.567232,-0.698132,-0.174533,-0.174533,-0.572901,-0.694539,-0.162018,-0.200134,1.13378,-0.201172,-0.374336,0.768694
26,40,-0.567232,-0.698132,-0.174533,-0.174533,-0.572901,-0.694539,-0.162087,-0.200177,1.13378,-0.201172,-0.372366,0.769942
26,40,-0.567232,-0.698132,-0.174533,-0.174533,-0.572901,-0.694539,-0.162087,-0.200177,1.13378,-0.201172,-0.372367,0.769942
26,40,-0.567232,-0.698132,-0.174533,-0.174533,-0.572901,-0.694539,-0.162155,-0.20022,1.13378,-0.201172,-0.370286,0.771259
26,40,-0.567232,-0.698132,-0.174533,-0.174533,-0.572901,-0.694539,-0.162155,-0.20022,1.13378,-0.201172,-0.370288,0.771259
26,40,-0.567232,-0.698132,-0.174533,-0.174533,-0.572901,-0.694539,-0.162223,-0.200263,1.13378,-0.201172,-0.368223,0.772566
26,40,-0.567232,-0.698132,-0.174533,-0.174533,-0.572901,-0.694539,-0.162291,-0.200307,1.13378,-0.201172,-0.366311,0.773776
26,40,-0.567232,-0.698132,-0.174533,-0.174533,-0.572901,-0.694539,-0.16236,-0.20035,1.13378,-0.201172,-0.36425,0.77508
26,40,-0.567232,-0.698132,-0.174533,-0.174533,-0.572901,-0.694539,-0.162428,-0.200393,1.13378,-0.201172,-0.362173,0.776394
26,40,-0.567232,-0.698132,-0.174533,-0.174533,-0.572901,-0.694539,-0.162428,-0.200393,1.13378,-0.201172,-0.362174,0.776394
26,40,-0.567232,-0.698132,-0.174533,-0.174533,-0.572901,-0.694539,-0.162424,-0.200333,1.13378,-0.201172,-0.362324,0.773729
26,40,-0.567232,-0.698132,-0.174533,-0.174533,-0.572901,-0.694539,-0.162493,-0.200376,1.13378,-0.201172,-0.360149,0.775105
26,40,-0.567232,-0.698132,-0.174533,-0.174533,-0.572901,-0.694539,-0.162561,-0.20042,1.13378,-0.201172,-0.358161,0.776364
26,40,-0.567232,-0.698132,-0.174533,-0.174533,-0.572901,-0.694539,-0.162629,-0.200463,1.13378,-0.201172,-0.356095,0.777671
26,40,-0.567232,-0.698132,-0.174533,-0.174533,-0.572901,-0.694539,-0.162698,-0.200506,1.13378,-0.201172,-0.354063,0.77902
26,40,-0.567232,-0.698132,-0.174533,-0.174533,-0.572901,-0.694539,-0.162698,-0.200506,1.13378,-0.201172,-0.354055,0.77917
26,40,-0.567232,-0.698132,-0.174533,-0.174533,-0.572901,-0.694539,-0.162766,-0.200549,1.13378,-0.201172,-0.352086,0.780513
26,40,-0.567232,-0.698132,-0.174533,-0.174533,-0.572901,-0.694539,-0.162766,-0.200549,1.13378,-0.201172,-0.352083,0.780586
26,40,-0.567232,-0.698132,-0.174533,-0.174533,-0.572901,-0.694539,-0.162831,-0.200533,1.13378,-0.201172,-0.350044,0.780576
26,40,-0.567232,-0.698132,-0.174533,-0.174533,-0.572901,-0.694539,-0.162831,-0.200533,1.13378,-0.201172,-0.350045,0.780576
26,40,-0.567232,-0.698132,-0.174533,-0.174533,-0.572901,-0.694539,-0.162831,-0.200533,1.13378,-0.201172,-0.350046,0.780576
26,40,-0.567232,-0.698132,-0.174533,-0.174533,-0.572901,-0.694539,-0.162899,-0.200576,1.13378,-0.201172,-0.348122,0.781794
26,40,-0.567232,-0.698132,-0.174533,-0.174533,-0.572901,-0.694539,-0.162837,-0.200595,1.13378,-0.201172,-0.350107,0.7824
26,40,-0.567232,-0.698132,-0.174533,-0.174533,-0.572901,-0.694539,-0.162906,-0.200638,1.13378,-0.201172,-0.348174,0.783622
26,40,-0.567232,-0.698132,-0.174533,-0.174533,-0.572901,-0.694539,-0.162906,-0.200638,1.13378,-0.201172,-0.348174,0.783622
26,40,-0.567232,-0.698132,-0.174533,-0.174533,-0.572901,-0.694539,-0.162974,-0.200681,1.13378,-0.201172,-0.346235,0.784848
26,40,-0.567232,-0.698132,-0.174533,-0.174533,-0.572901,-0.694539,-0.162971,-0.200621,1.13378,-0.201172,-0.346339,0.783008
26,40,-0.567232,-0.698132,-0.174533,-0.174533,-0.572901,-0.694539,-0.162909,-0.20064,1.13378,-0.201172,-0.348119,0.783552
26,40,-0.567232,-0.698132,-0.174533,-0.174533,-0.572901,-0.694539,-0.162977,-0.200683,1.13378,-0.201172,-0.346055,0.784858
26,40,-0.567232,-0.698132,-0.174533,-0.174533,-0.572901,-0.694539,-0.162977,-0.200683,1.13378,-0.201172,-0.346055,0.784858
26,40,-0.567232,-0.698132,-0.174533,-0.174533,-0.572901,-0.694539,-0.162984,-0.200745,1.13378,-0.201172,-0.34624,0.786774
26,40,-0.567232,-0.698132,-0.174533,-0.174533,-0.572901,-0.694539,-0.162981,-0.200686,1.13378,-0.201172,-0.346347,0.784879
26,40,-0.567232,-0.698132,-0.174533,-0.174533,-0.572901,-0.694539,-0.162981,-0.200686,1.13378,-0.201172,-0.346347,0.784879
26,40,-0.567232,-0.698132,-0.174533,-0.174533,-0.572901,-0.694539,-0.162919,-0.200705,1.13378,-0.201172,-0.348311,0.785479
26,40,-0.567232,-0.698132,-0.174533,-0.174533,-0.572901,-0.694539,-0.162987,-0.200748,1.13378,-0.201172,-0.34626,0.786775
26,40,-0.567232,-0.698132,-0.174533,-0.174533,-0.572901,-0.694539,-0.162925,-0.200767,1.13378,-0.201172,-0.347737,0.787226
26,40,-0.567232,-0.698132,-0.174533,-0.174533,-0.572901,-0.694539,-0.162932,-0.200829,1.13378,-0.201172,-0.347886,0.789163
26,40,-0.567232,-0.698132,-0.174533,-0.174533,-0.572901,-0.694539,-0.162932,-0.200829,1.13378,-0.201172,-0.347886,0.789163
26,40,-0.567232,-0.698132,-0.174533,-0.174533,-0.572901,-0.694539,-0.16287,-0.200848,1.13378,-0.201172,-0.349913,0.789781
26,40,-0.567232,-0.698132,-0.174533,-0.174533,-0.572901,-0.694539,-0.16287,-0.200848,1.13378,-0.201172,-0.349913,0.789781
26,40,-0.567232,-0.698132,-0.174533,-0.174533,-0.572901,-0.694539,-0.162809,-0.200866,1.13378,-0.201172,-0.351818,0.790363
26,40,-0.567232,-0.698132,-0.174533,-0.174533,-0.572901,-0.694539,-0.162805,-0.200807,1.13378,-0.201172,-0.351913,0.78869
26,40,-0.567232,-0.698132,-0.174533,-0.174533,-0.572901,-0.694539,-0.162805,-0.200807,1.13378,-0.201172,-0.351913,0.78869
26,40,-0.567232,-0.698132,-0.174533,-0.174533,-0.572901,-0.694539,-0.162812,-0.200869,1.13378,-0.201172,-0.351783,0.790544
26,40,-0.567232,-0.698132,-0.174533,-0.174533,-0.572901,-0.694539,-0.162812,-0.200869,1.13378,-0.201172,-0.351783,0.790544
26,40,-0.567232,-0.698132,-0.174533,-0.174533,-0.572901,-0.694539,-0.16275,-0.200888,1.13378,-0.201172,-0.353589,0.791096
26,40,-0.567232,-0.698132,-0.174533,-0.174533,-0.572901,-0.694539,-0.16275,-0.200888,1.13378,-0.201172,-0.353589,0.791096
26,40,-0.567232,-0.698132,-0.174533,-0.174533,-0.572901,-0.694539,-0.16275,-0.200888,1.13378,-0.201172,-0.353589,0.791096
26,40,-0.567232,-0.698132,-0.174533,-0.174533,-0.572901,-0.694539,-0.162757,-0.20095,1.13378,-0.201172,-0.353424,0.792856
26,40,-0.567232,-0.698132,-0.174533,-0.174533,-0.572901,-0.694539,-0.162757,-0.20095,1.13378,-0.201172,-0.353424,0.792856
26,40,-0.567232,-0.698132,-0.174533,-0.174533,-0.572901,-0.694539,-0.162695,-0.200969,1.13378,-0.201172,-0.355291,0.793427
26,40,-0.567232,-0.698132,-0.174533,-0.174533,-0.572901,-0.694539,-0.162695,-0.200969,1.13378,-0.201172,-0.355291,0.793427
26,40,-0.567232,-0.698132,-0.174533,-0.174533,-0.572901,-0.694539,-0.162633,-0.200987,1.13378,-0.201172,-0.357132,0.793989
26,40,-0.567232,-0.698132,-0.174533,-0.174533,-0.572901,-0.694539,-0.162633,-0.200987,1.13378,-0.201172,-0.357132,0.793989
26,40,-0.567232,-0.698132,-0.174533,-0.174533,-0.572901,-0.694539,-0.162572,-0.201006,1.13378,-0.201172,-0.359002,0.79456
26,40,-0.567232,-0.698132,-0.174533,-0.174533,-0.572901,-0.694539,-0.162568,-0.200947,1.13378,-0.201172,-0.35911,0.792652
26,40,-0.567232,-0.698132,-0.174533,-0.174533,-0.572901,-0.694539,-0.162506,-0.200965,1.13378,-0.201172,-0.360998,0.793229
26,40,-0.567232,-0.698132,-0.174533,-0.174533,-0.572901,-0.694539,-0.162506,-0.200965,1.13378,-0.201172,-0.360998,0.793229
26,40,-0.567232,-0.698132,-0.174533,-0.174533,-0.572901,-0.694539,-0.162445,-0.200984,1.13378,-0.201172,-0.362852,0.793796
26,40,-0.567232,-0.698132,-0.174533,-0.174533,-0.572901,-0.694539,-0.162445,-0.200984,1.13378,-0.201172,-0.362852,0.793796
26,40,-0.567232,-0.698132,-0.174533,-0.174533,-0.572901,-0.694539,-0.162445,-0.200984,1.13378,-0.201172,-0.362852,0.793796
26,40,-0.567232,-0.698132,-0.174533,-0.174533,-0.572901,-0.694539,-0.162383,-0.201003,1.13378,-0.201172,-0.364717,0.794365
26,40,-0.567232,-0.698132,-0.174533,-0.174533,-0.572901,-0.694539,-0.162451,-0.201046,1.13378,-0.201172,-0.362729,0.795622
26,40,-0.567232,-0.698132,-0.174533,-0.174533,-0.572901,-0.694539,-0.162451,-0.201046,1.13378,-0.201172,-0.362729,0.795622
26,40,-0.567232,-0.698132,-0.174533,-0.174533,-0.572901,-0.694539,-0.162451,-0.201046,1.13378,-0.201172,-0.362729,0.795622
26,40,-0.567232,-0.698132,-0.174533,-0.174533,-0.572901,-0.694539,-0.162451,-0.201046,1.13378,-0.201172,-0.362729,0.795622
26,40,-0.567232,-0.698132,-0.174533,-0.174533,-0.572901,-0.694539,-0.16239,-0.201065,1.13378,-0.201172,-0.364513,0.796167
26,40,-0.567232,-0.698132,-0.174533,-0.174533,-0.572901,-0.694539,-0.16239,-0.201065,1.13378,-0.201172,-0.364513,0.796167
26,40,-0.567232,-0.698132,-0.174533,-0.174533,-0.572901,-0.694539,-0.16239,-0.201065,1.13378,-0.201172,-0.364513,0.796167
26,40,-0.567232,-0.698132,-0.174533,-0.174533,-0.572901,-0.694539,-0.162328,-0.201084,1.13378,-0.201172,-0.366273,0.796705
26,40,-0.567232,-0.698132,-0.174533,-0.174533,-0.572901,-0.694539,-0.162328,-0.201084,1.13378,-0.201172,-0.366273,0.796705
26,40,-0.567232,-0.698132,-0.174533,-0.174533,-0.572901,-0.694539,-0.162328,-0.201084,1.13378,-0.201172,-0.366273,0.796705
26,40,-0.567232,-0.698132,-0.174533,-0.174533,-0.572901,-0.694539,-0.162266,-0.201103,1.13378,-0.201172,-0.36808,0.797257
26,40,-0.567232,-0.698132,-0.174533,-0.174533,-0.572901,-0.694539,-0.162266,-0.201103,1.13378,-0.201172,-0.36808,0.797257
26,40,-0.567232,-0.698132,-0.174533,-0.174533,-0.572901,-0.694539,-0.162266,-0.201103,1.13378,-0.201172,-0.36808,0.797257
26,40,-0.567232,-0.698132,-0.174533,-0.174533,-0.572901,-0.694539,-0.162266,-0.201103,1.13378,-0.201172,-0.36808,0.797257
26,40,-0.567232,-0.698132,-0.174533,-0.174533,-0.572901,-0.694539,-0.162266,-0.201103,1.13378,-0.201172,-0.36808,0.797261
26,40,-0.567232,-0.698132,-0.174533,-0.174533,-0.572901,-0.694539,-0.162266,-0.201103,1.13378,-0.201172,-0.368079,0.797268
26,40,-0.567232,-0.698132,-0.174533,-0.174533,-0.572901,-0.694539,-0.162204,-0.201122,1.13378,-0.201172,-0.369904,0.797832
26,40,-0.567232,-0.698132,-0.174533,-0.174533,-0.572901,-0.694539,-0.162204,-0.201122,1.13378,-0.201172,-0.369904,0.797838
26,40,-0.567232,-0.698132,-0.174533,-0.174533,-0.572901,-0.694539,-0.162201,-0.201062,1.13378,-0.201172,-0.370004,0.796053
26,40,-0.567232,-0.698132,-0.174533,-0.174533,-0.572901,-0.694539,-0.162201,-0.201062,1.13378,-0.201172,-0.370004,0.796053
26,40,-0.567232,-0.698132,-0.174533,-0.174533,-0.572901,-0.694539,-0.162201,-0.201062,1.13378,-0.201172,-0.370004,0.796053
26,40,-0.567232,-0.698132,-0.174533,-0.174533,-0.572901,-0.694539,-0.162201,-0.201062,1.13378,-0.201172,-0.370004,0.796053
26,40,-0.567232,-0.698132,-0.174533,-0.174533,-0.572901,-0.694539,-0.162139,-0.201081,1.13378,-0.201172,-0.371793,0.7966
26,40,-0.567232,-0.698132,-0.174533,-0.174533,-0.572901,-0.694539,-0.162139,-0.201081,1.13378,-0.201172,-0.371793,0.7966
26,40,-0.567232,-0.698132,-0.174533,-0.174533,-0.572901,-0.694539,-0.162139,-0.201081,1.13378,-0.201172,-0.371793,0.7966
26,40,-0.567232,-0.698132,-0.174533,-0.174533,-0.572901,-0.694539,-0.162139,-0.201081,1.13378,-0.201172,-0.371793,0.7966
26,40,-0.567232,-0.698132,-0.174533,-0.174533,-0.572901,-0.694539,-0.162139,-0.201081,1.13378,-0.201172,-0.371793,0.7966
26,40,-0.567232,-0.698132,-0.174533,-0.174533,-0.572901,-0.694539,-0.162139,-0.201081,1.13378,-0.201172,-0.371793,0.7966
26,40,-0.567232,-0.698132,-0.174533,-0.174533,-0.572901,-0.694539,-0.162139,-0.201081,1.13378,-0.201172,-0.371793,0.7966
26,40,-0.567232,-0.698132,-0.174533,-0.174533,-0.572901,-0.694539,-0.162139,-0.201081,1.13378,-0.201172,-0.371793,0.7966
26,40,-0.567232,-0.698132,-0.174533,-0.174533,-0.572901,-0.694539,-0.162139,-0.201081,1.13378,-0.201172,-0.371793,0.7966
26,40,-0.567232,-0.698132,-0.174533,-0.174533,-0.572901,-0.694539,-0.162139,-0.201081,1.13378,-0.201172,-0.371793,0.7966
26,40,-0.567232,-0.698132,-0.174533,-0.174533,-0.572901,-0.694539,-0.162077,-0.2011,1.13378,-0.201172,-0.373626,0.79716
26,40,-0.567232,-0.698132,-0.174533,-0.174533,-0.572901,-0.694539,-0.162077,-0.2011,1.13378,-0.201172,-0.373626,0.79716
26,40,-0.567232,-0.698132,-0.174533,-0.174533,-0.572901,-0.694539,-0.162077,-0.2011,1.13378,-0.201172,-0.373626,0.79716
26,40,-0.567232,-0.698132,-0.174533,-0.174533,-0.572901,-0.694539,-0.162077,-0.2011,1.13378,-0.201172,-0.373626,0.79716
26,40,-0.567232,-0.698132,-0.174533,-0.174533,-0.572901,-0.694539,-0.162077,-0.2011,1.13378,-0.201172,-0.373626,0.79716
26,40,-0.567232,-0.698132,-0.174533,-0.174533,-0.572901,-0.694539,-0.162077,-0.2011,1.13378,-0.201172,-0.373626,0.79716
26,40,-0.567232,-0.698132,-0.174533,-0.174533,-0.572901,-0.694539,-0.162077,-0.2011,1.13378,-0.201172,-0.373626,0.79716
26,40,-0.567232,-0.698132,-0.174533,-0.174533,-0.572901,-0.694539,-0.162074,-0.20104,1.13378,-0.201172,-0.373725,0.795408
26,40,-0.567232,-0.698132,-0.174533,-0.174533,-0.572901,-0.694539,-0.162074,-0.20104,1.13378,-0.201172,-0.373725,0.795408
26,40,-0.567232,-0.698132,-0.174533,-0.174533,-0.572901,-0.694539,-0.162074,-0.20104,1.13378,-0.201172,-0.373725,0.795408
26,40,-0.567232,-0.698132,-0.174533,-0.174533,-0.572901,-0.694539,-0.162074,-0.20104,1.13378,-0.201172,-0.373725,0.795408
26,40,-0.567232,-0.698132,-0.174533,-0.174533,-0.572901,-0.694539,-0.162074,-0.20104,1.13378,-0.201172,-0.373725,0.795408
26,40,-0.567232,-0.698132,-0.174533,-0.174533,-0.572901,-0.694539,-0.162074,-0.20104,1.13378,-0.201172,-0.373719,0.795406
26,40,-0.567232,-0.698132,-0.174533,-0.174533,-0.572901,-0.694539,-0.162074,-0.20104,1.13378,-0.201172,-0.373699,0.7954
26,40,-0.567232,-0.698132,-0.174533,-0.174533,-0.572901,-0.694539,-0.162006,-0.200997,1.13378,-0.201172,-0.376129,0.793848
26,40,-0.567232,-0.698132,-0.174533,-0.174533,-0.572901,-0.694539,-0.162006,-0.200997,1.13378,-0.201172,-0.376115,0.793844
26,40,-0.567232,-0.698132,-0.174533,-0.174533,-0.572901,-0.694539,-0.162006,-0.200997,1.13378,-0.201172,-0.376102,0.79384
26,40,-0.567232,-0.698132,-0.174533,-0.174533,-0.572901,-0.694539,-0.162006,-0.200997,1.13378,-0.201172,-0.37609,0.793836
26,40,-0.567232,-0.698132,-0.174533,-0.174533,-0.572901,-0.694539,-0.161938,-0.200954,1.13378,-0.201172,-0.37807,0.792576
26,40,-0.567232,-0.698132,-0.174533,-0.174533,-0.572901,-0.694539,-0.161938,-0.200954,1.13378,-0.201172,-0.378061,0.792573
26,40,-0.567232,-0.698132,-0.174533,-0.174533,-0.572901,-0.694539,-0.161938,-0.200954,1.13378,-0.201172,-0.378052,0.79257
26,40,-0.567232,-0.698132,-0.174533,-0.174533,-0.572901,-0.694539,-0.161938,-0.200954,1.13378,-0.201172,-0.378045,0.792568
26,40,-0.567232,-0.698132,-0.174533,-0.174533,-0.572901,-0.694539,-0.161938,-0.200954,1.13378,-0.201172,-0.378038,0.792566
26,40,-0.567232,-0.698132,-0.174533,-0.174533,-0.572901,-0.694539,-0.161869,-0.200911,1.13378,-0.201172,-0.380488,0.791011
26,40,-0.567232,-0.698132,-0.174533,-0.174533,-0.572901,-0.694539,-0.161869,-0.200911,1.13378,-0.201172,-0.380482,0.79101
26,40,-0.567232,-0.698132,-0.174533,-0.174533,-0.572901,-0.694539,-0.161869,-0.200911,1.13378,-0.201172,-0.380477,0.791008
26,40,-0.567232,-0.698132,-0.174533,-0.174533,-0.572901,-0.694539,-0.161869,-0.200911,1.13378,-0.201172,-0.380472,0.791007
26,40,-0.567232,-0.698132,-0.174533,-0.174533,-0.572901,-0.694539,-0.161869,-0.200911,1.13378,-0.201172,-0.380467,0.791005
26,40,-0.567232,-0.698132,-0.174533,-0.174533,-0.572901,-0.694539,-0.161801,-0.200867,1.13378,-0.201172,-0.382409,0.789774
26,40,-0.567232,-0.698132,-0.174533,-0.174533,-0.572901,-0.694539,-0.161801,-0.200867,1.13378,-0.201172,-0.382405,0.789773
26,40,-0.567232,-0.698132,-0.174533,-0.174533,-0.572901,-0.694539,-0.161801,-0.200867,1.13378,-0.201172,-0.382402,0.789771
26,40,-0.567232,-0.698132,-0.174533,-0.174533,-0.572901,-0.694539,-0.161733,-0.200824,1.13378,-0.201172,-0.384223,0.78863
26,40,-0.567232,-0.698132,-0.174533,-0.174533,-0.572901,-0.694539,-0.161733,-0.200824,1.13378,-0.201172,-0.384219,0.788629
26,40,-0.567232,-0.698132,-0.174533,-0.174533,-0.572901,-0.694539,-0.161664,-0.200781,1.13378,-0.201172,-0.386491,0.787178
26,40,-0.567232,-0.698132,-0.174533,-0.174533,-0.572901,-0.694539,-0.161664,-0.200781,1.13378,-0.201172,-0.386488,0.787177
26,40,-0.567232,-0.698132,-0.174533,-0.174533,-0.572901,-0.694539,-0.161596,-0.200738,1.13378,-0.201172,-0.388559,0.785865
26,40,-0.567232,-0.698132,-0.174533,-0.174533,-0.572901,-0.694539,-0.161528,-0.200695,1.13378,-0.201172,-0.390713,0.784502
26,40,-0.567232,-0.698132,-0.174533,-0.174533,-0.572901,-0.694539,-0.16146,-0.200652,1.13378,-0.201172,-0.392996,0.783056
26,40,-0.567232,-0.698132,-0.174533,-0.174533,-0.572901,-0.694539,-0.16146,-0.200652,1.13378,-0.201172,-0.392994,0.783055
26,40,-0.567232,-0.698132,-0.174533,-0.174533,-0.572901,-0.694539,-0.16146,-0.200652,1.13378,-0.201172,-0.392992,0.783055
26,40,-0.567232,-0.698132,-0.174533,-0.174533,-0.572901,-0.694539,-0.161391,-0.200609,1.13378,-0.201172,-0.395173,0.781674
26,40,-0.567232,-0.698132,-0.174533,-0.174533,-0.572901,-0.694539,-0.161391,-0.200609,1.13378,-0.201172,-0.395171,0.781674
26,40,-0.567232,-0.698132,-0.174533,-0.174533,-0.572901,-0.694539,-0.161323,-0.200565,1.13378,-0.201172,-0.397189,0.780396
26,40,-0.567232,-0.698132,-0.174533,-0.174533,-0.572901,-0.694539,-0.161255,-0.200522,1.13378,-0.201172,-0.399209,0.779119
26,40,-0.567232,-0.698132,-0.174533,-0.174533,-0.572901,-0.694539,-0.161255,-0.200522,1.13378,-0.201172,-0.399207,0.779121
26,40,-0.567232,-0.698132,-0.174533,-0.174533,-0.572901,-0.694539,-0.161187,-0.200479,1.13378,-0.201172,-0.401263,0.777821
26,40,-0.567232,-0.698132,-0.174533,-0.174533,-0.572901,-0.694539,-0.161187,-0.200479,1.13378,-0.201172,-0.401262,0.777823
26,40,-0.567232,-0.698132,-0.174533,-0.174533,-0.572901,-0.694539,-0.161119,-0.200436,1.13378,-0.201172,-0.403199,0.776599
26,40,-0.567232,-0.698132,-0.174533,-0.174533,-0.572901,-0.694539,-0.161119,-0.200436,1.13378,-0.201172,-0.403197,0.7766
26,40,-0.567232,-0.698132,-0.174533,-0.174533,-0.572901,-0.694539,-0.16105,-0.200393,1.13378,-0.201172,-0.40528,0.775284
26,40,-0.567232,-0.698132,-0.174533,-0.174533,-0.572901,-0.694539,-0.16105,-0.200393,1.13378,-0.201172,-0.405279,0.775285
26,40,-0.567232,-0.698132,-0.174533,-0.174533,-0.572901,-0.694539,-0.160982,-0.20035,1.13378,-0.201172,-0.407333,0.773987
26,40,-0.567232,-0.698132,-0.174533,-0.174533,-0.572901,-0.694539,-0.160914,-0.200307,1.13378,-0.201172,-0.409356,0.772708
26,40,-0.567232,-0.698132,-0.174533,-0.174533,-0.572901,-0.694539,-0.160914,-0.200307,1.13378,-0.201172,-0.409355,0.772709
26,40,-0.567232,-0.698132,-0.174533,-0.174533,-0.572901,-0.694539,-0.160846,-0.200264,1.13378,-0.201172,-0.41143,0.771398
26,40,-0.567232,-0.698132,-0.174533,-0.174533,-0.572901,-0.694539,-0.160778,-0.200221,1.13378,-0.201172,-0.413545,0.770061
26,40,-0.567232,-0.698132,-0.174533,-0.174533,-0.572901,-0.694539,-0.16071,-0.200178,1.13378,-0.201172,-0.415725,0.768683
26,40,-0.567232,-0.698132,-0.174533,-0.174533,-0.572901,-0.694539,-0.16071,-0.200178,1.13378,-0.201172,-0.415724,0.768684
26,40,-0.567232,-0.698132,-0.174533,-0.174533,-0.572901,-0.694539,-0.160641,-0.200134,1.13378,-0.201172,-0.417785,0.767381
26,40,-0.567232,-0.698132,-0.174533,-0.174533,-0.572901,-0.694539,-0.160641,-0.200134,1.13378,-0.201172,-0.417784,0.767382
26,40,-0.567232,-0.698132,-0.174533,-0.174533,-0.572901,-0.694539,-0.160573,-0.200091,1.13378,-0.201172,-0.419774,0.766124
26,40,-0.567232,-0.698132,-0.174533,-0.174533,-0.572901,-0.694539,-0.160573,-0.200091,1.13378,-0.201172,-0.419773,0.766125
26,40,-0.567232,-0.698132,-0.174533,-0.174533,-0.572901,-0.694539,-0.160573,-0.200091,1.13378,-0.201172,-0.419772,0.766126
26,40,-0.567232,-0.698132,-0.174533,-0.174533,-0.572901,-0.694539,-0.160505,-0.200048,1.13378,-0.201172,-0.421712,0.7649
26,40,-0.567232,-0.698132,-0.174533,-0.174533,-0.572901,-0.694539,-0.160505,-0.200048,1.13378,-0.201172,-0.421711,0.7649
26,40,-0.567232,-0.698132,-0.174533,-0.174533,-0.572901,-0.694539,-0.160437,-0.200005,1.13378,-0.201172,-0.423621,0.763693
26,40,-0.567232,-0.698132,-0.174533,-0.174533,-0.572901,-0.694539,-0.160437,-0.200005,1.13378,-0.201172,-0.42362,0.763694
26,40,-0.567232,-0.698132,-0.174533,-0.174533,-0.572901,-0.694539,-0.160437,-0.200005,1.13378,-0.201172,-0.423619,0.763694
26,40,-0.567232,-0.698132,-0.174533,-0.174533,-0.572901,-0.694539,-0.160369,-0.199962,1.13378,-0.201172,-0.42561,0.762436
26,40,-0.567232,-0.698132,-0.174533,-0.174533,-0.572901,-0.694539,-0.160369,-0.199962,1.13378,-0.201172,-0.425609,0.762436
26,40,-0.567232,-0.698132,-0.174533,-0.174533,-0.572901,-0.694539,-0.160301,-0.199919,1.13378,-0.201172,-0.427574,0.761194
26,40,-0.567232,-0.698132,-0.174533,-0.174533,-0.572901,-0.694539,-0.160301,-0.199919,1.13378,-0.201172,-0.427573,0.761195
26,40,-0.567232,-0.698132,-0.174533,-0.174533,-0.572901,-0.694539,-0.160233,-0.199876,1.13378,-0.201172,-0.429603,0.759911
26,40,-0.567232,-0.698132,-0.174533,-0.174533,-0.572901,-0.694539,-0.160233,-0.199876,1.13378,-0.201172,-0.429602,0.759912
26,40,-0.567232,-0.698132,-0.174533,-0.174533,-0.572901,-0.694539,-0.160233,-0.199876,1.13378,-0.201172,-0.429602,0.759912
26,40,-0.567232,-0.698132,-0.174533,-0.174533,-0.572901,-0.694539,-0.160165,-0.199833,1.13378,-0.201172,-0.431661,0.75861
26,40,-0.567232,-0.698132,-0.174533,-0.174533,-0.572901,-0.694539,-0.160165,-0.199833,1.13378,-0.201172,-0.431661,0.758611
26,40,-0.567232,-0.698132,-0.174533,-0.174533,-0.572901,-0.694539,-0.160165,-0.199833,1.13378,-0.201172,-0.43166,0.758611
26,40,-0.567232,-0.698132,-0.174533,-0.174533,-0.572901,-0.694539,-0.160165,-0.199833,1.13378,-0.201172,-0.431659,0.758612
26,40,-0.567232,-0.698132,-0.174533,-0.174533,-0.572901,-0.694539,-0.160097,-0.19979,1.13378,-0.201172,-0.433665,0.757343
26,40,-0.567232,-0.698132,-0.174533,-0.174533,-0.572901,-0.694539,-0.160097,-0.19979,1.13378,-0.201172,-0.433665,0.757344
26,40,-0.567232,-0.698132,-0.174533,-0.174533,-0.572901,-0.694539,-0.160029,-0.199747,1.13378,-0.201172,-0.435674,0.756073
26,40,-0.567232,-0.698132,-0.174533,-0.174533,-0.572901,-0.694539,-0.16009,-0.199728,1.13378,-0.201172,-0.433651,0.755452
26,40,-0.567232,-0.698132,-0.174533,-0.174533,-0.572901,-0.694539,-0.16009,-0.199728,1.13378,-0.201172,-0.433651,0.755452
26,40,-0.567232,-0.698132,-0.174533,-0.174533,-0.572901,-0.694539,-0.16009,-0.199728,1.13378,-0.201172,-0.433651,0.755453
26,40,-0.567232,-0.698132,-0.174533,-0.174533,-0.572901,-0.694539,-0.16009,-0.199728,1.13378,-0.201172,-0.433651,0.755454
26,40,-0.567232,-0.698132,-0.174533,-0.174533,-0.572901,-0.694539,-0.16009,-0.199728,1.13378,-0.201172,-0.433651,0.755454
26,40,-0.567232,-0.698132,-0.174533,-0.174533,-0.572901,-0.694539,-0.160022,-0.199685,1.13378,-0.201172,-0.435675,0.754175
26,40,-0.567232,-0.698132,-0.174533,-0.174533,-0.572901,-0.694539,-0.160022,-0.199685,1.13378,-0.201172,-0.435675,0.754175
26,40,-0.567232,-0.698132,-0.174533,-0.174533,-0.572901,-0.694539,-0.160022,-0.199685,1.13378,-0.201172,-0.435675,0.754176
26,40,-0.567232,-0.698132,-0.174533,-0.174533,-0.572901,-0.694539,-0.160022,-0.199685,1.13378,-0.201172,-0.435675,0.754176
26,40,-0.567232,-0.698132,-0.174533,-0.174533,-0.572901,-0.694539,-0.159954,-0.199642,1.13378,-0.201172,-0.437598,0.75296
