stim_pw [us],stim_amp [mA],com_elbow_fe [rad],com_forearm_ps [rad],com_wrist_fe [rad],com_wrist_ru [rad],act_elbow_fe [rad],act_forearm_ps [rad],act_wrist_fe [rad],act_wrist_ru [rad],elbow_fe_trq [Nm],forearm_ps_trq [Nm],wrist_fe_trq [Nm],wrist_ru_trq [Nm]
26,60,-1.0472,-0.698132,0.174533,-0.174533,-1.04465,-0.689354,0.174398,-0.180731,-0.509282,-0.491576,0.00398285,0.185954
26,60,-1.0472,-0.698132,0.174533,-0.174533,-1.04465,-0.689354,0.174398,-0.180731,-0.509282,-0.491576,0.00398285,0.185954
26,60,-1.0472,-0.698132,0.174533,-0.174533,-1.04465,-0.689354,0.174398,-0.180731,-0.509282,-0.491576,0.00398285,0.185954
26,60,-1.0472,-0.698132,0.174533,-0.174533,-1.04465,-0.689354,0.174398,-0.180731,-0.509282,-0.491576,0.00398285,0.185954
26,60,-1.0472,-0.698132,0.174533,-0.174533,-1.04465,-0.689354,0.174398,-0.180731,-0.509282,-0.491576,0.00398285,0.185954
26,60,-1.0472,-0.698132,0.174533,-0.174533,-1.04465,-0.689354,0.174398,-0.180731,-0.509282,-0.491576,0.00398375,0.185954
26,60,-1.0472,-0.698132,0.174533,-0.174533,-1.04465,-0.689354,0.174398,-0.180731,-0.509282,-0.491576,0.00398479,0.185954
26,60,-1.0472,-0.698132,0.174533,-0.174533,-1.04465,-0.689354,0.174398,-0.180731,-0.509282,-0.491576,0.0039858,0.185953
26,60,-1.0472,-0.698132,0.174533,-0.174533,-1.04465,-0.689354,0.174398,-0.180731,-0.509282,-0.491576,0.00398677,0.185953
26,60,-1.0472,-0.698132,0.174533,-0.174533,-1.04465,-0.689354,0.174398,-0.180731,-0.509282,-0.491576,0.00398771,0.185952
26,60,-1.0472,-0.698132,0.174533,-0.174533,-1.04465,-0.689354,0.174398,-0.180731,-0.509282,-0.491576,0.00398863,0.185952
26,60,-1.0472,-0.698132,0.174533,-0.174533,-1.04465,-0.689354,0.174398,-0.180731,-0.509282,-0.491576,0.00398951,0.185952
26,60,-1.0472,-0.698132,0.174533,-0.174533,-1.04465,-0.689354,0.174398,-0.180731,-0.509282,-0.491576,0.00399037,0.185951
26,60,-1.0472,-0.698132,0.174533,-0.174533,-1.04465,-0.689354,0.174398,-0.180731,-0.509282,-0.491576,0.0039912,0.185951
26,60,-1.0472,-0.698132,0.174533,-0.174533,-1.04465,-0.689354,0.174398,-0.180731,-0.509282,-0.491576,0.00399201,0.185951
26,60,-1.0472,-0.698132,0.174533,-0.174533,-1.04465,-0.689354,0.174398,-0.180731,-0.509282,-0.491576,0.0039928,0.18595
26,60,-1.0472,-0.698132,0.174533,-0.174533,-1.04465,-0.689354,0.174398,-0.180731,-0.509282,-0.491576,0.00399356,0.18595
26,60,-1.0472,-0.698132,0.174533,-0.174533,-1.04465,-0.689354,0.174398,-0.180731,-0.509282,-0.491576,0.0039943,0.18595
26,60,-1.0472,-0.698132,0.174533,-0.174533,-1.04465,-0.689354,0.174398,-0.180731,-0.509282,-0.491576,0.00399502,0.185949
26,60,-1.0472,-0.698132,0.174533,-0.174533,-1.04465,-0.689354,0.174398,-0.180731,-0.509282,-0.491576,0.00399572,0.185949
26,60,-1.0472,-0.698132,0.174533,-0.174533,-1.04465,-0.689354,0.174398,-0.180731,-0.509282,-0.491576,0.0039964,0.185949
26,60,-1.0472,-0.698132,0.174533,-0.174533,-1.04465,-0.689354,0.174398,-0.180731,-0.509282,-0.491576,0.00399707,0.185949
26,60,-1.0472,-0.698132,0.174533,-0.174533,-1.04465,-0.689354,0.174398,-0.180731,-0.509282,-0.491576,0.00399771,0.185948
26,60,-1.0472,-0.698132,0.174533,-0.174533,-1.04465,-0.689354,0.174398,-0.180731,-0.509282,-0.491576,0.00399834,0.185948
26,60,-1.0472,-0.698132,0.174533,-0.174533,-1.04465,-0.689354,0.174398,-0.180731,-0.509282,-0.491576,0.00399896,0.185948
26,60,-1.0472,-0.698132,0.174533,-0.174533,-1.04465,-0.689354,0.174398,-0.180731,-0.509282,-0.491576,0.00399956,0.185948
26,60,-1.0472,-0.698132,0.174533,-0.174533,-1.04465,-0.689354,0.174398,-0.180731,-0.509282,-0.491576,0.00400014,0.185947
26,60,-1.0472,-0.698132,0.174533,-0.174533,-1.04465,-0.689354,0.174398,-0.180731,-0.509282,-0.491576,0.00400071,0.185947
26,60,-1.0472,-0.698132,0.174533,-0.174533,-1.04465,-0.689354,0.174398,-0.180731,-0.509282,-0.491576,0.00400126,0.185947
26,60,-1.0472,-0.698132,0.174533,-0.174533,-1.04465,-0.689354,0.174398,-0.180731,-0.509282,-0.491576,0.00400181,0.185947
26,60,-1.0472,-0.698132,0.174533,-0.174533,-1.04465,-0.689354,0.174398,-0.180731,-0.509282,-0.491576,0.00400233,0.185946
26,60,-1.0472,-0.698132,0.174533,-0.174533,-1.04465,-0.689354,0.174398,-0.180731,-0.509282,-0.491576,0.00400285,0.185946
26,60,-1.0472,-0.698132,0.174533,-0.174533,-1.04465,-0.689354,0.174398,-0.180731,-0.509282,-0.491576,0.00400336,0.185946
26,60,-1.0472,-0.698132,0.174533,-0.174533,-1.04465,-0.689354,0.174398,-0.180731,-0.509282,-0.491576,0.00400385,0.185946
26,60,-1.0472,-0.698132,0.174533,-0.174533,-1.04465,-0.689354,0.174398,-0.180731,-0.509282,-0.491576,0.00400433,0.185946
26,60,-1.0472,-0.698132,0.174533,-0.174533,-1.04465,-0.689354,0.174398,-0.180731,-0.509282,-0.491576,0.0040048,0.185945
26,60,-1.0472,-0.698132,0.174533,-0.174533,-1.04465,-0.689354,0.174398,-0.180731,-0.509282,-0.491576,0.00400526,0.185945
26,60,-1.0472,-0.698132,0.174533,-0.174533,-1.04465,-0.689354,0.174398,-0.180731,-0.509282,-0.491576,0.00400571,0.185945
26,60,-1.0472,-0.698132,0.174533,-0.174533,-1.04465,-0.689354,0.174398,-0.180731,-0.509282,-0.491576,0.00400615,0.185945
26,60,-1.0472,-0.698132,0.174533,-0.174533,-1.04465,-0.689354,0.174398,-0.180731,-0.509282,-0.491576,0.00400658,0.185945
26,60,-1.0472,-0.698132,0.174533,-0.174533,-1.04465,-0.689354,0.174398,-0.180731,-0.509282,-0.491576,0.00400701,0.185945
26,60,-1.0472,-0.698132,0.174533,-0.174533,-1.04465,-0.689354,0.174398,-0.180731,-0.509282,-0.491576,0.00400742,0.185944
26,60,-1.0472,-0.698132,0.174533,-0.174533,-1.04465,-0.689354,0.174398,-0.180731,-0.509282,-0.491576,0.00400782,0.185944
26,60,-1.0472,-0.698132,0.174533,-0.174533,-1.04465,-0.689354,0.174398,-0.180731,-0.509282,-0.491576,0.00400822,0.185944
26,60,-1.0472,-0.698132,0.174533,-0.174533,-1.04465,-0.689354,0.174398,-0.180731,-0.509282,-0.491576,0.00400861,0.185944
26,60,-1.0472,-0.698132,0.174533,-0.174533,-1.04465,-0.689354,0.174398,-0.180731,-0.509282,-0.491576,0.00400899,0.185944
26,60,-1.0472,-0.698132,0.174533,-0.174533,-1.04465,-0.689354,0.174398,-0.180731,-0.509282,-0.491576,0.00400936,0.185944
26,60,-1.0472,-0.698132,0.174533,-0.174533,-1.04465,-0.689354,0.174398,-0.180731,-0.509282,-0.491576,0.00400973,0.185943
26,60,-1.0472,-0.698132,0.174533,-0.174533,-1.04465,-0.689354,0.174398,-0.180731,-0.509282,-0.491576,0.00401008,0.185943
26,60,-1.0472,-0.698132,0.174533,-0.174533,-1.04465,-0.689354,0.174398,-0.180731,-0.509282,-0.491576,0.00401043,0.185943
26,60,-1.0472,-0.698132,0.174533,-0.174533,-1.04465,-0.689354,0.174398,-0.180731,-0.509282,-0.491576,0.00401078,0.185943
26,60,-1.0472,-0.698132,0.174533,-0.174533,-1.04465,-0.689354,0.174398,-0.180731,-0.509282,-0.491576,0.00401112,0.185943
26,60,-1.0472,-0.698132,0.174533,-0.174533,-1.04465,-0.689354,0.174398,-0.180731,-0.509282,-0.491576,0.00401145,0.185943
26,60,-1.0472,-0.698132,0.174533,-0.174533,-1.04465,-0.689354,0.174398,-0.180731,-0.509282,-0.491576,0.00401177,0.185943
26,60,-1.0472,-0.698132,0.174533,-0.174533,-1.04465,-0.689354,0.174398,-0.180731,-0.509282,-0.491576,0.00401209,0.185942
26,60,-1.0472,-0.698132,0.174533,-0.174533,-1.04465,-0.689354,0.174398,-0.180731,-0.509282,-0.491576,0.00401241,0.185942
26,60,-1.0472,-0.698132,0.174533,-0.174533,-1.04465,-0.689354,0.174398,-0.180731,-0.509282,-0.491576,0.00401271,0.185942
26,60,-1.0472,-0.698132,0.174533,-0.174533,-1.04465,-0.689354,0.174398,-0.180731,-0.509282,-0.491576,0.00401302,0.185942
26,60,-1.0472,-0.698132,0.174533,-0.174533,-1.04465,-0.689354,0.174398,-0.180731,-0.509282,-0.491576,0.00401331,0.185942
26,60,-1.0472,-0.698132,0.174533,-0.174533,-1.04465,-0.689354,0.174398,-0.180731,-0.509282,-0.491576,0.00401361,0.185942
26,60,-1.0472,-0.698132,0.174533,-0.174533,-1.04465,-0.689354,0.174398,-0.180731,-0.509282,-0.491576,0.00401389,0.185942
26,60,-1.0472,-0.698132,0.174533,-0.174533,-1.04465,-0.689354,0.174398,-0.180731,-0.509282,-0.491576,0.00401417,0.185942
26,60,-1.0472,-0.698132,0.174533,-0.174533,-1.04465,-0.689354,0.174398,-0.180731,-0.509282,-0.491576,0.00401445,0.185941
26,60,-1.0472,-0.698132,0.174533,-0.174533,-1.04465,-0.689354,0.174398,-0.180731,-0.509282,-0.491576,0.00401472,0.185941
26,60,-1.0472,-0.698132,0.174533,-0.174533,-1.04465,-0.689354,0.174398,-0.180731,-0.509282,-0.491576,0.00401499,0.185941
26,60,-1.0472,-0.698132,0.174533,-0.174533,-1.04465,-0.689354,0.174398,-0.180731,-0.509282,-0.491576,0.00401525,0.185941
26,60,-1.0472,-0.698132,0.174533,-0.174533,-1.04465,-0.689354,0.174398,-0.180731,-0.509282,-0.491576,0.00401551,0.185941
26,60,-1.0472,-0.698132,0.174533,-0.174533,-1.04465,-0.689354,0.174398,-0.180731,-0.509282,-0.491576,0.00401576,0.185941
26,60,-1.0472,-0.698132,0.174533,-0.174533,-1.04465,-0.689354,0.174398,-0.180731,-0.509282,-0.491576,0.00401601,0.185941
26,60,-1.0472,-0.698132,0.174533,-0.174533,-1.04465,-0.689354,0.174398,-0.180731,-0.509282,-0.491576,0.00401626,0.185941
26,60,-1.0472,-0.698132,0.174533,-0.174533,-1.04465,-0.689354,0.174398,-0.180731,-0.509282,-0.491576,0.0040165,0.185941
26,60,-1.0472,-0.698132,0.174533,-0.174533,-1.04465,-0.689354,0.174398,-0.180731,-0.509282,-0.491576,0.00401674,0.185941
26,60,-1.0472,-0.698132,0.174533,-0.174533,-1.04465,-0.689354,0.174398,-0.180731,-0.509282,-0.491576,0.00401698,0.18594
26,60,-1.0472,-0.698132,0.174533,-0.174533,-1.04465,-0.689354,0.174398,-0.180731,-0.509282,-0.491576,0.00401721,0.18594
26,60,-1.0472,-0.698132,0.174533,-0.174533,-1.04465,-0.689354,0.174398,-0.180731,-0.509282,-0.491576,0.00401743,0.18594
26,60,-1.0472,-0.698132,0.174533,-0.174533,-1.04465,-0.689354,0.174398,-0.180731,-0.509282,-0.491576,0.00401766,0.18594
26,60,-1.0472,-0.698132,0.174533,-0.174533,-1.04465,-0.689354,0.174398,-0.180731,-0.509282,-0.491576,0.00401788,0.18594
26,60,-1.0472,-0.698132,0.174533,-0.174533,-1.04465,-0.689354,0.17447,-0.18076,-0.509282,-0.491576,0.00184703,0.186825
26,60,-1.0472,-0.698132,0.174533,-0.174533,-1.04465,-0.689354,0.17447,-0.18076,-0.509282,-0.491576,0.00184703,0.186825
26,60,-1.0472,-0.698132,0.174533,-0.174533,-1.04465,-0.689354,0.17447,-0.18076,-0.509282,-0.491576,0.00184703,0.186825
26,60,-1.0472,-0.698132,0.174533,-0.174533,-1.04465,-0.689354,0.17447,-0.18076,-0.509282,-0.491576,0.00184703,0.186825
26,60,-1.0472,-0.698132,0.174533,-0.174533,-1.04465,-0.689354,0.17447,-0.18076,-0.509282,-0.491576,0.00184703,0.186825
26,60,-1.0472,-0.698132,0.174533,-0.174533,-1.04465,-0.689354,0.17447,-0.18076,-0.509282,-0.491576,0.00184703,0.186825
26,60,-1.0472,-0.698132,0.174533,-0.174533,-1.04465,-0.689354,0.17447,-0.18076,-0.509282,-0.491576,0.00184703,0.186825
26,60,-1.0472,-0.698132,0.174533,-0.174533,-1.04465,-0.689354,0.17447,-0.18076,-0.509282,-0.491576,0.00184703,0.186825
26,60,-1.0472,-0.698132,0.174533,-0.174533,-1.04465,-0.689354,0.17447,-0.18076,-0.509282,-0.491576,0.00184703,0.186825
26,60,-1.0472,-0.698132,0.174533,-0.174533,-1.04465,-0.689354,0.17447,-0.18076,-0.509282,-0.491576,0.00184703,0.186825
26,60,-1.0472,-0.698132,0.174533,-0.174533,-1.04465,-0.689354,0.17447,-0.18076,-0.509282,-0.491576,0.00184703,0.186825
26,60,-1.0472,-0.698132,0.174533,-0.174533,-1.04465,-0.689354,0.17447,-0.18076,-0.509282,-0.491576,0.00184703,0.186825
26,60,-1.0472,-0.698132,0.174533,-0.174533,-1.04465,-0.689354,0.17447,-0.18076,-0.509282,-0.491576,0.00184703,0.186825
26,60,-1.0472,-0.698132,0.174533,-0.174533,-1.04465,-0.689354,0.17447,-0.18076,-0.509282,-0.491576,0.00184703,0.186825
26,60,-1.0472,-0.698132,0.174533,-0.174533,-1.04465,-0.689354,0.17447,-0.18076,-0.509282,-0.491576,0.00184703,0.186825
26,60,-1.0472,-0.698132,0.174533,-0.174533,-1.04465,-0.689354,0.17447,-0.18076,-0.509282,-0.491576,0.00184703,0.186825
26,60,-1.0472,-0.698132,0.174533,-0.174533,-1.04465,-0.689354,0.17447,-0.18076,-0.509282,-0.491576,0.00184703,0.186825
26,60,-1.0472,-0.698132,0.174533,-0.174533,-1.04465,-0.689354,0.17447,-0.18076,-0.509282,-0.491576,0.00184703,0.186825
26,60,-1.0472,-0.698132,0.174533,-0.174533,-1.04465,-0.689354,0.17447,-0.18076,-0.509282,-0.491576,0.00184703,0.186825
26,60,-1.0472,-0.698132,0.174533,-0.174533,-1.04465,-0.689354,0.17447,-0.18076,-0.509282,-0.491576,0.00184703,0.186825
26,60,-1.0472,-0.698132,0.174533,-0.174533,-1.04465,-0.689354,0.17447,-0.18076,-0.509282,-0.491576,0.00184703,0.186825
26,60,-1.0472,-0.698132,0.174533,-0.174533,-1.04465,-0.689354,0.17447,-0.18076,-0.509282,-0.491576,0.00184703,0.186825
26,60,-1.0472,-0.698132,0.174533,-0.174533,-1.04465,-0.689354,0.17447,-0.18076,-0.509282,-0.491576,0.00184703,0.186825
26,60,-1.0472,-0.698132,0.174533,-0.174533,-1.04465,-0.689354,0.17447,-0.18076,-0.509282,-0.491576,0.00184703,0.186825
26,60,-1.0472,-0.698132,0.174533,-0.174533,-1.04465,-0.689354,0.17447,-0.18076,-0.509282,-0.491576,0.00184703,0.186825
26,60,-1.0472,-0.698132,0.174533,-0.174533,-1.04465,-0.689354,0.17447,-0.18076,-0.509282,-0.491576,0.00184703,0.186825
26,60,-1.0472,-0.698132,0.174533,-0.174533,-1.04465,-0.689354,0.17447,-0.18076,-0.509282,-0.491576,0.00184703,0.186825
26,60,-1.0472,-0.698132,0.174533,-0.174533,-1.04465,-0.689354,0.17447,-0.18076,-0.509282,-0.491576,0.00184703,0.186825
26,60,-1.0472,-0.698132,0.174533,-0.174533,-1.04465,-0.689354,0.17447,-0.18076,-0.509282,-0.491576,0.00184703,0.186825
26,60,-1.0472,-0.698132,0.174533,-0.174533,-1.04465,-0.689354,0.17447,-0.18076,-0.509282,-0.491576,0.00184703,0.186825
26,60,-1.0472,-0.698132,0.174533,-0.174533,-1.04465,-0.689354,0.17447,-0.18076,-0.509282,-0.491576,0.00184703,0.186825
26,60,-1.0472,-0.698132,0.174533,-0.174533,-1.04465,-0.689354,0.17447,-0.18076,-0.509282,-0.491576,0.00184703,0.186825
26,60,-1.0472,-0.698132,0.174533,-0.174533,-1.04465,-0.689354,0.17447,-0.18076,-0.509282,-0.491576,0.00184703,0.186825
26,60,-1.0472,-0.698132,0.174533,-0.174533,-1.04465,-0.689354,0.17447,-0.18076,-0.509282,-0.491576,0.00184703,0.186825
26,60,-1.0472,-0.698132,0.174533,-0.174533,-1.04465,-0.689354,0.17447,-0.18076,-0.509282,-0.491576,0.00184703,0.186825
26,60,-1.0472,-0.698132,0.174533,-0.174533,-1.04465,-0.689354,0.17447,-0.18076,-0.509282,-0.491576,0.00184703,0.186825
26,60,-1.0472,-0.698132,0.174533,-0.174533,-1.04465,-0.689354,0.17447,-0.18076,-0.509282,-0.491576,0.00184703,0.186825
26,60,-1.0472,-0.698132,0.174533,-0.174533,-1.04465,-0.689354,0.17447,-0.18076,-0.509282,-0.491576,0.00184703,0.186825
26,60,-1.0472,-0.698132,0.174533,-0.174533,-1.04465,-0.689354,0.17447,-0.18076,-0.509282,-0.491576,0.00184703,0.186825
26,60,-1.0472,-0.698132,0.174533,-0.174533,-1.04465,-0.689354,0.17447,-0.18076,-0.509282,-0.491576,0.00184703,0.186825
26,60,-1.0472,-0.698132,0.174533,-0.174533,-1.04465,-0.689354,0.17447,-0.18076,-0.509282,-0.491576,0.00184703,0.186825
26,60,-1.0472,-0.698132,0.174533,-0.174533,-1.04465,-0.689354,0.17447,-0.18076,-0.509282,-0.491576,0.00184703,0.186825
26,60,-1.0472,-0.698132,0.174533,-0.174533,-1.04465,-0.689354,0.17447,-0.18076,-0.509282,-0.491576,0.00184703,0.186825
26,60,-1.0472,-0.698132,0.174533,-0.174533,-1.04465,-0.689354,0.17447,-0.18076,-0.509282,-0.491576,0.00184703,0.186825
26,60,-1.0472,-0.698132,0.174533,-0.174533,-1.04465,-0.689354,0.17447,-0.18076,-0.509282,-0.491576,0.00184703,0.186825
26,60,-1.0472,-0.698132,0.174533,-0.174533,-1.04465,-0.689354,0.17447,-0.18076,-0.509282,-0.491576,0.00184703,0.186825
26,60,-1.0472,-0.698132,0.174533,-0.174533,-1.04465,-0.689354,0.17447,-0.18076,-0.509282,-0.491576,0.00184703,0.186825
26,60,-1.0472,-0.698132,0.174533,-0.174533,-1.04465,-0.689354,0.17447,-0.18076,-0.509282,-0.491576,0.00184703,0.186825
26,60,-1.0472,-0.698132,0.174533,-0.174533,-1.04465,-0.689354,0.17447,-0.18076,-0.509282,-0.491576,0.00184703,0.186825
26,60,-1.0472,-0.698132,0.174533,-0.174533,-1.04465,-0.689354,0.17447,-0.18076,-0.509282,-0.491576,0.00184703,0.186825
26,60,-1.0472,-0.698132,0.174533,-0.174533,-1.04465,-0.689354,0.17447,-0.18076,-0.509282,-0.491576,0.00184703,0.186825
26,60,-1.0472,-0.698132,0.174533,-0.174533,-1.04465,-0.689354,0.17447,-0.18076,-0.509282,-0.491576,0.00184703,0.186825
26,60,-1.0472,-0.698132,0.174533,-0.174533,-1.04465,-0.689354,0.17447,-0.18076,-0.509282,-0.491576,0.00184703,0.186825
26,60,-1.0472,-0.698132,0.174533,-0.174533,-1.04465,-0.689354,0.17447,-0.18076,-0.509282,-0.491576,0.00184703,0.186825
26,60,-1.0472,-0.698132,0.174533,-0.174533,-1.04465,-0.689354,0.17447,-0.18076,-0.509282,-0.491576,0.00184703,0.186825
26,60,-1.0472,-0.698132,0.174533,-0.174533,-1.04465,-0.689354,0.17447,-0.18076,-0.509282,-0.491576,0.00184703,0.186825
26,60,-1.0472,-0.698132,0.174533,-0.174533,-1.04465,-0.689354,0.17447,-0.18076,-0.509282,-0.491576,0.00184703,0.186825
26,60,-1.0472,-0.698132,0.174533,-0.174533,-1.04465,-0.689354,0.17447,-0.18076,-0.509282,-0.491576,0.00184703,0.186825
26,60,-1.0472,-0.698132,0.174533,-0.174533,-1.04465,-0.689354,0.17447,-0.18076,-0.509282,-0.491576,0.00184703,0.186825
26,60,-1.0472,-0.698132,0.174533,-0.174533,-1.04465,-0.689354,0.17447,-0.18076,-0.509282,-0.491576,0.00184703,0.186825
26,60,-1.0472,-0.698132,0.174533,-0.174533,-1.04465,-0.689354,0.17447,-0.18076,-0.509282,-0.491576,0.00184703,0.186825
26,60,-1.0472,-0.698132,0.174533,-0.174533,-1.04465,-0.689354,0.17447,-0.18076,-0.509282,-0.491576,0.00184703,0.186825
26,60,-1.0472,-0.698132,0.174533,-0.174533,-1.04465,-0.689354,0.17447,-0.18076,-0.509282,-0.491576,0.00184703,0.186825
26,60,-1.0472,-0.698132,0.174533,-0.174533,-1.04465,-0.689354,0.17447,-0.18076,-0.509282,-0.491576,0.00184703,0.186825
26,60,-1.0472,-0.698132,0.174533,-0.174533,-1.04465,-0.689354,0.17447,-0.18076,-0.509282,-0.491576,0.00184703,0.186825
26,60,-1.0472,-0.698132,0.174533,-0.174533,-1.04465,-0.689354,0.17447,-0.18076,-0.509282,-0.491576,0.00184703,0.186825
26,60,-1.0472,-0.698132,0.174533,-0.174533,-1.04465,-0.689354,0.17447,-0.18076,-0.509282,-0.491576,0.00184703,0.186825
26,60,-1.0472,-0.698132,0.174533,-0.174533,-1.04465,-0.689354,0.17447,-0.18076,-0.509282,-0.491576,0.00184703,0.186825
26,60,-1.0472,-0.698132,0.174533,-0.174533,-1.04465,-0.689354,0.17447,-0.18076,-0.509282,-0.491576,0.00184703,0.186825
26,60,-1.0472,-0.698132,0.174533,-0.174533,-1.04465,-0.689354,0.17447,-0.18076,-0.509282,-0.491576,0.00184703,0.186825
26,60,-1.0472,-0.698132,0.174533,-0.174533,-1.04465,-0.689354,0.17447,-0.18076,-0.509282,-0.491576,0.00184703,0.186825
26,60,-1.0472,-0.698132,0.174533,-0.174533,-1.04465,-0.689354,0.17447,-0.18076,-0.509282,-0.491576,0.00184703,0.186825
26,60,-1.0472,-0.698132,0.174533,-0.174533,-1.04465,-0.689354,0.17447,-0.18076,-0.509282,-0.491576,0.00184703,0.186825
26,60,-1.0472,-0.698132,0.174533,-0.174533,-1.04465,-0.689354,0.17447,-0.18076,-0.509282,-0.491576,0.00184703,0.186825
26,60,-1.0472,-0.698132,0.174533,-0.174533,-1.04465,-0.689354,0.17447,-0.18076,-0.509282,-0.491576,0.00184703,0.186825
26,60,-1.0472,-0.698132,0.174533,-0.174533,-1.04465,-0.689354,0.17447,-0.18076,-0.509282,-0.491576,0.00184703,0.186825
26,60,-1.0472,-0.698132,0.174533,-0.174533,-1.04465,-0.689354,0.17447,-0.18076,-0.509282,-0.491576,0.00184703,0.186825
26,60,-1.0472,-0.698132,0.174533,-0.174533,-1.04465,-0.689354,0.17447,-0.18076,-0.509282,-0.491576,0.00184703,0.186825
26,60,-1.0472,-0.698132,0.174533,-0.174533,-1.04465,-0.689354,0.17447,-0.18076,-0.509282,-0.491576,0.00184703,0.186825
26,60,-1.0472,-0.698132,0.174533,-0.174533,-1.04465,-0.689354,0.17447,-0.18076,-0.509282,-0.491576,0.00184703,0.186825
26,60,-1.0472,-0.698132,0.174533,-0.174533,-1.04465,-0.689354,0.17447,-0.18076,-0.509282,-0.491576,0.00184703,0.186825
26,60,-1.0472,-0.698132,0.174533,-0.174533,-1.04465,-0.689354,0.17447,-0.18076,-0.509282,-0.491576,0.00184703,0.186825
26,60,-1.0472,-0.698132,0.174533,-0.174533,-1.04465,-0.689354,0.17447,-0.18076,-0.509282,-0.491576,0.00184703,0.186825
26,60,-1.0472,-0.698132,0.174533,-0.174533,-1.04465,-0.689354,0.17447,-0.18076,-0.509282,-0.491576,0.00184703,0.186825
26,60,-1.0472,-0.698132,0.174533,-0.174533,-1.04465,-0.689354,0.17447,-0.18076,-0.509282,-0.491576,0.00184703,0.186825
26,60,-1.0472,-0.698132,0.174533,-0.174533,-1.04465,-0.689354,0.17447,-0.18076,-0.509282,-0.491576,0.00184703,0.186825
26,60,-1.0472,-0.698132,0.174533,-0.174533,-1.04465,-0.689354,0.17447,-0.18076,-0.509282,-0.491576,0.00184703,0.186825
26,60,-1.0472,-0.698132,0.174533,-0.174533,-1.04465,-0.689354,0.17447,-0.18076,-0.509282,-0.491576,0.00184703,0.186825
26,60,-1.0472,-0.698132,0.174533,-0.174533,-1.04465,-0.689354,0.17447,-0.18076,-0.509282,-0.491576,0.00184703,0.186825
26,60,-1.0472,-0.698132,0.174533,-0.174533,-1.04465,-0.689354,0.17447,-0.18076,-0.509282,-0.491576,0.00184703,0.186825
26,60,-1.0472,-0.698132,0.174533,-0.174533,-1.04465,-0.689354,0.17447,-0.18076,-0.509282,-0.491576,0.00184703,0.186825
26,60,-1.0472,-0.698132,0.174533,-0.174533,-1.04465,-0.689354,0.17447,-0.18076,-0.509282,-0.491576,0.00184703,0.186825
26,60,-1.0472,-0.698132,0.174533,-0.174533,-1.04465,-0.689354,0.17447,-0.18076,-0.509282,-0.491576,0.00184703,0.186825
26,60,-1.0472,-0.698132,0.174533,-0.174533,-1.04465,-0.689354,0.17447,-0.18076,-0.509282,-0.491576,0.00184703,0.186825
26,60,-1.0472,-0.698132,0.174533,-0.174533,-1.04465,-0.689354,0.17447,-0.18076,-0.509282,-0.491576,0.00184703,0.186825
26,60,-1.0472,-0.698132,0.174533,-0.174533,-1.04465,-0.689354,0.17447,-0.18076,-0.509282,-0.491576,0.00184703,0.186825
26,60,-1.0472,-0.698132,0.174533,-0.174533,-1.04465,-0.689354,0.17447,-0.18076,-0.509282,-0.491576,0.00184712,0.186825
26,60,-1.0472,-0.698132,0.174533,-0.174533,-1.04465,-0.689354,0.17447,-0.18076,-0.509282,-0.491576,0.00184745,0.186824
26,60,-1.0472,-0.698132,0.174533,-0.174533,-1.04465,-0.689354,0.17447,-0.18076,-0.509282,-0.491576,0.00184778,0.186824
26,60,-1.0472,-0.698132,0.174533,-0.174533,-1.04465,-0.689354,0.17447,-0.18076,-0.509282,-0.491576,0.0018481,0.186824
26,60,-1.0472,-0.698132,0.174533,-0.174533,-1.04465,-0.689354,0.17447,-0.18076,-0.509282,-0.491576,0.00184842,0.186824
26,60,-1.0472,-0.698132,0.174533,-0.174533,-1.04465,-0.689354,0.17447,-0.18076,-0.509282,-0.491576,0.00184873,0.186824
26,60,-1.0472,-0.698132,0.174533,-0.174533,-1.04465,-0.689354,0.17447,-0.18076,-0.509282,-0.491576,0.00184903,0.186824
26,60,-1.0472,-0.698132,0.174533,-0.174533,-1.04465,-0.689354,0.17447,-0.18076,-0.509282,-0.491576,0.00184933,0.186824
26,60,-1.0472,-0.698132,0.174533,-0.174533,-1.04465,-0.689354,0.17447,-0.18076,-0.509282,-0.491576,0.00184962,0.186824
26,60,-1.0472,-0.698132,0.174533,-0.174533,-1.04465,-0.689354,0.17447,-0.18076,-0.509282,-0.491576,0.00184991,0.186823
26,60,-1.0472,-0.698132,0.174533,-0.174533,-1.04465,-0.689354,0.17447,-0.18076,-0.509282,-0.491576,0.00185019,0.186823
26,60,-1.0472,-0.698132,0.174533,-0.174533,-1.04465,-0.689354,0.17447,-0.18076,-0.509282,-0.491576,0.00185046,0.186823
26,60,-1.0472,-0.698132,0.174533,-0.174533,-1.04465,-0.689354,0.17447,-0.18076,-0.509282,-0.491576,0.00185074,0.186823
26,60,-1.0472,-0.698132,0.174533,-0.174533,-1.04465,-0.689354,0.17447,-0.18076,-0.509282,-0.491576,0.001851,0.186823
26,60,-1.0472,-0.698132,0.174533,-0.174533,-1.04465,-0.689354,0.17447,-0.18076,-0.509282,-0.491576,0.00185126,0.186823
26,60,-1.0472,-0.698132,0.174533,-0.174533,-1.04465,-0.689354,0.17447,-0.18076,-0.509282,-0.491576,0.00185152,0.186823
26,60,-1.0472,-0.698132,0.174533,-0.174533,-1.04465,-0.689354,0.17447,-0.18076,-0.509282,-0.491576,0.00185177,0.186823
26,60,-1.0472,-0.698132,0.174533,-0.174533,-1.04465,-0.689354,0.17447,-0.18076,-0.509282,-0.491576,0.00185202,0.186823
26,60,-1.0472,-0.698132,0.174533,-0.174533,-1.04465,-0.689354,0.17447,-0.18076,-0.509282,-0.491576,0.00185226,0.186823
26,60,-1.0472,-0.698132,0.174533,-0.174533,-1.04465,-0.689354,0.17447,-0.18076,-0.509282,-0.491576,0.0018525,0.186822
26,60,-1.0472,-0.698132,0.174533,-0.174533,-1.04465,-0.689354,0.17447,-0.18076,-0.509282,-0.491576,0.00185273,0.186822
26,60,-1.0472,-0.698132,0.174533,-0.174533,-1.04465,-0.689354,0.17447,-0.18076,-0.509282,-0.491576,0.00185297,0.186822
26,60,-1.0472,-0.698132,0.174533,-0.174533,-1.04465,-0.689354,0.17447,-0.18076,-0.509282,-0.491576,0.00185319,0.186822
26,60,-1.0472,-0.698132,0.174533,-0.174533,-1.04465,-0.689354,0.17447,-0.18076,-0.509282,-0.491576,0.00185342,0.186822
26,60,-1.0472,-0.698132,0.174533,-0.174533,-1.04465,-0.689354,0.17447,-0.18076,-0.509282,-0.491576,0.00185364,0.186822
26,60,-1.0472,-0.698132,0.174533,-0.174533,-1.04465,-0.689354,0.17447,-0.18076,-0.509282,-0.491576,0.00185385,0.186822
26,60,-1.0472,-0.698132,0.174533,-0.174533,-1.04465,-0.689354,0.17447,-0.18076,-0.509282,-0.491576,0.00185406,0.186822
26,60,-1.0472,-0.698132,0.174533,-0.174533,-1.04465,-0.689354,0.17447,-0.18076,-0.509282,-0.491576,0.00185427,0.186822
26,60,-1.0472,-0.698132,0.174533,-0.174533,-1.04465,-0.689354,0.17447,-0.18076,-0.509282,-0.491576,0.00185448,0.186822
26,60,-1.0472,-0.698132,0.174533,-0.174533,-1.04465,-0.689354,0.17447,-0.18076,-0.509282,-0.491576,0.00185468,0.186822
26,60,-1.0472,-0.698132,0.174533,-0.174533,-1.04465,-0.689354,0.17447,-0.18076,-0.509282,-0.491576,0.00185488,0.186821
26,60,-1.0472,-0.698132,0.174533,-0.174533,-1.04465,-0.689354,0.17447,-0.18076,-0.509282,-0.491576,0.00185508,0.186821
26,60,-1.0472,-0.698132,0.174533,-0.174533,-1.04465,-0.689354,0.17447,-0.18076,-0.509282,-0.491576,0.00185527,0.186821
26,60,-1.0472,-0.698132,0.174533,-0.174533,-1.04465,-0.689354,0.17447,-0.18076,-0.509282,-0.491576,0.00185546,0.186821
26,60,-1.0472,-0.698132,0.174533,-0.174533,-1.04465,-0.689354,0.17447,-0.18076,-0.509282,-0.491576,0.00185565,0.186821
26,60,-1.0472,-0.698132,0.174533,-0.174533,-1.04465,-0.689354,0.17447,-0.18076,-0.509282,-0.491576,0.00185583,0.186821
26,60,-1.0472,-0.698132,0.174533,-0.174533,-1.04465,-0.689354,0.17447,-0.18076,-0.509282,-0.491576,0.00185601,0.186821
26,60,-1.0472,-0.698132,0.174533,-0.174533,-1.04465,-0.689354,0.17447,-0.18076,-0.509282,-0.491576,0.00185619,0.186821
26,60,-1.0472,-0.698132,0.174533,-0.174533,-1.04465,-0.689354,0.17447,-0.18076,-0.509282,-0.491576,0.00185637,0.186821
26,60,-1.0472,-0.698132,0.174533,-0.174533,-1.04465,-0.689354,0.17447,-0.18076,-0.509282,-0.491576,0.00185654,0.186821
26,60,-1.0472,-0.698132,0.174533,-0.174533,-1.04465,-0.689354,0.17447,-0.18076,-0.509282,-0.491576,0.00185671,0.186821
26,60,-1.0472,-0.698132,0.174533,-0.174533,-1.04465,-0.689354,0.17447,-0.18076,-0.509282,-0.491576,0.00185688,0.186821
26,60,-1.0472,-0.698132,0.174533,-0.174533,-1.04465,-0.689354,0.17447,-0.18076,-0.509282,-0.491576,0.00185704,0.186821
26,60,-1.0472,-0.698132,0.174533,-0.174533,-1.04465,-0.689354,0.17447,-0.18076,-0.509282,-0.491576,0.00185721,0.186821
26,60,-1.0472,-0.698132,0.174533,-0.174533,-1.04465,-0.689354,0.17447,-0.18076,-0.509282,-0.491576,0.00185737,0.18682
26,60,-1.0472,-0.698132,0.174533,-0.174533,-1.04465,-0.689354,0.17447,-0.18076,-0.509282,-0.491576,0.00185753,0.18682
26,60,-1.0472,-0.698132,0.174533,-0.174533,-1.04465,-0.689354,0.17447,-0.18076,-0.509282,-0.491576,0.00185768,0.18682
26,60,-1.0472,-0.698132,0.174533,-0.174533,-1.04465,-0.689354,0.17447,-0.18076,-0.509282,-0.491576,0.00185784,0.18682
26,60,-1.0472,-0.698132,0.174533,-0.174533,-1.04465,-0.689354,0.17447,-0.18076,-0.509282,-0.491576,0.00185799,0.18682
26,60,-1.0472,-0.698132,0.174533,-0.174533,-1.04465,-0.689354,0.17447,-0.18076,-0.509282,-0.491576,0.00185814,0.18682
26,60,-1.0472,-0.698132,0.174533,-0.174533,-1.04465,-0.689354,0.17447,-0.18076,-0.509282,-0.491576,0.00185829,0.18682
26,60,-1.0472,-0.698132,0.174533,-0.174533,-1.04465,-0.689354,0.17447,-0.18076,-0.509282,-0.491576,0.00185844,0.18682
26,60,-1.0472,-0.698132,0.174533,-0.174533,-1.04465,-0.689354,0.17447,-0.18076,-0.509282,-0.491576,0.00185858,0.18682
26,60,-1.0472,-0.698132,0.174533,-0.174533,-1.04465,-0.689354,0.17447,-0.18076,-0.509282,-0.491576,0.00185872,0.18682
26,60,-1.0472,-0.698132,0.174533,-0.174533,-1.04465,-0.689354,0.17447,-0.18076,-0.509282,-0.491576,0.00185886,0.18682
26,60,-1.0472,-0.698132,0.174533,-0.174533,-1.04465,-0.689354,0.17447,-0.18076,-0.509282,-0.491576,0.001859,0.18682
26,60,-1.0472,-0.698132,0.174533,-0.174533,-1.04465,-0.689354,0.17447,-0.18076,-0.509282,-0.491576,0.00185914,0.18682
26,60,-1.0472,-0.698132,0.174533,-0.174533,-1.04465,-0.689354,0.17447,-0.18076,-0.509282,-0.491576,0.00185927,0.18682
26,60,-1.0472,-0.698132,0.174533,-0.174533,-1.04465,-0.689354,0.17447,-0.18076,-0.509282,-0.491576,0.00185941,0.18682
26,60,-1.0472,-0.698132,0.174533,-0.174533,-1.04465,-0.689354,0.17447,-0.18076,-0.509282,-0.491576,0.00185954,0.18682
26,60,-1.0472,-0.698132,0.174533,-0.174533,-1.04465,-0.689354,0.17447,-0.18076,-0.509282,-0.491576,0.00185967,0.18682
26,60,-1.0472,-0.698132,0.174533,-0.174533,-1.04465,-0.689354,0.17447,-0.18076,-0.509282,-0.491576,0.0018598,0.186819
26,60,-1.0472,-0.698132,0.174533,-0.174533,-1.04465,-0.689354,0.17447,-0.18076,-0.509282,-0.491576,0.00185992,0.186819
26,60,-1.0472,-0.698132,0.174533,-0.174533,-1.04465,-0.689354,0.17447,-0.18076,-0.509282,-0.491576,0.00186005,0.186819
26,60,-1.0472,-0.698132,0.174533,-0.174533,-1.04465,-0.689354,0.17447,-0.18076,-0.509282,-0.491576,0.00186017,0.186819
26,60,-1.0472,-0.698132,0.174533,-0.174533,-1.04465,-0.689354,0.17447,-0.18076,-0.509282,-0.491576,0.00186029,0.186819
26,60,-1.0472,-0.698132,0.174533,-0.174533,-1.04465,-0.689354,0.17447,-0.18076,-0.509282,-0.491576,0.00186041,0.186819
26,60,-1.0472,-0.698132,0.174533,-0.174533,-1.04465,-0.689354,0.17447,-0.18076,-0.509282,-0.491576,0.00186053,0.186819
26,60,-1.0472,-0.698132,0.174533,-0.174533,-1.04465,-0.689354,0.17447,-0.18076,-0.509282,-0.491576,0.00186065,0.186819
26,60,-1.0472,-0.698132,0.174533,-0.174533,-1.04465,-0.689354,0.17447,-0.18076,-0.509282,-0.491576,0.00186077,0.186819
26,60,-1.0472,-0.698132,0.174533,-0.174533,-1.04465,-0.689354,0.17447,-0.18076,-0.509282,-0.491576,0.00186088,0.186819
26,60,-1.0472,-0.698132,0.174533,-0.174533,-1.04465,-0.689354,0.17447,-0.18076,-0.509282,-0.491576,0.00186099,0.186819
26,60,-1.0472,-0.698132,0.174533,-0.174533,-1.04465,-0.689354,0.17447,-0.18076,-0.509282,-0.491576,0.0018611,0.186819
26,60,-1.0472,-0.698132,0.174533,-0.174533,-1.04465,-0.689354,0.17447,-0.18076,-0.509282,-0.491576,0.00186122,0.186819
26,60,-1.0472,-0.698132,0.174533,-0.174533,-1.04465,-0.689354,0.17447,-0.18076,-0.509282,-0.491576,0.00186132,0.186819
26,60,-1.0472,-0.698132,0.174533,-0.174533,-1.04465,-0.689354,0.17447,-0.18076,-0.509282,-0.491576,0.00186143,0.186819
26,60,-1.0472,-0.698132,0.174533,-0.174533,-1.04465,-0.689354,0.17447,-0.18076,-0.509282,-0.491576,0.00186154,0.186819
26,60,-1.0472,-0.698132,0.174533,-0.174533,-1.04465,-0.689354,0.17447,-0.18076,-0.509282,-0.491576,0.00186165,0.186819
26,60,-1.0472,-0.698132,0.174533,-0.174533,-1.04465,-0.689354,0.17447,-0.18076,-0.509282,-0.491576,0.00186175,0.186819
26,60,-1.0472,-0.698132,0.174533,-0.174533,-1.04465,-0.689354,0.17447,-0.18076,-0.509282,-0.491576,0.00186185,0.186819
26,60,-1.0472,-0.698132,0.174533,-0.174533,-1.04465,-0.689354,0.17447,-0.18076,-0.509282,-0.491576,0.00186196,0.186819
26,60,-1.0472,-0.698132,0.174533,-0.174533,-1.04465,-0.689354,0.17447,-0.18076,-0.509282,-0.491576,0.00186206,0.186819
26,60,-1.0472,-0.698132,0.174533,-0.174533,-1.04465,-0.689354,0.17447,-0.18076,-0.509282,-0.491576,0.00186216,0.186819
26,60,-1.0472,-0.698132,0.174533,-0.174533,-1.04465,-0.689354,0.17447,-0.18076,-0.509282,-0.491576,0.00186225,0.186818
26,60,-1.0472,-0.698132,0.174533,-0.174533,-1.04465,-0.689354,0.17447,-0.18076,-0.509282,-0.491576,0.00186235,0.186818
26,60,-1.0472,-0.698132,0.174533,-0.174533,-1.04465,-0.689354,0.17447,-0.18076,-0.509282,-0.491576,0.00186245,0.186818
26,60,-1.0472,-0.698132,0.174533,-0.174533,-1.04465,-0.689354,0.17447,-0.18076,-0.509282,-0.491576,0.00186254,0.186818
26,60,-1.0472,-0.698132,0.174533,-0.174533,-1.04465,-0.689354,0.17447,-0.18076,-0.509282,-0.491576,0.00186264,0.186818
26,60,-1.0472,-0.698132,0.174533,-0.174533,-1.04465,-0.689354,0.17447,-0.18076,-0.509282,-0.491576,0.00186273,0.186818
26,60,-1.0472,-0.698132,0.174533,-0.174533,-1.04465,-0.689354,0.17447,-0.18076,-0.509282,-0.491576,0.00186282,0.186818
26,60,-1.0472,-0.698132,0.174533,-0.174533,-1.04465,-0.689354,0.17447,-0.18076,-0.509282,-0.491576,0.00186292,0.186818
26,60,-1.0472,-0.698132,0.174533,-0.174533,-1.04465,-0.689354,0.17447,-0.18076,-0.509282,-0.491576,0.00186301,0.186818
26,60,-1.0472,-0.698132,0.174533,-0.174533,-1.04465,-0.689354,0.17447,-0.18076,-0.509282,-0.491576,0.0018631,0.186818
26,60,-1.0472,-0.698132,0.174533,-0.174533,-1.04465,-0.689354,0.17447,-0.18076,-0.509282,-0.491576,0.00186318,0.186818
26,60,-1.0472,-0.698132,0.174533,-0.174533,-1.04465,-0.689354,0.17447,-0.18076,-0.509282,-0.491576,0.00186327,0.186818
26,60,-1.0472,-0.698132,0.174533,-0.174533,-1.04465,-0.689354,0.17447,-0.18076,-0.509282,-0.491576,0.00186336,0.186818
26,60,-1.0472,-0.698132,0.174533,-0.174533,-1.04465,-0.689354,0.17447,-0.18076,-0.509282,-0.491576,0.00186344,0.186818
26,60,-1.0472,-0.698132,0.174533,-0.174533,-1.04465,-0.689354,0.17447,-0.18076,-0.509282,-0.491576,0.00186353,0.186818
26,60,-1.0472,-0.698132,0.174533,-0.174533,-1.04465,-0.689354,0.17447,-0.18076,-0.509282,-0.491576,0.00186361,0.186818
26,60,-1.0472,-0.698132,0.174533,-0.174533,-1.04465,-0.689354,0.17447,-0.18076,-0.509282,-0.491576,0.0018637,0.186818
26,60,-1.0472,-0.698132,0.174533,-0.174533,-1.04465,-0.689354,0.17447,-0.18076,-0.509282,-0.491576,0.00186378,0.186818
26,60,-1.0472,-0.698132,0.174533,-0.174533,-1.04465,-0.689354,0.17447,-0.18076,-0.509282,-0.491576,0.00186386,0.186818
26,60,-1.0472,-0.698132,0.174533,-0.174533,-1.04465,-0.689354,0.17447,-0.18076,-0.509282,-0.491576,0.00186394,0.186818
26,60,-1.0472,-0.698132,0.174533,-0.174533,-1.04465,-0.689354,0.17447,-0.18076,-0.509282,-0.491576,0.00186402,0.186818
26,60,-1.0472,-0.698132,0.174533,-0.174533,-1.04465,-0.689354,0.17447,-0.18076,-0.509282,-0.491576,0.0018641,0.186818
26,60,-1.0472,-0.698132,0.174533,-0.174533,-1.04465,-0.689354,0.17447,-0.18076,-0.509282,-0.491576,0.00186418,0.186818
26,60,-1.0472,-0.698132,0.174533,-0.174533,-1.04465,-0.689354,0.17447,-0.18076,-0.509282,-0.491576,0.00186425,0.186818
26,60,-1.0472,-0.698132,0.174533,-0.174533,-1.04465,-0.689354,0.17447,-0.18076,-0.509282,-0.491576,0.00186433,0.186818
26,60,-1.0472,-0.698132,0.174533,-0.174533,-1.04465,-0.689354,0.17447,-0.18076,-0.509282,-0.491576,0.00186441,0.186818
26,60,-1.0472,-0.698132,0.174533,-0.174533,-1.04465,-0.689354,0.17447,-0.18076,-0.509282,-0.491576,0.00186448,0.186818
26,60,-1.0472,-0.698132,0.174533,-0.174533,-1.04465,-0.689354,0.17447,-0.18076,-0.509282,-0.491576,0.00186456,0.186818
26,60,-1.0472,-0.698132,0.174533,-0.174533,-1.04465,-0.689354,0.17447,-0.18076,-0.509282,-0.491576,0.00186463,0.186817
26,60,-1.0472,-0.698132,0.174533,-0.174533,-1.04465,-0.689354,0.17447,-0.18076,-0.509282,-0.491576,0.0018647,0.186817
26,60,-1.0472,-0.698132,0.174533,-0.174533,-1.04465,-0.689354,0.17447,-0.18076,-0.509282,-0.491576,0.00186478,0.186817
26,60,-1.0472,-0.698132,0.174533,-0.174533,-1.04465,-0.689354,0.17447,-0.18076,-0.509282,-0.491576,0.00187986,0.186811
26,60,-1.0472,-0.698132,0.174533,-0.174533,-1.04465,-0.689354,0.17447,-0.18076,-0.509282,-0.491576,0.00187986,0.186811
26,60,-1.0472,-0.698132,0.174533,-0.174533,-1.04465,-0.689354,0.17447,-0.18076,-0.509282,-0.491576,0.00187986,0.186811
26,60,-1.0472,-0.698132,0.174533,-0.174533,-1.04465,-0.689354,0.17447,-0.18076,-0.509282,-0.491576,0.00187986,0.186811
26,60,-1.0472,-0.698132,0.174533,-0.174533,-1.04465,-0.689354,0.17447,-0.18076,-0.509282,-0.491576,0.00187986,0.186811
26,60,-1.0472,-0.698132,0.174533,-0.174533,-1.04465,-0.689354,0.17447,-0.18076,-0.509282,-0.491576,0.00187986,0.186811
26,60,-1.0472,-0.698132,0.174533,-0.174533,-1.04465,-0.689354,0.17447,-0.18076,-0.509282,-0.491576,0.00187986,0.186811
26,60,-1.0472,-0.698132,0.174533,-0.174533,-1.04465,-0.689354,0.17447,-0.18076,-0.509282,-0.491576,0.00187986,0.186811
26,60,-1.0472,-0.698132,0.174533,-0.174533,-1.04465,-0.689354,0.17447,-0.18076,-0.509282,-0.491576,0.00187986,0.186811
26,60,-1.0472,-0.698132,0.174533,-0.174533,-1.04465,-0.689354,0.17447,-0.18076,-0.509282,-0.491576,0.00187986,0.186811
26,60,-1.0472,-0.698132,0.174533,-0.174533,-1.04465,-0.689354,0.17447,-0.18076,-0.509282,-0.491576,0.00187986,0.186811
26,60,-1.0472,-0.698132,0.174533,-0.174533,-1.04465,-0.689354,0.17447,-0.18076,-0.509282,-0.491576,0.00187986,0.186811
26,60,-1.0472,-0.698132,0.174533,-0.174533,-1.04465,-0.689354,0.17447,-0.18076,-0.509282,-0.491576,0.00187986,0.186811
26,60,-1.0472,-0.698132,0.174533,-0.174533,-1.04465,-0.689354,0.17447,-0.18076,-0.509282,-0.491576,0.00187986,0.186811
26,60,-1.0472,-0.698132,0.174533,-0.174533,-1.04465,-0.689354,0.17447,-0.18076,-0.509282,-0.491576,0.00187986,0.186811
26,60,-1.0472,-0.698132,0.174533,-0.174533,-1.04465,-0.689354,0.17447,-0.18076,-0.509282,-0.491576,0.00187986,0.186811
26,60,-1.0472,-0.698132,0.174533,-0.174533,-1.04465,-0.689354,0.17447,-0.18076,-0.509282,-0.491576,0.00187986,0.186811
26,60,-1.0472,-0.698132,0.174533,-0.174533,-1.04465,-0.689354,0.17447,-0.18076,-0.509282,-0.491576,0.00187986,0.186811
26,60,-1.0472,-0.698132,0.174533,-0.174533,-1.04465,-0.689354,0.17447,-0.18076,-0.509282,-0.491576,0.00187986,0.186811
26,60,-1.0472,-0.698132,0.174533,-0.174533,-1.04465,-0.689354,0.17447,-0.18076,-0.509282,-0.491576,0.00187986,0.186811
26,60,-1.0472,-0.698132,0.174533,-0.174533,-1.04465,-0.689354,0.17447,-0.18076,-0.509282,-0.491576,0.00187986,0.186811
26,60,-1.0472,-0.698132,0.174533,-0.174533,-1.04465,-0.689354,0.17447,-0.18076,-0.509282,-0.491576,0.00187986,0.186811
26,60,-1.0472,-0.698132,0.174533,-0.174533,-1.04465,-0.689354,0.17447,-0.18076,-0.509282,-0.491576,0.00187986,0.186811
26,60,-1.0472,-0.698132,0.174533,-0.174533,-1.04465,-0.689354,0.17447,-0.18076,-0.509282,-0.491576,0.00187986,0.186811
26,60,-1.0472,-0.698132,0.174533,-0.174533,-1.04465,-0.689354,0.17447,-0.18076,-0.509282,-0.491576,0.00187986,0.186811
26,60,-1.0472,-0.698132,0.174533,-0.174533,-1.04465,-0.689354,0.17447,-0.18076,-0.509282,-0.491576,0.00187986,0.186811
26,60,-1.0472,-0.698132,0.174533,-0.174533,-1.04465,-0.689354,0.17447,-0.18076,-0.509282,-0.491576,0.00187986,0.186811
26,60,-1.0472,-0.698132,0.174533,-0.174533,-1.04465,-0.689354,0.17447,-0.18076,-0.509282,-0.491576,0.00187986,0.186811
26,60,-1.0472,-0.698132,0.174533,-0.174533,-1.04465,-0.689354,0.17447,-0.18076,-0.509282,-0.491576,0.00187986,0.186811
26,60,-1.0472,-0.698132,0.174533,-0.174533,-1.04465,-0.689354,0.17447,-0.18076,-0.509282,-0.491576,0.00187986,0.186811
26,60,-1.0472,-0.698132,0.174533,-0.174533,-1.04465,-0.689354,0.17447,-0.18076,-0.509282,-0.491576,0.00187986,0.186811
26,60,-1.0472,-0.698132,0.174533,-0.174533,-1.04465,-0.689354,0.17447,-0.18076,-0.509282,-0.491576,0.00187986,0.186811
26,60,-1.0472,-0.698132,0.174533,-0.174533,-1.04465,-0.689354,0.17447,-0.18076,-0.509282,-0.491576,0.00187986,0.186811
26,60,-1.0472,-0.698132,0.174533,-0.174533,-1.04465,-0.689354,0.17447,-0.18076,-0.509282,-0.491576,0.00187986,0.186811
26,60,-1.0472,-0.698132,0.174533,-0.174533,-1.04465,-0.689354,0.17447,-0.18076,-0.509282,-0.491576,0.00187986,0.186811
26,60,-1.0472,-0.698132,0.174533,-0.174533,-1.04465,-0.689354,0.17447,-0.18076,-0.509282,-0.491576,0.00187986,0.186811
26,60,-1.0472,-0.698132,0.174533,-0.174533,-1.04465,-0.689354,0.17447,-0.18076,-0.509282,-0.491576,0.00187986,0.186811
26,60,-1.0472,-0.698132,0.174533,-0.174533,-1.04465,-0.689354,0.17447,-0.18076,-0.509282,-0.491576,0.00187986,0.186811
26,60,-1.0472,-0.698132,0.174533,-0.174533,-1.04465,-0.689354,0.17447,-0.18076,-0.509282,-0.491576,0.00187986,0.186811
26,60,-1.0472,-0.698132,0.174533,-0.174533,-1.04465,-0.689354,0.17447,-0.18076,-0.509282,-0.491576,0.00187986,0.186811
26,60,-1.0472,-0.698132,0.174533,-0.174533,-1.04465,-0.689354,0.17447,-0.18076,-0.509282,-0.491576,0.00187986,0.186811
26,60,-1.0472,-0.698132,0.174533,-0.174533,-1.04465,-0.689354,0.17447,-0.18076,-0.509282,-0.491576,0.00187986,0.186811
26,60,-1.0472,-0.698132,0.174533,-0.174533,-1.04465,-0.689354,0.17447,-0.18076,-0.509282,-0.491576,0.00187986,0.186811
26,60,-1.0472,-0.698132,0.174533,-0.174533,-1.04465,-0.689354,0.17447,-0.18076,-0.509282,-0.491576,0.00187986,0.186811
26,60,-1.0472,-0.698132,0.174533,-0.174533,-1.04465,-0.689354,0.17447,-0.18076,-0.509282,-0.491576,0.00187986,0.186811
26,60,-1.0472,-0.698132,0.174533,-0.174533,-1.04465,-0.689354,0.17447,-0.18076,-0.509282,-0.491576,0.00187986,0.186811
26,60,-1.0472,-0.698132,0.174533,-0.174533,-1.04465,-0.689354,0.17447,-0.18076,-0.509282,-0.491576,0.00187986,0.186811
26,60,-1.0472,-0.698132,0.174533,-0.174533,-1.04465,-0.689354,0.17447,-0.18076,-0.509282,-0.491576,0.00187986,0.186811
26,60,-1.0472,-0.698132,0.174533,-0.174533,-1.04465,-0.689354,0.17447,-0.18076,-0.509282,-0.491576,0.00187986,0.186811
26,60,-1.0472,-0.698132,0.174533,-0.174533,-1.04465,-0.689354,0.17447,-0.18076,-0.509282,-0.491576,0.00187986,0.186811
26,60,-1.0472,-0.698132,0.174533,-0.174533,-1.04465,-0.689354,0.17447,-0.18076,-0.509282,-0.491576,0.00187986,0.186811
26,60,-1.0472,-0.698132,0.174533,-0.174533,-1.04465,-0.689354,0.17447,-0.18076,-0.509282,-0.491576,0.00187986,0.186811
26,60,-1.0472,-0.698132,0.174533,-0.174533,-1.04465,-0.689354,0.17447,-0.18076,-0.509282,-0.491576,0.00187986,0.186811
26,60,-1.0472,-0.698132,0.174533,-0.174533,-1.04465,-0.689354,0.17447,-0.18076,-0.509282,-0.491576,0.00187986,0.186811
26,60,-1.0472,-0.698132,0.174533,-0.174533,-1.04465,-0.689354,0.17447,-0.18076,-0.509282,-0.491576,0.00187986,0.186811
26,60,-1.0472,-0.698132,0.174533,-0.174533,-1.04465,-0.689354,0.17447,-0.18076,-0.509282,-0.491576,0.00187986,0.186811
26,60,-1.0472,-0.698132,0.174533,-0.174533,-1.04465,-0.689354,0.17447,-0.18076,-0.509282,-0.491576,0.00187986,0.186811
26,60,-1.0472,-0.698132,0.174533,-0.174533,-1.04465,-0.689354,0.17447,-0.18076,-0.509282,-0.491576,0.00187986,0.186811
26,60,-1.0472,-0.698132,0.174533,-0.174533,-1.04465,-0.689354,0.17447,-0.18076,-0.509282,-0.491576,0.00187986,0.186811
26,60,-1.0472,-0.698132,0.174533,-0.174533,-1.04465,-0.689354,0.17447,-0.18076,-0.509282,-0.491576,0.00187986,0.186811
26,60,-1.0472,-0.698132,0.174533,-0.174533,-1.04465,-0.689354,0.17447,-0.18076,-0.509282,-0.491576,0.00187986,0.186811
26,60,-1.0472,-0.698132,0.174533,-0.174533,-1.04465,-0.689354,0.17447,-0.18076,-0.509282,-0.491576,0.00187986,0.186811
26,60,-1.0472,-0.698132,0.174533,-0.174533,-1.04465,-0.689354,0.17447,-0.18076,-0.509282,-0.491576,0.00187986,0.186811
26,60,-1.0472,-0.698132,0.174533,-0.174533,-1.04465,-0.689354,0.174542,-0.180789,-0.509282,-0.491576,-0.000288057,0.187695
26,60,-1.0472,-0.698132,0.174533,-0.174533,-1.04465,-0.689354,0.174542,-0.180789,-0.509282,-0.491576,-0.000288057,0.187695
26,60,-1.0472,-0.698132,0.174533,-0.174533,-1.04465,-0.689354,0.174542,-0.180789,-0.509282,-0.491576,-0.000288057,0.187695
26,60,-1.0472,-0.698132,0.174533,-0.174533,-1.04465,-0.689354,0.174542,-0.180789,-0.509282,-0.491576,-0.000288057,0.187695
26,60,-1.0472,-0.698132,0.174533,-0.174533,-1.04465,-0.689354,0.174542,-0.180789,-0.509282,-0.491576,-0.000288057,0.187695
26,60,-1.0472,-0.698132,0.174533,-0.174533,-1.04465,-0.689354,0.174542,-0.180789,-0.509282,-0.491576,-0.000288057,0.187695
26,60,-1.0472,-0.698132,0.174533,-0.174533,-1.04465,-0.689354,0.174542,-0.180789,-0.509282,-0.491576,-0.000288057,0.187695
26,60,-1.0472,-0.698132,0.174533,-0.174533,-1.04465,-0.689354,0.174542,-0.180789,-0.509282,-0.491576,-0.000288057,0.187695
26,60,-1.0472,-0.698132,0.174533,-0.174533,-1.04465,-0.689354,0.174542,-0.180789,-0.509282,-0.491576,-0.000288057,0.187695
26,60,-1.0472,-0.698132,0.174533,-0.174533,-1.04465,-0.689354,0.174542,-0.180789,-0.509282,-0.491576,-0.000288057,0.187695
26,60,-1.0472,-0.698132,0.174533,-0.174533,-1.04465,-0.689354,0.174542,-0.180789,-0.509282,-0.491576,-0.000288057,0.187695
26,60,-1.0472,-0.698132,0.174533,-0.174533,-1.04465,-0.689354,0.174542,-0.180789,-0.509282,-0.491576,-0.000288057,0.187695
26,60,-1.0472,-0.698132,0.174533,-0.174533,-1.04465,-0.689354,0.174542,-0.180789,-0.509282,-0.491576,-0.000288057,0.187695
26,60,-1.0472,-0.698132,0.174533,-0.174533,-1.04465,-0.689354,0.174542,-0.180789,-0.509282,-0.491576,-0.000288057,0.187695
26,60,-1.0472,-0.698132,0.174533,-0.174533,-1.04465,-0.689354,0.174542,-0.180789,-0.509282,-0.491576,-0.000288057,0.187695
26,60,-1.0472,-0.698132,0.174533,-0.174533,-1.04465,-0.689354,0.174542,-0.180789,-0.509282,-0.491576,-0.000288057,0.187695
26,60,-1.0472,-0.698132,0.174533,-0.174533,-1.04465,-0.689354,0.174542,-0.180789,-0.509282,-0.491576,-0.000288057,0.187695
26,60,-1.0472,-0.698132,0.174533,-0.174533,-1.04465,-0.689354,0.174542,-0.180789,-0.509282,-0.491576,-0.000288057,0.187695
26,60,-1.0472,-0.698132,0.174533,-0.174533,-1.04465,-0.689354,0.174542,-0.180789,-0.509282,-0.491576,-0.000288057,0.187695
26,60,-1.0472,-0.698132,0.174533,-0.174533,-1.04465,-0.689354,0.174542,-0.180789,-0.509282,-0.491576,-0.000288057,0.187695
26,60,-1.0472,-0.698132,0.174533,-0.174533,-1.04465,-0.689354,0.174542,-0.180789,-0.509282,-0.491576,-0.000288057,0.187695
26,60,-1.0472,-0.698132,0.174533,-0.174533,-1.04465,-0.689354,0.174542,-0.180789,-0.509282,-0.491576,-0.000288057,0.187695
26,60,-1.0472,-0.698132,0.174533,-0.174533,-1.04465,-0.689354,0.174542,-0.180789,-0.509282,-0.491576,-0.000288057,0.187695
26,60,-1.0472,-0.698132,0.174533,-0.174533,-1.04465,-0.689354,0.174542,-0.180789,-0.509282,-0.491576,-0.000288057,0.187695
26,60,-1.0472,-0.698132,0.174533,-0.174533,-1.04465,-0.689354,0.174542,-0.180789,-0.509282,-0.491576,-0.000288057,0.187695
26,60,-1.0472,-0.698132,0.174533,-0.174533,-1.04465,-0.689354,0.174599,-0.18076,-0.509282,-0.491576,-0.00200657,0.186796
26,60,-1.0472,-0.698132,0.174533,-0.174533,-1.04465,-0.689354,0.174599,-0.18076,-0.509282,-0.491576,-0.00200657,0.186796
26,60,-1.0472,-0.698132,0.174533,-0.174533,-1.04465,-0.689354,0.174599,-0.18076,-0.509282,-0.491576,-0.00200657,0.186796
26,60,-1.0472,-0.698132,0.174533,-0.174533,-1.04465,-0.689354,0.174599,-0.18076,-0.509282,-0.491576,-0.00200657,0.186796
26,60,-1.0472,-0.698132,0.174533,-0.174533,-1.04465,-0.689354,0.174599,-0.18076,-0.509282,-0.491576,-0.00200657,0.186796
26,60,-1.0472,-0.698132,0.174533,-0.174533,-1.04465,-0.689354,0.174599,-0.18076,-0.509282,-0.491576,-0.00200657,0.186796
26,60,-1.0472,-0.698132,0.174533,-0.174533,-1.04465,-0.689354,0.174599,-0.18076,-0.509282,-0.491576,-0.00200657,0.186796
26,60,-1.0472,-0.698132,0.174533,-0.174533,-1.04465,-0.689354,0.174599,-0.18076,-0.509282,-0.491576,-0.00200657,0.186796
26,60,-1.0472,-0.698132,0.174533,-0.174533,-1.04465,-0.689354,0.174599,-0.18076,-0.509282,-0.491576,-0.00200657,0.186796
26,60,-1.0472,-0.698132,0.174533,-0.174533,-1.04465,-0.689354,0.174599,-0.18076,-0.509282,-0.491576,-0.00200657,0.186796
26,60,-1.0472,-0.698132,0.174533,-0.174533,-1.04465,-0.689354,0.174599,-0.18076,-0.509282,-0.491576,-0.00200657,0.186796
26,60,-1.0472,-0.698132,0.174533,-0.174533,-1.04465,-0.689354,0.174599,-0.18076,-0.509282,-0.491576,-0.00200657,0.186796
26,60,-1.0472,-0.698132,0.174533,-0.174533,-1.04465,-0.689354,0.174599,-0.18076,-0.509282,-0.491576,-0.00200657,0.186796
26,60,-1.0472,-0.698132,0.174533,-0.174533,-1.04465,-0.689354,0.174599,-0.18076,-0.509282,-0.491576,-0.00200657,0.186796
26,60,-1.0472,-0.698132,0.174533,-0.174533,-1.04465,-0.689354,0.174599,-0.18076,-0.509282,-0.491576,-0.00200657,0.186796
26,60,-1.0472,-0.698132,0.174533,-0.174533,-1.04465,-0.689354,0.174599,-0.18076,-0.509282,-0.491576,-0.00200657,0.186796
26,60,-1.0472,-0.698132,0.174533,-0.174533,-1.04465,-0.689354,0.174599,-0.18076,-0.509282,-0.491576,-0.00200657,0.186796
26,60,-1.0472,-0.698132,0.174533,-0.174533,-1.04465,-0.689354,0.174599,-0.18076,-0.509282,-0.491576,-0.00200657,0.186796
26,60,-1.0472,-0.698132,0.174533,-0.174533,-1.04465,-0.689354,0.174599,-0.18076,-0.509282,-0.491576,-0.00200657,0.186796
26,60,-1.0472,-0.698132,0.174533,-0.174533,-1.04465,-0.689354,0.174599,-0.18076,-0.509282,-0.491576,-0.00200657,0.186796
26,60,-1.0472,-0.698132,0.174533,-0.174533,-1.04465,-0.689354,0.174599,-0.18076,-0.509282,-0.491576,-0.00200657,0.186796
26,60,-1.0472,-0.698132,0.174533,-0.174533,-1.04465,-0.689354,0.174599,-0.18076,-0.509282,-0.491576,-0.00200657,0.186796
26,60,-1.0472,-0.698132,0.174533,-0.174533,-1.04465,-0.689354,0.174599,-0.18076,-0.509282,-0.491576,-0.00200657,0.186796
26,60,-1.0472,-0.698132,0.174533,-0.174533,-1.04465,-0.689354,0.174599,-0.18076,-0.509282,-0.491576,-0.00200657,0.186796
26,60,-1.0472,-0.698132,0.174533,-0.174533,-1.04465,-0.689354,0.174599,-0.18076,-0.509282,-0.491576,-0.00200657,0.186796
26,60,-1.0472,-0.698132,0.174533,-0.174533,-1.04465,-0.689354,0.174599,-0.18076,-0.509282,-0.491576,-0.00200657,0.186796
26,60,-1.0472,-0.698132,0.174533,-0.174533,-1.04465,-0.689354,0.174599,-0.18076,-0.509282,-0.491576,-0.00200657,0.186796
26,60,-1.0472,-0.698132,0.174533,-0.174533,-1.04465,-0.689354,0.174599,-0.18076,-0.509282,-0.491576,-0.00200657,0.186796
26,60,-1.0472,-0.698132,0.174533,-0.174533,-1.04465,-0.689354,0.174599,-0.18076,-0.509282,-0.491576,-0.00200657,0.186796
26,60,-1.0472,-0.698132,0.174533,-0.174533,-1.04465,-0.689354,0.174599,-0.18076,-0.509282,-0.491576,-0.00200657,0.186796
26,60,-1.0472,-0.698132,0.174533,-0.174533,-1.04465,-0.689354,0.174599,-0.18076,-0.509282,-0.491576,-0.00200657,0.186796
26,60,-1.0472,-0.698132,0.174533,-0.174533,-1.04465,-0.689354,0.174599,-0.18076,-0.509282,-0.491576,-0.00200657,0.186796
26,60,-1.0472,-0.698132,0.174533,-0.174533,-1.04465,-0.689354,0.174599,-0.18076,-0.509282,-0.491576,-0.00200657,0.186796
26,60,-1.0472,-0.698132,0.174533,-0.174533,-1.04465,-0.689354,0.174599,-0.18076,-0.509282,-0.491576,-0.00200657,0.186796
26,60,-1.0472,-0.698132,0.174533,-0.174533,-1.04465,-0.689354,0.174599,-0.18076,-0.509282,-0.491576,-0.00200657,0.186796
26,60,-1.0472,-0.698132,0.174533,-0.174533,-1.04465,-0.689354,0.174599,-0.18076,-0.509282,-0.491576,-0.00200657,0.186796
26,60,-1.0472,-0.698132,0.174533,-0.174533,-1.04465,-0.689354,0.174599,-0.18076,-0.509282,-0.491576,-0.00200657,0.186796
26,60,-1.0472,-0.698132,0.174533,-0.174533,-1.04465,-0.689354,0.174599,-0.18076,-0.509282,-0.491576,-0.00200657,0.186796
26,60,-1.0472,-0.698132,0.174533,-0.174533,-1.04465,-0.689354,0.174599,-0.18076,-0.509282,-0.491576,-0.00200657,0.186796
26,60,-1.0472,-0.698132,0.174533,-0.174533,-1.04465,-0.689354,0.174599,-0.18076,-0.509282,-0.491576,-0.00200657,0.186796
26,60,-1.0472,-0.698132,0.174533,-0.174533,-1.04465,-0.689354,0.174599,-0.18076,-0.509282,-0.491576,-0.00200657,0.186796
26,60,-1.0472,-0.698132,0.174533,-0.174533,-1.04465,-0.689354,0.174599,-0.18076,-0.509282,-0.491576,-0.00200657,0.186796
26,60,-1.0472,-0.698132,0.174533,-0.174533,-1.04465,-0.689354,0.174599,-0.18076,-0.509282,-0.491576,-0.00200657,0.186796
26,60,-1.0472,-0.698132,0.174533,-0.174533,-1.04465,-0.689354,0.174599,-0.18076,-0.509282,-0.491576,-0.00200657,0.186796
26,60,-1.0472,-0.698132,0.174533,-0.174533,-1.04465,-0.689354,0.174599,-0.18076,-0.509282,-0.491576,-0.00200657,0.186796
26,60,-1.0472,-0.698132,0.174533,-0.174533,-1.04465,-0.689354,0.174599,-0.18076,-0.509282,-0.491576,-0.00200657,0.186796
26,60,-1.0472,-0.698132,0.174533,-0.174533,-1.04465,-0.689354,0.174599,-0.18076,-0.509282,-0.491576,-0.00200657,0.186796
26,60,-1.0472,-0.698132,0.174533,-0.174533,-1.04465,-0.689354,0.174599,-0.18076,-0.509282,-0.491576,-0.00200657,0.186796
26,60,-1.0472,-0.698132,0.174533,-0.174533,-1.04465,-0.689354,0.174599,-0.18076,-0.509282,-0.491576,-0.00200657,0.186796
26,60,-1.0472,-0.698132,0.174533,-0.174533,-1.04465,-0.689354,0.174599,-0.18076,-0.509282,-0.491576,-0.00200657,0.186796
26,60,-1.0472,-0.698132,0.174533,-0.174533,-1.04465,-0.689354,0.174599,-0.18076,-0.509282,-0.491576,-0.00200657,0.186796
26,60,-1.0472,-0.698132,0.174533,-0.174533,-1.04465,-0.689354,0.174599,-0.18076,-0.509282,-0.491576,-0.00200657,0.186796
26,60,-1.0472,-0.698132,0.174533,-0.174533,-1.04465,-0.689354,0.174599,-0.18076,-0.509282,-0.491576,-0.00200657,0.186796
26,60,-1.0472,-0.698132,0.174533,-0.174533,-1.04465,-0.689354,0.174599,-0.18076,-0.509282,-0.491576,-0.00200657,0.186796
26,60,-1.0472,-0.698132,0.174533,-0.174533,-1.04465,-0.689354,0.174599,-0.18076,-0.509282,-0.491576,-0.00200657,0.186796
26,60,-1.0472,-0.698132,0.174533,-0.174533,-1.04465,-0.689354,0.174599,-0.18076,-0.509282,-0.491576,-0.00200657,0.186796
26,60,-1.0472,-0.698132,0.174533,-0.174533,-1.04465,-0.689354,0.174599,-0.18076,-0.509282,-0.491576,-0.00200657,0.186796
26,60,-1.0472,-0.698132,0.174533,-0.174533,-1.04465,-0.689354,0.174599,-0.18076,-0.509282,-0.491576,-0.00200657,0.186796
26,60,-1.0472,-0.698132,0.174533,-0.174533,-1.04465,-0.689354,0.174599,-0.18076,-0.509282,-0.491576,-0.00200657,0.186796
26,60,-1.0472,-0.698132,0.174533,-0.174533,-1.04465,-0.689354,0.174599,-0.18076,-0.509282,-0.491576,-0.00200657,0.186796
26,60,-1.0472,-0.698132,0.174533,-0.174533,-1.04465,-0.689354,0.174599,-0.18076,-0.509282,-0.491576,-0.00200657,0.186796
26,60,-1.0472,-0.698132,0.174533,-0.174533,-1.04465,-0.689354,0.174599,-0.18076,-0.509282,-0.491576,-0.00200657,0.186796
26,60,-1.0472,-0.698132,0.174533,-0.174533,-1.04465,-0.689354,0.174599,-0.18076,-0.509282,-0.491576,-0.00200657,0.186796
26,60,-1.0472,-0.698132,0.174533,-0.174533,-1.04465,-0.689354,0.174599,-0.18076,-0.509282,-0.491576,-0.00200657,0.186796
26,60,-1.0472,-0.698132,0.174533,-0.174533,-1.04465,-0.689354,0.174599,-0.18076,-0.509282,-0.491576,-0.00200657,0.186796
26,60,-1.0472,-0.698132,0.174533,-0.174533,-1.04465,-0.689354,0.174599,-0.18076,-0.509282,-0.491576,-0.00200657,0.186796
26,60,-1.0472,-0.698132,0.174533,-0.174533,-1.04465,-0.689354,0.174599,-0.18076,-0.509282,-0.491576,-0.00200657,0.186796
26,60,-1.0472,-0.698132,0.174533,-0.174533,-1.04465,-0.689354,0.174599,-0.18076,-0.509282,-0.491576,-0.00200657,0.186796
26,60,-1.0472,-0.698132,0.174533,-0.174533,-1.04465,-0.689354,0.174599,-0.18076,-0.509282,-0.491576,-0.00200657,0.186796
26,60,-1.0472,-0.698132,0.174533,-0.174533,-1.04465,-0.689354,0.174599,-0.18076,-0.509282,-0.491576,-0.00200657,0.186796
26,60,-1.0472,-0.698132,0.174533,-0.174533,-1.04465,-0.689354,0.174599,-0.18076,-0.509282,-0.491576,-0.00200657,0.186796
26,60,-1.0472,-0.698132,0.174533,-0.174533,-1.04465,-0.689354,0.174599,-0.18076,-0.509282,-0.491576,-0.00200657,0.186796
26,60,-1.0472,-0.698132,0.174533,-0.174533,-1.04465,-0.689354,0.174599,-0.18076,-0.509282,-0.491576,-0.00200657,0.186796
26,60,-1.0472,-0.698132,0.174533,-0.174533,-1.04465,-0.689354,0.174599,-0.18076,-0.509282,-0.491576,-0.00200657,0.186796
26,60,-1.0472,-0.698132,0.174533,-0.174533,-1.04465,-0.689354,0.174599,-0.18076,-0.509282,-0.491576,-0.00200657,0.186796
26,60,-1.0472,-0.698132,0.174533,-0.174533,-1.04465,-0.689404,0.174599,-0.18076,-0.509282,-0.488512,-0.00200657,0.186796
26,60,-1.0472,-0.698132,0.174533,-0.174533,-1.04465,-0.689404,0.174599,-0.18076,-0.509282,-0.488512,-0.00200657,0.186796
26,60,-1.0472,-0.698132,0.174533,-0.174533,-1.04465,-0.689404,0.174599,-0.18076,-0.509282,-0.488512,-0.00200657,0.186796
26,60,-1.0472,-0.698132,0.174533,-0.174533,-1.04465,-0.689404,0.174599,-0.18076,-0.509282,-0.488512,-0.00200657,0.186796
26,60,-1.0472,-0.698132,0.174533,-0.174533,-1.04465,-0.689404,0.174599,-0.18076,-0.509282,-0.488512,-0.00200657,0.186796
26,60,-1.0472,-0.698132,0.174533,-0.174533,-1.04465,-0.689404,0.174599,-0.18076,-0.509282,-0.488512,-0.00200657,0.186796
26,60,-1.0472,-0.698132,0.174533,-0.174533,-1.04465,-0.689404,0.174599,-0.18076,-0.509282,-0.488512,-0.00200657,0.186796
26,60,-1.0472,-0.698132,0.174533,-0.174533,-1.04465,-0.689404,0.174599,-0.18076,-0.509282,-0.488512,-0.00200657,0.186796
26,60,-1.0472,-0.698132,0.174533,-0.174533,-1.04465,-0.689404,0.174599,-0.18076,-0.509282,-0.488512,-0.00200657,0.186796
26,60,-1.0472,-0.698132,0.174533,-0.174533,-1.04465,-0.689404,0.174599,-0.18076,-0.509282,-0.488512,-0.00200657,0.186796
26,60,-1.0472,-0.698132,0.174533,-0.174533,-1.04465,-0.689404,0.174599,-0.18076,-0.509282,-0.488512,-0.00200657,0.186796
26,60,-1.0472,-0.698132,0.174533,-0.174533,-1.04465,-0.689404,0.174599,-0.18076,-0.509282,-0.488512,-0.00200657,0.186796
26,60,-1.0472,-0.698132,0.174533,-0.174533,-1.04465,-0.689404,0.174599,-0.18076,-0.509282,-0.488512,-0.00200657,0.186796
26,60,-1.0472,-0.698132,0.174533,-0.174533,-1.04465,-0.689404,0.174599,-0.18076,-0.509282,-0.488512,-0.00200657,0.186796
26,60,-1.0472,-0.698132,0.174533,-0.174533,-1.04465,-0.689404,0.174599,-0.18076,-0.509282,-0.488512,-0.00200657,0.186796
26,60,-1.0472,-0.698132,0.174533,-0.174533,-1.04465,-0.689404,0.174599,-0.18076,-0.509282,-0.488512,-0.00200657,0.186796
26,60,-1.0472,-0.698132,0.174533,-0.174533,-1.04465,-0.689404,0.174599,-0.18076,-0.509282,-0.488512,-0.00200657,0.186796
26,60,-1.0472,-0.698132,0.174533,-0.174533,-1.04465,-0.689404,0.174599,-0.18076,-0.509282,-0.488512,-0.00200657,0.186796
26,60,-1.0472,-0.698132,0.174533,-0.174533,-1.04465,-0.689404,0.174599,-0.18076,-0.509282,-0.488512,-0.00200657,0.186796
26,60,-1.0472,-0.698132,0.174533,-0.174533,-1.04465,-0.689404,0.174599,-0.18076,-0.509282,-0.488512,-0.00200657,0.186796
26,60,-1.0472,-0.698132,0.174533,-0.174533,-1.04465,-0.689404,0.174599,-0.18076,-0.509282,-0.488512,-0.00200657,0.186796
26,60,-1.0472,-0.698132,0.174533,-0.174533,-1.04465,-0.689404,0.174599,-0.18076,-0.509282,-0.488512,-0.00200657,0.186796
26,60,-1.0472,-0.698132,0.174533,-0.174533,-1.04465,-0.689404,0.174599,-0.18076,-0.509282,-0.488512,-0.00200657,0.186796
26,60,-1.0472,-0.698132,0.174533,-0.174533,-1.04465,-0.689404,0.174599,-0.18076,-0.509282,-0.488512,-0.00200657,0.186796
26,60,-1.0472,-0.698132,0.174533,-0.174533,-1.04465,-0.689404,0.174599,-0.18076,-0.509282,-0.488512,-0.00200657,0.186796
26,60,-1.0472,-0.698132,0.174533,-0.174533,-1.04465,-0.689404,0.174599,-0.18076,-0.509282,-0.488512,-0.00200657,0.186796
26,60,-1.0472,-0.698132,0.174533,-0.174533,-1.04465,-0.689404,0.174599,-0.18076,-0.509282,-0.488512,-0.00200657,0.186796
26,60,-1.0472,-0.698132,0.174533,-0.174533,-1.04465,-0.689404,0.174599,-0.18076,-0.509282,-0.488512,-0.00200657,0.186796
26,60,-1.0472,-0.698132,0.174533,-0.174533,-1.04465,-0.689404,0.174599,-0.18076,-0.509282,-0.488512,-0.00200657,0.186796
26,60,-1.0472,-0.698132,0.174533,-0.174533,-1.04465,-0.689404,0.174599,-0.18076,-0.509282,-0.488512,-0.00200657,0.186796
26,60,-1.0472,-0.698132,0.174533,-0.174533,-1.04465,-0.689404,0.174599,-0.18076,-0.509282,-0.488512,-0.00200657,0.186796
26,60,-1.0472,-0.698132,0.174533,-0.174533,-1.04465,-0.689404,0.174599,-0.18076,-0.509282,-0.488512,-0.00200657,0.186796
26,60,-1.0472,-0.698132,0.174533,-0.174533,-1.04465,-0.689404,0.174599,-0.18076,-0.509282,-0.488512,-0.00200657,0.186796
26,60,-1.0472,-0.698132,0.174533,-0.174533,-1.04465,-0.689404,0.174599,-0.18076,-0.509282,-0.488512,-0.00200657,0.186796
26,60,-1.0472,-0.698132,0.174533,-0.174533,-1.04465,-0.689404,0.174599,-0.18076,-0.509282,-0.488512,-0.00200657,0.186796
26,60,-1.0472,-0.698132,0.174533,-0.174533,-1.04465,-0.689404,0.174599,-0.18076,-0.509282,-0.488512,-0.00200657,0.186796
26,60,-1.0472,-0.698132,0.174533,-0.174533,-1.04465,-0.689404,0.174599,-0.18076,-0.509282,-0.488512,-0.00200657,0.186796
26,60,-1.0472,-0.698132,0.174533,-0.174533,-1.04465,-0.689404,0.174599,-0.18076,-0.509282,-0.488512,-0.00200657,0.186796
26,60,-1.0472,-0.698132,0.174533,-0.174533,-1.04465,-0.689404,0.174599,-0.18076,-0.509282,-0.488512,-0.00200657,0.186796
26,60,-1.0472,-0.698132,0.174533,-0.174533,-1.04465,-0.689404,0.174599,-0.18076,-0.509282,-0.488512,-0.00200657,0.186796
26,60,-1.0472,-0.698132,0.174533,-0.174533,-1.04465,-0.689404,0.174599,-0.18076,-0.509282,-0.488512,-0.00200657,0.186796
26,60,-1.0472,-0.698132,0.174533,-0.174533,-1.04465,-0.689404,0.174599,-0.18076,-0.509282,-0.488512,-0.00200657,0.186796
26,60,-1.0472,-0.698132,0.174533,-0.174533,-1.04465,-0.689404,0.174599,-0.18076,-0.509282,-0.488512,-0.00200657,0.186796
26,60,-1.0472,-0.698132,0.174533,-0.174533,-1.04465,-0.689404,0.174599,-0.18076,-0.509282,-0.488512,-0.00200657,0.186796
26,60,-1.0472,-0.698132,0.174533,-0.174533,-1.04465,-0.689404,0.174599,-0.18076,-0.509282,-0.488512,-0.00200657,0.186796
26,60,-1.0472,-0.698132,0.174533,-0.174533,-1.04465,-0.689404,0.174599,-0.18076,-0.509282,-0.488512,-0.00200657,0.186796
26,60,-1.0472,-0.698132,0.174533,-0.174533,-1.04465,-0.689404,0.174599,-0.18076,-0.509282,-0.488512,-0.00200657,0.186796
26,60,-1.0472,-0.698132,0.174533,-0.174533,-1.04465,-0.689404,0.174599,-0.18076,-0.509282,-0.488512,-0.00200657,0.186796
26,60,-1.0472,-0.698132,0.174533,-0.174533,-1.04465,-0.689404,0.174599,-0.18076,-0.509282,-0.488512,-0.00200657,0.186796
26,60,-1.0472,-0.698132,0.174533,-0.174533,-1.04465,-0.689404,0.174599,-0.18076,-0.509282,-0.488512,-0.00200657,0.186796
26,60,-1.0472,-0.698132,0.174533,-0.174533,-1.04465,-0.689404,0.174599,-0.18076,-0.509282,-0.488512,-0.00200657,0.186796
26,60,-1.0472,-0.698132,0.174533,-0.174533,-1.04465,-0.689404,0.174599,-0.18076,-0.509282,-0.488512,-0.00200657,0.186796
26,60,-1.0472,-0.698132,0.174533,-0.174533,-1.04465,-0.689404,0.174599,-0.18076,-0.509282,-0.488512,-0.00200657,0.186796
26,60,-1.0472,-0.698132,0.174533,-0.174533,-1.04465,-0.689404,0.174599,-0.18076,-0.509282,-0.488512,-0.00200657,0.186796
26,60,-1.0472,-0.698132,0.174533,-0.174533,-1.04465,-0.689404,0.174599,-0.18076,-0.509282,-0.488512,-0.00200657,0.186796
26,60,-1.0472,-0.698132,0.174533,-0.174533,-1.04465,-0.689404,0.174599,-0.18076,-0.509282,-0.488512,-0.00200657,0.186796
26,60,-1.0472,-0.698132,0.174533,-0.174533,-1.04465,-0.689404,0.174599,-0.18076,-0.509282,-0.488512,-0.00200657,0.186796
26,60,-1.0472,-0.698132,0.174533,-0.174533,-1.04465,-0.689404,0.174599,-0.18076,-0.509282,-0.488512,-0.00200657,0.186796
26,60,-1.0472,-0.698132,0.174533,-0.174533,-1.04465,-0.689404,0.174599,-0.18076,-0.509282,-0.488512,-0.00200657,0.186796
26,60,-1.0472,-0.698132,0.174533,-0.174533,-1.04465,-0.689404,0.174599,-0.18076,-0.509282,-0.488512,-0.00200657,0.186796
26,60,-1.0472,-0.698132,0.174533,-0.174533,-1.04465,-0.689404,0.174599,-0.18076,-0.509282,-0.488512,-0.00200657,0.186796
26,60,-1.0472,-0.698132,0.174533,-0.174533,-1.04465,-0.689404,0.174599,-0.18076,-0.509282,-0.488512,-0.00200657,0.186796
26,60,-1.0472,-0.698132,0.174533,-0.174533,-1.04465,-0.689404,0.174599,-0.18076,-0.509282,-0.488512,-0.00200657,0.186796
26,60,-1.0472,-0.698132,0.174533,-0.174533,-1.04465,-0.689404,0.174599,-0.18076,-0.509282,-0.488512,-0.00200657,0.186796
26,60,-1.0472,-0.698132,0.174533,-0.174533,-1.04465,-0.689404,0.174599,-0.18076,-0.509282,-0.488512,-0.00200657,0.186796
26,60,-1.0472,-0.698132,0.174533,-0.174533,-1.04465,-0.689404,0.174599,-0.18076,-0.509282,-0.488512,-0.00200657,0.186796
26,60,-1.0472,-0.698132,0.174533,-0.174533,-1.04465,-0.689404,0.174599,-0.18076,-0.509282,-0.488512,-0.00200657,0.186796
26,60,-1.0472,-0.698132,0.174533,-0.174533,-1.04465,-0.689404,0.174599,-0.18076,-0.509282,-0.488512,-0.00200657,0.186796
26,60,-1.0472,-0.698132,0.174533,-0.174533,-1.04465,-0.689404,0.174599,-0.18076,-0.509282,-0.488512,-0.00200657,0.186796
26,60,-1.0472,-0.698132,0.174533,-0.174533,-1.04465,-0.689404,0.174599,-0.18076,-0.509282,-0.488512,-0.00200657,0.186796
26,60,-1.0472,-0.698132,0.174533,-0.174533,-1.04465,-0.689404,0.174599,-0.18076,-0.509282,-0.488512,-0.00200657,0.186796
26,60,-1.0472,-0.698132,0.174533,-0.174533,-1.04465,-0.689404,0.174599,-0.18076,-0.509282,-0.488512,-0.00200657,0.186796
26,60,-1.0472,-0.698132,0.174533,-0.174533,-1.04465,-0.689404,0.174599,-0.18076,-0.509282,-0.488512,-0.00200657,0.186796
26,60,-1.0472,-0.698132,0.174533,-0.174533,-1.04465,-0.689404,0.174599,-0.18076,-0.509282,-0.488512,-0.00200657,0.186796
26,60,-1.0472,-0.698132,0.174533,-0.174533,-1.04465,-0.689404,0.174599,-0.18076,-0.509282,-0.488512,-0.00200657,0.186796
26,60,-1.0472,-0.698132,0.174533,-0.174533,-1.04465,-0.689404,0.174599,-0.18076,-0.509282,-0.488512,-0.00200657,0.186796
26,60,-1.0472,-0.698132,0.174533,-0.174533,-1.04465,-0.689404,0.174599,-0.18076,-0.509282,-0.488512,-0.00200657,0.186796
26,60,-1.0472,-0.698132,0.174533,-0.174533,-1.04465,-0.689404,0.174599,-0.18076,-0.509282,-0.488512,-0.00200657,0.186796
26,60,-1.0472,-0.698132,0.174533,-0.174533,-1.04465,-0.689404,0.174599,-0.18076,-0.509282,-0.488512,-0.00200657,0.186796
26,60,-1.0472,-0.698132,0.174533,-0.174533,-1.04465,-0.689404,0.174599,-0.18076,-0.509282,-0.488512,-0.00200657,0.186796
26,60,-1.0472,-0.698132,0.174533,-0.174533,-1.04465,-0.689404,0.174599,-0.18076,-0.509282,-0.488512,-0.00200657,0.186796
26,60,-1.0472,-0.698132,0.174533,-0.174533,-1.04465,-0.689404,0.174599,-0.18076,-0.509282,-0.488512,-0.00200657,0.186796
26,60,-1.0472,-0.698132,0.174533,-0.174533,-1.04465,-0.689404,0.174599,-0.18076,-0.509282,-0.488512,-0.00200657,0.186796
26,60,-1.0472,-0.698132,0.174533,-0.174533,-1.04465,-0.689404,0.174599,-0.18076,-0.509282,-0.488512,-0.00200657,0.186796
26,60,-1.0472,-0.698132,0.174533,-0.174533,-1.04465,-0.689404,0.174599,-0.18076,-0.509282,-0.488512,-0.00200657,0.186796
26,60,-1.0472,-0.698132,0.174533,-0.174533,-1.04465,-0.689404,0.174599,-0.18076,-0.509282,-0.488512,-0.00200657,0.186796
26,60,-1.0472,-0.698132,0.174533,-0.174533,-1.04465,-0.689404,0.174599,-0.18076,-0.509282,-0.488512,-0.00200657,0.186796
26,60,-1.0472,-0.698132,0.174533,-0.174533,-1.04465,-0.689404,0.174599,-0.18076,-0.509282,-0.488512,-0.00200657,0.186796
26,60,-1.0472,-0.698132,0.174533,-0.174533,-1.04465,-0.689404,0.174599,-0.18076,-0.509282,-0.488512,-0.00200657,0.186796
26,60,-1.0472,-0.698132,0.174533,-0.174533,-1.04465,-0.689404,0.174599,-0.18076,-0.509282,-0.488512,-0.00200657,0.186796
26,60,-1.0472,-0.698132,0.174533,-0.174533,-1.04465,-0.689404,0.174599,-0.18076,-0.509282,-0.488512,-0.00200657,0.186796
26,60,-1.0472,-0.698132,0.174533,-0.174533,-1.04465,-0.689404,0.174599,-0.18076,-0.509282,-0.488512,-0.00200657,0.186796
26,60,-1.0472,-0.698132,0.174533,-0.174533,-1.04465,-0.689404,0.174599,-0.18076,-0.509282,-0.488512,-0.00200657,0.186796
26,60,-1.0472,-0.698132,0.174533,-0.174533,-1.04465,-0.689404,0.174599,-0.18076,-0.509282,-0.488512,-0.00200657,0.186796
26,60,-1.0472,-0.698132,0.174533,-0.174533,-1.04465,-0.689404,0.174599,-0.18076,-0.509282,-0.488512,-0.00200657,0.186796
26,60,-1.0472,-0.698132,0.174533,-0.174533,-1.04465,-0.689404,0.174599,-0.18076,-0.509282,-0.488512,-0.00200657,0.186796
26,60,-1.0472,-0.698132,0.174533,-0.174533,-1.04465,-0.689404,0.174599,-0.18076,-0.509282,-0.488512,-0.00200657,0.186796
26,60,-1.0472,-0.698132,0.174533,-0.174533,-1.04465,-0.689404,0.174599,-0.18076,-0.509282,-0.488512,-0.00200657,0.186796
26,60,-1.0472,-0.698132,0.174533,-0.174533,-1.04465,-0.689404,0.174599,-0.18076,-0.509282,-0.488512,-0.00200657,0.186796
26,60,-1.0472,-0.698132,0.174533,-0.174533,-1.04465,-0.689404,0.174599,-0.18076,-0.509282,-0.488512,-0.00200657,0.186796
26,60,-1.0472,-0.698132,0.174533,-0.174533,-1.04465,-0.689404,0.174599,-0.18076,-0.509282,-0.488512,-0.00200657,0.186796
26,60,-1.0472,-0.698132,0.174533,-0.174533,-1.04465,-0.689404,0.174599,-0.18076,-0.509282,-0.488512,-0.00200657,0.186796
26,60,-1.0472,-0.698132,0.174533,-0.174533,-1.04465,-0.689404,0.174599,-0.18076,-0.509282,-0.488512,-0.00200657,0.186796
26,60,-1.0472,-0.698132,0.174533,-0.174533,-1.04465,-0.689404,0.174599,-0.18076,-0.509282,-0.488512,-0.00200657,0.186796
26,60,-1.0472,-0.698132,0.174533,-0.174533,-1.04465,-0.689404,0.174599,-0.18076,-0.509282,-0.488512,-0.00200657,0.186796
26,60,-1.0472,-0.698132,0.174533,-0.174533,-1.04465,-0.689404,0.174599,-0.18076,-0.509282,-0.488512,-0.00200657,0.186796
26,60,-1.0472,-0.698132,0.174533,-0.174533,-1.04465,-0.689404,0.174599,-0.18076,-0.509282,-0.488512,-0.00200657,0.186796
26,60,-1.0472,-0.698132,0.174533,-0.174533,-1.04465,-0.689404,0.174599,-0.18076,-0.509282,-0.488512,-0.00200657,0.186796
26,60,-1.0472,-0.698132,0.174533,-0.174533,-1.04465,-0.689404,0.174599,-0.18076,-0.509282,-0.488512,-0.00200657,0.186796
26,60,-1.0472,-0.698132,0.174533,-0.174533,-1.04465,-0.689404,0.174599,-0.18076,-0.509282,-0.488512,-0.00200657,0.186796
26,60,-1.0472,-0.698132,0.174533,-0.174533,-1.04465,-0.689404,0.174599,-0.18076,-0.509282,-0.488512,-0.00200534,0.186796
26,60,-1.0472,-0.698132,0.174533,-0.174533,-1.04465,-0.689404,0.174599,-0.18076,-0.509282,-0.488512,-0.00200534,0.186796
26,60,-1.0472,-0.698132,0.174533,-0.174533,-1.04465,-0.689404,0.174599,-0.18076,-0.509282,-0.488512,-0.00200534,0.186796
26,60,-1.0472,-0.698132,0.174533,-0.174533,-1.04465,-0.689404,0.174599,-0.18076,-0.509282,-0.488512,-0.00200534,0.186796
26,60,-1.0472,-0.698132,0.174533,-0.174533,-1.04465,-0.689404,0.174599,-0.18076,-0.509282,-0.488512,-0.00200534,0.186796
26,60,-1.0472,-0.698132,0.174533,-0.174533,-1.04465,-0.689404,0.174599,-0.18076,-0.509282,-0.488512,-0.00200534,0.186796
26,60,-1.0472,-0.698132,0.174533,-0.174533,-1.04465,-0.689404,0.174599,-0.18076,-0.509282,-0.488512,-0.00200534,0.186796
26,60,-1.0472,-0.698132,0.174533,-0.174533,-1.04465,-0.689404,0.174599,-0.18076,-0.509282,-0.488512,-0.00200534,0.186796
26,60,-1.0472,-0.698132,0.174533,-0.174533,-1.04465,-0.689404,0.174599,-0.18076,-0.509282,-0.488512,-0.00200534,0.186796
26,60,-1.0472,-0.698132,0.174533,-0.174533,-1.04465,-0.689404,0.174599,-0.18076,-0.509282,-0.488512,-0.00200534,0.186796
26,60,-1.0472,-0.698132,0.174533,-0.174533,-1.04465,-0.689404,0.174599,-0.18076,-0.509282,-0.488512,-0.00200534,0.186796
26,60,-1.0472,-0.698132,0.174533,-0.174533,-1.04465,-0.689404,0.174599,-0.18076,-0.509282,-0.488512,-0.00200534,0.186796
26,60,-1.0472,-0.698132,0.174533,-0.174533,-1.04465,-0.689404,0.174599,-0.18076,-0.509282,-0.488512,-0.00200534,0.186796
26,60,-1.0472,-0.698132,0.174533,-0.174533,-1.04465,-0.689404,0.174599,-0.18076,-0.509282,-0.488512,-0.00200534,0.186796
26,60,-1.0472,-0.698132,0.174533,-0.174533,-1.04465,-0.689404,0.174599,-0.18076,-0.509282,-0.488512,-0.00200534,0.186796
26,60,-1.0472,-0.698132,0.174533,-0.174533,-1.04465,-0.689404,0.174599,-0.18076,-0.509282,-0.488512,-0.00200534,0.186796
26,60,-1.0472,-0.698132,0.174533,-0.174533,-1.04465,-0.689404,0.174599,-0.18076,-0.509282,-0.488512,-0.00200534,0.186796
26,60,-1.0472,-0.698132,0.174533,-0.174533,-1.04465,-0.689404,0.174599,-0.18076,-0.509282,-0.488512,-0.00200534,0.186796
26,60,-1.0472,-0.698132,0.174533,-0.174533,-1.04465,-0.689404,0.174599,-0.18076,-0.509282,-0.488512,-0.00200534,0.186796
26,60,-1.0472,-0.698132,0.174533,-0.174533,-1.04465,-0.689404,0.174599,-0.18076,-0.509282,-0.488512,-0.00200534,0.186796
26,60,-1.0472,-0.698132,0.174533,-0.174533,-1.04465,-0.689404,0.174599,-0.18076,-0.509282,-0.488512,-0.00200534,0.186796
26,60,-1.0472,-0.698132,0.174533,-0.174533,-1.04465,-0.689404,0.174599,-0.18076,-0.509282,-0.488512,-0.00200534,0.186796
26,60,-1.0472,-0.698132,0.174533,-0.174533,-1.04465,-0.689404,0.174599,-0.18076,-0.509282,-0.488512,-0.00200534,0.186796
26,60,-1.0472,-0.698132,0.174533,-0.174533,-1.04465,-0.689404,0.174599,-0.18076,-0.509282,-0.488512,-0.00200534,0.186796
26,60,-1.0472,-0.698132,0.174533,-0.174533,-1.04465,-0.689404,0.174599,-0.18076,-0.509282,-0.488512,-0.00200534,0.186796
26,60,-1.0472,-0.698132,0.174533,-0.174533,-1.04465,-0.689404,0.174599,-0.18076,-0.509282,-0.488512,-0.00199537,0.186801
26,60,-1.0472,-0.698132,0.174533,-0.174533,-1.04465,-0.689404,0.174599,-0.18076,-0.509282,-0.488512,-0.00199537,0.186801
26,60,-1.0472,-0.698132,0.174533,-0.174533,-1.04465,-0.689404,0.174599,-0.18076,-0.509282,-0.488512,-0.00199537,0.186801
26,60,-1.0472,-0.698132,0.174533,-0.174533,-1.04465,-0.689404,0.174599,-0.18076,-0.509282,-0.488512,-0.00199537,0.186801
26,60,-1.0472,-0.698132,0.174533,-0.174533,-1.04465,-0.689404,0.174599,-0.18076,-0.509282,-0.488512,-0.00199537,0.186801
26,60,-1.0472,-0.698132,0.174533,-0.174533,-1.04465,-0.689404,0.174599,-0.18076,-0.509282,-0.488512,-0.00199537,0.186801
26,60,-1.0472,-0.698132,0.174533,-0.174533,-1.04465,-0.689404,0.174599,-0.18076,-0.509282,-0.488512,-0.00199537,0.186801
26,60,-1.0472,-0.698132,0.174533,-0.174533,-1.04465,-0.689404,0.174599,-0.18076,-0.509282,-0.488512,-0.00199537,0.186801
26,60,-1.0472,-0.698132,0.174533,-0.174533,-1.04465,-0.689404,0.174599,-0.18076,-0.509282,-0.488512,-0.00199537,0.186801
26,60,-1.0472,-0.698132,0.174533,-0.174533,-1.04465,-0.689404,0.174599,-0.18076,-0.509282,-0.488512,-0.00199537,0.186801
26,60,-1.0472,-0.698132,0.174533,-0.174533,-1.04465,-0.689404,0.174599,-0.18076,-0.509282,-0.488512,-0.00199537,0.186801
26,60,-1.0472,-0.698132,0.174533,-0.174533,-1.04465,-0.689404,0.174599,-0.18076,-0.509282,-0.488512,-0.00199537,0.186801
26,60,-1.0472,-0.698132,0.174533,-0.174533,-1.04465,-0.689404,0.174599,-0.18076,-0.509282,-0.488512,-0.00199537,0.186801
26,60,-1.0472,-0.698132,0.174533,-0.174533,-1.04465,-0.689404,0.174599,-0.18076,-0.509282,-0.488512,-0.00199537,0.186801
26,60,-1.0472,-0.698132,0.174533,-0.174533,-1.04465,-0.689404,0.174599,-0.18076,-0.509282,-0.488512,-0.00199537,0.186801
26,60,-1.0472,-0.698132,0.174533,-0.174533,-1.04465,-0.689404,0.174599,-0.18076,-0.509282,-0.488512,-0.00199537,0.186801
26,60,-1.0472,-0.698132,0.174533,-0.174533,-1.04465,-0.689404,0.174599,-0.18076,-0.509282,-0.488512,-0.00199537,0.186801
26,60,-1.0472,-0.698132,0.174533,-0.174533,-1.04465,-0.689404,0.174599,-0.18076,-0.509282,-0.488512,-0.00199537,0.186801
26,60,-1.0472,-0.698132,0.174533,-0.174533,-1.04465,-0.689404,0.174599,-0.18076,-0.509282,-0.488512,-0.00199537,0.186801
26,60,-1.0472,-0.698132,0.174533,-0.174533,-1.04465,-0.689404,0.174599,-0.18076,-0.509282,-0.488512,-0.00199537,0.186801
26,60,-1.0472,-0.698132,0.174533,-0.174533,-1.04465,-0.689404,0.174599,-0.18076,-0.509282,-0.488512,-0.00199537,0.186801
26,60,-1.0472,-0.698132,0.174533,-0.174533,-1.04465,-0.689404,0.174599,-0.18076,-0.509282,-0.488512,-0.00199537,0.186801
26,60,-1.0472,-0.698132,0.174533,-0.174533,-1.04465,-0.689404,0.174599,-0.18076,-0.509282,-0.488512,-0.00199537,0.186801
26,60,-1.0472,-0.698132,0.174533,-0.174533,-1.04465,-0.689404,0.174599,-0.18076,-0.509282,-0.488512,-0.00199537,0.186801
26,60,-1.0472,-0.698132,0.174533,-0.174533,-1.04465,-0.689404,0.174599,-0.18076,-0.509282,-0.488512,-0.00199537,0.186801
26,60,-1.0472,-0.698132,0.174533,-0.174533,-1.04465,-0.689404,0.174599,-0.18076,-0.509282,-0.488512,-0.00199537,0.186801
26,60,-1.0472,-0.698132,0.174533,-0.174533,-1.04465,-0.689404,0.174599,-0.18076,-0.509282,-0.488512,-0.00199537,0.186801
26,60,-1.0472,-0.698132,0.174533,-0.174533,-1.04465,-0.689404,0.174599,-0.18076,-0.509282,-0.488512,-0.00199537,0.186801
26,60,-1.0472,-0.698132,0.174533,-0.174533,-1.04465,-0.689404,0.174599,-0.18076,-0.509282,-0.488512,-0.00199537,0.186801
26,60,-1.0472,-0.698132,0.174533,-0.174533,-1.04465,-0.689404,0.174599,-0.18076,-0.509282,-0.488512,-0.00199537,0.186801
26,60,-1.0472,-0.698132,0.174533,-0.174533,-1.04465,-0.689404,0.174599,-0.18076,-0.509282,-0.488512,-0.00199537,0.186801
26,60,-1.0472,-0.698132,0.174533,-0.174533,-1.04465,-0.689404,0.174599,-0.18076,-0.509282,-0.488512,-0.00199537,0.186801
26,60,-1.0472,-0.698132,0.174533,-0.174533,-1.04465,-0.689404,0.174599,-0.18076,-0.509282,-0.488512,-0.00199537,0.186801
26,60,-1.0472,-0.698132,0.174533,-0.174533,-1.04465,-0.689404,0.174599,-0.18076,-0.509282,-0.488512,-0.00199537,0.186801
26,60,-1.0472,-0.698132,0.174533,-0.174533,-1.04465,-0.689404,0.174599,-0.18076,-0.509282,-0.488512,-0.00199537,0.186801
26,60,-1.0472,-0.698132,0.174533,-0.174533,-1.04465,-0.689404,0.174599,-0.18076,-0.509282,-0.488512,-0.00199537,0.186801
26,60,-1.0472,-0.698132,0.174533,-0.174533,-1.04465,-0.689404,0.174599,-0.18076,-0.509282,-0.488512,-0.00199537,0.186801
26,60,-1.0472,-0.698132,0.174533,-0.174533,-1.04465,-0.689404,0.174599,-0.18076,-0.509282,-0.488512,-0.00199537,0.186801
26,60,-1.0472,-0.698132,0.174533,-0.174533,-1.04465,-0.689404,0.174599,-0.18076,-0.509282,-0.488512,-0.00199537,0.186801
26,60,-1.0472,-0.698132,0.174533,-0.174533,-1.04465,-0.689404,0.174599,-0.18076,-0.509282,-0.488512,-0.00199537,0.186801
26,60,-1.0472,-0.698132,0.174533,-0.174533,-1.04465,-0.689404,0.174599,-0.18076,-0.509282,-0.488512,-0.00199537,0.186801
26,60,-1.0472,-0.698132,0.174533,-0.174533,-1.04465,-0.689404,0.174599,-0.18076,-0.509282,-0.488512,-0.00199537,0.186801
26,60,-1.0472,-0.698132,0.174533,-0.174533,-1.04465,-0.689404,0.174599,-0.18076,-0.509282,-0.488512,-0.00199537,0.186801
26,60,-1.0472,-0.698132,0.174533,-0.174533,-1.04465,-0.689404,0.174599,-0.18076,-0.509282,-0.488512,-0.00199537,0.186801
26,60,-1.0472,-0.698132,0.174533,-0.174533,-1.04465,-0.689404,0.174599,-0.18076,-0.509282,-0.488512,-0.00199537,0.186801
26,60,-1.0472,-0.698132,0.174533,-0.174533,-1.04465,-0.689404,0.174599,-0.18076,-0.509282,-0.488512,-0.00199537,0.186801
26,60,-1.0472,-0.698132,0.174533,-0.174533,-1.04465,-0.689404,0.174599,-0.18076,-0.509282,-0.488512,-0.00199537,0.186801
26,60,-1.0472,-0.698132,0.174533,-0.174533,-1.04465,-0.689404,0.174599,-0.18076,-0.509282,-0.488512,-0.00199537,0.186801
26,60,-1.0472,-0.698132,0.174533,-0.174533,-1.04465,-0.689404,0.174599,-0.18076,-0.509282,-0.488512,-0.00199537,0.186801
26,60,-1.0472,-0.698132,0.174533,-0.174533,-1.04465,-0.689404,0.174599,-0.18076,-0.509282,-0.488512,-0.00199537,0.186801
26,60,-1.0472,-0.698132,0.174533,-0.174533,-1.04465,-0.689404,0.174599,-0.18076,-0.509282,-0.488512,-0.00199537,0.186801
26,60,-1.0472,-0.698132,0.174533,-0.174533,-1.04465,-0.689404,0.174599,-0.18076,-0.509282,-0.488512,-0.00199537,0.186801
26,60,-1.0472,-0.698132,0.174533,-0.174533,-1.04465,-0.689404,0.174599,-0.18076,-0.509282,-0.488512,-0.00199537,0.186801
26,60,-1.0472,-0.698132,0.174533,-0.174533,-1.04465,-0.689404,0.174599,-0.18076,-0.509282,-0.488512,-0.00199537,0.186801
26,60,-1.0472,-0.698132,0.174533,-0.174533,-1.04465,-0.689404,0.174599,-0.18076,-0.509282,-0.488512,-0.00199537,0.186801
26,60,-1.0472,-0.698132,0.174533,-0.174533,-1.04465,-0.689404,0.174599,-0.18076,-0.509282,-0.488512,-0.00199537,0.186801
26,60,-1.0472,-0.698132,0.174533,-0.174533,-1.04465,-0.689404,0.174599,-0.18076,-0.509282,-0.488512,-0.00199537,0.186801
26,60,-1.0472,-0.698132,0.174533,-0.174533,-1.04465,-0.689404,0.174599,-0.18076,-0.509282,-0.488512,-0.00199537,0.186801
26,60,-1.0472,-0.698132,0.174533,-0.174533,-1.04465,-0.689404,0.174599,-0.18076,-0.509282,-0.488512,-0.00199537,0.186801
26,60,-1.0472,-0.698132,0.174533,-0.174533,-1.04465,-0.689404,0.174599,-0.18076,-0.509282,-0.488512,-0.00199537,0.186801
26,60,-1.0472,-0.698132,0.174533,-0.174533,-1.04465,-0.689404,0.174599,-0.18076,-0.509282,-0.488512,-0.00199537,0.186801
26,60,-1.0472,-0.698132,0.174533,-0.174533,-1.04465,-0.689404,0.174599,-0.18076,-0.509282,-0.488512,-0.00199537,0.186801
26,60,-1.0472,-0.698132,0.174533,-0.174533,-1.04465,-0.689404,0.174599,-0.18076,-0.509282,-0.488512,-0.00199537,0.186801
26,60,-1.0472,-0.698132,0.174533,-0.174533,-1.04465,-0.689404,0.174599,-0.18076,-0.509282,-0.488512,-0.00199537,0.186801
26,60,-1.0472,-0.698132,0.174533,-0.174533,-1.04465,-0.689404,0.174599,-0.18076,-0.509282,-0.488512,-0.00199537,0.186801
26,60,-1.0472,-0.698132,0.174533,-0.174533,-1.04465,-0.689404,0.174599,-0.18076,-0.509282,-0.488512,-0.00199537,0.186801
26,60,-1.0472,-0.698132,0.174533,-0.174533,-1.04465,-0.689404,0.174599,-0.18076,-0.509282,-0.488512,-0.00199537,0.186801
26,60,-1.0472,-0.698132,0.174533,-0.174533,-1.04465,-0.689404,0.174599,-0.18076,-0.509282,-0.488512,-0.00199537,0.186801
26,60,-1.0472,-0.698132,0.174533,-0.174533,-1.04465,-0.689404,0.174599,-0.18076,-0.509282,-0.488512,-0.00199537,0.186801
26,60,-1.0472,-0.698132,0.174533,-0.174533,-1.04465,-0.689404,0.174599,-0.18076,-0.509282,-0.488512,-0.00199537,0.186801
26,60,-1.0472,-0.698132,0.174533,-0.174533,-1.04465,-0.689404,0.174599,-0.18076,-0.509282,-0.488512,-0.00199537,0.186801
26,60,-1.0472,-0.698132,0.174533,-0.174533,-1.04465,-0.689404,0.174599,-0.18076,-0.509282,-0.488512,-0.00199537,0.186801
26,60,-1.0472,-0.698132,0.174533,-0.174533,-1.04465,-0.689404,0.174599,-0.18076,-0.509282,-0.488512,-0.00199537,0.186801
26,60,-1.0472,-0.698132,0.174533,-0.174533,-1.04465,-0.689404,0.174599,-0.18076,-0.509282,-0.488512,-0.00199537,0.186801
26,60,-1.0472,-0.698132,0.174533,-0.174533,-1.04465,-0.689404,0.174599,-0.18076,-0.509282,-0.488512,-0.00199537,0.186801
26,60,-1.0472,-0.698132,0.174533,-0.174533,-1.04465,-0.689404,0.174599,-0.18076,-0.509282,-0.488729,-0.00199537,0.186801
26,60,-1.0472,-0.698132,0.174533,-0.174533,-1.04465,-0.689404,0.174599,-0.18076,-0.509282,-0.488729,-0.00199537,0.186801
26,60,-1.0472,-0.698132,0.174533,-0.174533,-1.04465,-0.689404,0.174599,-0.18076,-0.509282,-0.488729,-0.00199537,0.186801
26,60,-1.0472,-0.698132,0.174533,-0.174533,-1.04465,-0.689404,0.174599,-0.18076,-0.509282,-0.488729,-0.00199537,0.186801
26,60,-1.0472,-0.698132,0.174533,-0.174533,-1.04465,-0.689404,0.174599,-0.18076,-0.509282,-0.488729,-0.00199537,0.186801
26,60,-1.0472,-0.698132,0.174533,-0.174533,-1.04465,-0.689404,0.174599,-0.18076,-0.509282,-0.488729,-0.00199537,0.186801
26,60,-1.0472,-0.698132,0.174533,-0.174533,-1.04465,-0.689404,0.174599,-0.18076,-0.509282,-0.488729,-0.00199537,0.186801
26,60,-1.0472,-0.698132,0.174533,-0.174533,-1.04465,-0.689404,0.174599,-0.18076,-0.509282,-0.488729,-0.00199537,0.186801
26,60,-1.0472,-0.698132,0.174533,-0.174533,-1.04465,-0.689404,0.174599,-0.18076,-0.509282,-0.488729,-0.00199537,0.186801
26,60,-1.0472,-0.698132,0.174533,-0.174533,-1.04465,-0.689404,0.174599,-0.18076,-0.509282,-0.488729,-0.00199537,0.186801
26,60,-1.0472,-0.698132,0.174533,-0.174533,-1.04465,-0.689404,0.174599,-0.18076,-0.509282,-0.488729,-0.00199537,0.186801
26,60,-1.0472,-0.698132,0.174533,-0.174533,-1.04465,-0.689404,0.174599,-0.18076,-0.509282,-0.488729,-0.00199537,0.186801
26,60,-1.0472,-0.698132,0.174533,-0.174533,-1.04465,-0.689404,0.174599,-0.18076,-0.509282,-0.488729,-0.00199537,0.186801
26,60,-1.0472,-0.698132,0.174533,-0.174533,-1.04465,-0.689404,0.174599,-0.18076,-0.509282,-0.488729,-0.00199537,0.186801
26,60,-1.0472,-0.698132,0.174533,-0.174533,-1.04465,-0.689404,0.174599,-0.18076,-0.509282,-0.488729,-0.00199537,0.186801
26,60,-1.0472,-0.698132,0.174533,-0.174533,-1.04465,-0.689404,0.174599,-0.18076,-0.509282,-0.488729,-0.00199537,0.186801
26,60,-1.0472,-0.698132,0.174533,-0.174533,-1.04465,-0.689404,0.174599,-0.18076,-0.509282,-0.488729,-0.00199537,0.186801
26,60,-1.0472,-0.698132,0.174533,-0.174533,-1.04465,-0.689404,0.174599,-0.18076,-0.509282,-0.488729,-0.00199537,0.186801
26,60,-1.0472,-0.698132,0.174533,-0.174533,-1.04465,-0.689404,0.174599,-0.18076,-0.509282,-0.488729,-0.00199537,0.186801
26,60,-1.0472,-0.698132,0.174533,-0.174533,-1.04465,-0.689404,0.174599,-0.18076,-0.509282,-0.488729,-0.00199537,0.186801
26,60,-1.0472,-0.698132,0.174533,-0.174533,-1.04465,-0.689404,0.174599,-0.18076,-0.509282,-0.488729,-0.00199537,0.186801
26,60,-1.0472,-0.698132,0.174533,-0.174533,-1.04465,-0.689404,0.174599,-0.18076,-0.509282,-0.488729,-0.00199537,0.186801
26,60,-1.0472,-0.698132,0.174533,-0.174533,-1.04465,-0.689404,0.174599,-0.18076,-0.509282,-0.488729,-0.00199537,0.186801
26,60,-1.0472,-0.698132,0.174533,-0.174533,-1.04465,-0.689404,0.174599,-0.18076,-0.509282,-0.488729,-0.00199537,0.186801
26,60,-1.0472,-0.698132,0.174533,-0.174533,-1.04465,-0.689404,0.174599,-0.18076,-0.509282,-0.488729,-0.00199537,0.186801
26,60,-1.0472,-0.698132,0.174533,-0.174533,-1.04465,-0.689404,0.174599,-0.18076,-0.509282,-0.488729,-0.00199537,0.186801
26,60,-1.0472,-0.698132,0.174533,-0.174533,-1.04465,-0.689404,0.174599,-0.18076,-0.509282,-0.488729,-0.00199537,0.186801
26,60,-1.0472,-0.698132,0.174533,-0.174533,-1.04465,-0.689404,0.174599,-0.18076,-0.509282,-0.488729,-0.00199537,0.186801
26,60,-1.0472,-0.698132,0.174533,-0.174533,-1.04465,-0.689404,0.174599,-0.18076,-0.509282,-0.488729,-0.00199537,0.186801
26,60,-1.0472,-0.698132,0.174533,-0.174533,-1.04465,-0.689404,0.174599,-0.18076,-0.509282,-0.488729,-0.00199537,0.186801
26,60,-1.0472,-0.698132,0.174533,-0.174533,-1.04465,-0.689404,0.174599,-0.18076,-0.509282,-0.488729,-0.00199537,0.186801
26,60,-1.0472,-0.698132,0.174533,-0.174533,-1.04465,-0.689404,0.174599,-0.18076,-0.509282,-0.488729,-0.00199537,0.186801
26,60,-1.0472,-0.698132,0.174533,-0.174533,-1.04465,-0.689404,0.174599,-0.18076,-0.509282,-0.488729,-0.00199537,0.186801
26,60,-1.0472,-0.698132,0.174533,-0.174533,-1.04465,-0.689404,0.174599,-0.18076,-0.509282,-0.488729,-0.00199537,0.186801
26,60,-1.0472,-0.698132,0.174533,-0.174533,-1.04465,-0.689404,0.174599,-0.18076,-0.509282,-0.488729,-0.00199537,0.186801
26,60,-1.0472,-0.698132,0.174533,-0.174533,-1.04465,-0.689404,0.174599,-0.18076,-0.509282,-0.488729,-0.00199537,0.186801
26,60,-1.0472,-0.698132,0.174533,-0.174533,-1.04465,-0.689404,0.174599,-0.18076,-0.509282,-0.488729,-0.00199537,0.186801
26,60,-1.0472,-0.698132,0.174533,-0.174533,-1.04465,-0.689404,0.174599,-0.18076,-0.509282,-0.488729,-0.00199537,0.186801
26,60,-1.0472,-0.698132,0.174533,-0.174533,-1.04465,-0.689404,0.174599,-0.18076,-0.509282,-0.488729,-0.00199537,0.186801
26,60,-1.0472,-0.698132,0.174533,-0.174533,-1.04465,-0.689404,0.174599,-0.18076,-0.509282,-0.488729,-0.00199537,0.186801
26,60,-1.0472,-0.698132,0.174533,-0.174533,-1.04465,-0.689404,0.174599,-0.18076,-0.509282,-0.488729,-0.00199537,0.186801
26,60,-1.0472,-0.698132,0.174533,-0.174533,-1.04465,-0.689404,0.174599,-0.18076,-0.509282,-0.488729,-0.00199537,0.186801
26,60,-1.0472,-0.698132,0.174533,-0.174533,-1.04465,-0.689404,0.174599,-0.18076,-0.509282,-0.488729,-0.00199537,0.186801
26,60,-1.0472,-0.698132,0.174533,-0.174533,-1.04465,-0.689404,0.174599,-0.18076,-0.509282,-0.488729,-0.00199537,0.186801
26,60,-1.0472,-0.698132,0.174533,-0.174533,-1.04465,-0.689404,0.174599,-0.18076,-0.509282,-0.488729,-0.00199537,0.186801
26,60,-1.0472,-0.698132,0.174533,-0.174533,-1.04465,-0.689404,0.174599,-0.18076,-0.509282,-0.488729,-0.00199537,0.186801
26,60,-1.0472,-0.698132,0.174533,-0.174533,-1.04465,-0.689404,0.174599,-0.18076,-0.509282,-0.488729,-0.00199537,0.186801
26,60,-1.0472,-0.698132,0.174533,-0.174533,-1.04465,-0.689404,0.174599,-0.18076,-0.509282,-0.488729,-0.00199537,0.186801
26,60,-1.0472,-0.698132,0.174533,-0.174533,-1.04465,-0.689404,0.174599,-0.18076,-0.509282,-0.488729,-0.00199537,0.186801
26,60,-1.0472,-0.698132,0.174533,-0.174533,-1.04465,-0.689404,0.174599,-0.18076,-0.509282,-0.488729,-0.00199537,0.186801
26,60,-1.0472,-0.698132,0.174533,-0.174533,-1.04465,-0.689404,0.174599,-0.18076,-0.509282,-0.488729,-0.00199537,0.186801
26,60,-1.0472,-0.698132,0.174533,-0.174533,-1.04465,-0.689404,0.174672,-0.180789,-0.509282,-0.488729,-0.00416448,0.187685
26,60,-1.0472,-0.698132,0.174533,-0.174533,-1.04465,-0.689404,0.174672,-0.180789,-0.509282,-0.488729,-0.00416448,0.187685
26,60,-1.0472,-0.698132,0.174533,-0.174533,-1.04465,-0.689404,0.174672,-0.180789,-0.509282,-0.488729,-0.00416448,0.187685
26,60,-1.0472,-0.698132,0.174533,-0.174533,-1.04465,-0.689404,0.174672,-0.180789,-0.509282,-0.488729,-0.00416448,0.187685
26,60,-1.0472,-0.698132,0.174533,-0.174533,-1.04465,-0.689404,0.174672,-0.180789,-0.509282,-0.488729,-0.00416448,0.187685
26,60,-1.0472,-0.698132,0.174533,-0.174533,-1.04465,-0.689404,0.174672,-0.180789,-0.509282,-0.488729,-0.00416448,0.187685
26,60,-1.0472,-0.698132,0.174533,-0.174533,-1.04465,-0.689404,0.174672,-0.180789,-0.509282,-0.488729,-0.00416448,0.187685
26,60,-1.0472,-0.698132,0.174533,-0.174533,-1.04465,-0.689404,0.174672,-0.180789,-0.509282,-0.488729,-0.00416448,0.187685
26,60,-1.0472,-0.698132,0.174533,-0.174533,-1.04465,-0.689404,0.174672,-0.180789,-0.509282,-0.488729,-0.00416448,0.187685
26,60,-1.0472,-0.698132,0.174533,-0.174533,-1.04465,-0.689404,0.174672,-0.180789,-0.509282,-0.488729,-0.00416448,0.187685
26,60,-1.0472,-0.698132,0.174533,-0.174533,-1.04465,-0.689404,0.174672,-0.180789,-0.509282,-0.488729,-0.00416448,0.187685
26,60,-1.0472,-0.698132,0.174533,-0.174533,-1.04465,-0.689404,0.174672,-0.180789,-0.509282,-0.488729,-0.00416448,0.187685
26,60,-1.0472,-0.698132,0.174533,-0.174533,-1.04465,-0.689404,0.174672,-0.180789,-0.509282,-0.488729,-0.00416448,0.187685
26,60,-1.0472,-0.698132,0.174533,-0.174533,-1.04465,-0.689404,0.174672,-0.180789,-0.509282,-0.488729,-0.00416448,0.187685
26,60,-1.0472,-0.698132,0.174533,-0.174533,-1.04465,-0.689404,0.174672,-0.180789,-0.509282,-0.488729,-0.00416448,0.187685
26,60,-1.0472,-0.698132,0.174533,-0.174533,-1.04465,-0.689404,0.174672,-0.180789,-0.509282,-0.488729,-0.00416448,0.187685
26,60,-1.0472,-0.698132,0.174533,-0.174533,-1.04465,-0.689404,0.174672,-0.180789,-0.509282,-0.488729,-0.00416448,0.187685
26,60,-1.0472,-0.698132,0.174533,-0.174533,-1.04465,-0.689404,0.174672,-0.180789,-0.509282,-0.488729,-0.00416448,0.187685
26,60,-1.0472,-0.698132,0.174533,-0.174533,-1.04465,-0.689404,0.174672,-0.180789,-0.509282,-0.488729,-0.00416448,0.187685
26,60,-1.0472,-0.698132,0.174533,-0.174533,-1.04465,-0.689404,0.174672,-0.180789,-0.509282,-0.488729,-0.00416448,0.187685
26,60,-1.0472,-0.698132,0.174533,-0.174533,-1.04465,-0.689404,0.174672,-0.180789,-0.509282,-0.488729,-0.00416448,0.187685
26,60,-1.0472,-0.698132,0.174533,-0.174533,-1.04465,-0.689404,0.174672,-0.180789,-0.509282,-0.488729,-0.00416448,0.187685
26,60,-1.0472,-0.698132,0.174533,-0.174533,-1.04465,-0.689404,0.174672,-0.180789,-0.509282,-0.488729,-0.00416448,0.187685
26,60,-1.0472,-0.698132,0.174533,-0.174533,-1.04465,-0.689404,0.174672,-0.180789,-0.509282,-0.488729,-0.00416448,0.187685
26,60,-1.0472,-0.698132,0.174533,-0.174533,-1.04465,-0.689404,0.174672,-0.180789,-0.509282,-0.488729,-0.00416448,0.187685
26,60,-1.0472,-0.698132,0.174533,-0.174533,-1.04465,-0.689404,0.174672,-0.180789,-0.509282,-0.488729,-0.00416448,0.187685
26,60,-1.0472,-0.698132,0.174533,-0.174533,-1.04465,-0.689404,0.174672,-0.180789,-0.509282,-0.488729,-0.00416448,0.187685
26,60,-1.0472,-0.698132,0.174533,-0.174533,-1.04465,-0.689404,0.174672,-0.180789,-0.509282,-0.488729,-0.00416448,0.187685
26,60,-1.0472,-0.698132,0.174533,-0.174533,-1.04465,-0.689404,0.174672,-0.180789,-0.509282,-0.488729,-0.00416448,0.187685
26,60,-1.0472,-0.698132,0.174533,-0.174533,-1.04465,-0.689404,0.174672,-0.180789,-0.509282,-0.488729,-0.00416448,0.187685
26,60,-1.0472,-0.698132,0.174533,-0.174533,-1.04465,-0.689404,0.174672,-0.180789,-0.509282,-0.488729,-0.00416448,0.187685
26,60,-1.0472,-0.698132,0.174533,-0.174533,-1.04465,-0.689404,0.174672,-0.180789,-0.509282,-0.488729,-0.00416448,0.187685
26,60,-1.0472,-0.698132,0.174533,-0.174533,-1.04465,-0.689404,0.174672,-0.180789,-0.509282,-0.488729,-0.00416448,0.187685
26,60,-1.0472,-0.698132,0.174533,-0.174533,-1.04465,-0.689404,0.174672,-0.180789,-0.509282,-0.488729,-0.00416448,0.187685
26,60,-1.0472,-0.698132,0.174533,-0.174533,-1.04465,-0.689404,0.174672,-0.180789,-0.509282,-0.488729,-0.00416448,0.187685
26,60,-1.0472,-0.698132,0.174533,-0.174533,-1.04465,-0.689404,0.174672,-0.180789,-0.509282,-0.488729,-0.00416448,0.187685
26,60,-1.0472,-0.698132,0.174533,-0.174533,-1.04465,-0.689404,0.174672,-0.180789,-0.509282,-0.488729,-0.00416448,0.187685
26,60,-1.0472,-0.698132,0.174533,-0.174533,-1.04465,-0.689404,0.174672,-0.180789,-0.509282,-0.488729,-0.00416448,0.187685
26,60,-1.0472,-0.698132,0.174533,-0.174533,-1.04465,-0.689404,0.174672,-0.180789,-0.509282,-0.488729,-0.00416448,0.187685
26,60,-1.0472,-0.698132,0.174533,-0.174533,-1.04465,-0.689404,0.174672,-0.180789,-0.509282,-0.488729,-0.00416448,0.187685
26,60,-1.0472,-0.698132,0.174533,-0.174533,-1.04465,-0.689404,0.174672,-0.180789,-0.509282,-0.488729,-0.00416448,0.187685
26,60,-1.0472,-0.698132,0.174533,-0.174533,-1.04465,-0.689404,0.174672,-0.180789,-0.509282,-0.488729,-0.00416448,0.187685
26,60,-1.0472,-0.698132,0.174533,-0.174533,-1.04465,-0.689404,0.174672,-0.180789,-0.509282,-0.488729,-0.00416448,0.187685
26,60,-1.0472,-0.698132,0.174533,-0.174533,-1.04465,-0.689404,0.174672,-0.180789,-0.509282,-0.488729,-0.00416448,0.187685
26,60,-1.0472,-0.698132,0.174533,-0.174533,-1.04465,-0.689404,0.174672,-0.180789,-0.509282,-0.488729,-0.00416448,0.187685
26,60,-1.0472,-0.698132,0.174533,-0.174533,-1.04465,-0.689404,0.174672,-0.180789,-0.509282,-0.488729,-0.00416448,0.187685
26,60,-1.0472,-0.698132,0.174533,-0.174533,-1.04465,-0.689404,0.174672,-0.180789,-0.509282,-0.488729,-0.00416448,0.187685
26,60,-1.0472,-0.698132,0.174533,-0.174533,-1.04465,-0.689404,0.174672,-0.180789,-0.509282,-0.488729,-0.00416448,0.187685
26,60,-1.0472,-0.698132,0.174533,-0.174533,-1.04465,-0.689404,0.174672,-0.180789,-0.509282,-0.488729,-0.00416448,0.187685
26,60,-1.0472,-0.698132,0.174533,-0.174533,-1.04465,-0.689404,0.174672,-0.180789,-0.509282,-0.488729,-0.00416448,0.187685
26,60,-1.0472,-0.698132,0.174533,-0.174533,-1.04465,-0.689404,0.174672,-0.180789,-0.509282,-0.488729,-0.00416448,0.187685
26,60,-1.0472,-0.698132,0.174533,-0.174533,-1.04465,-0.689404,0.174672,-0.180789,-0.509282,-0.488729,-0.00416448,0.187685
26,60,-1.0472,-0.698132,0.174533,-0.174533,-1.04465,-0.689404,0.174672,-0.180789,-0.509282,-0.488729,-0.00416448,0.187685
26,60,-1.0472,-0.698132,0.174533,-0.174533,-1.04465,-0.689404,0.174672,-0.180789,-0.509282,-0.488729,-0.00416448,0.187685
26,60,-1.0472,-0.698132,0.174533,-0.174533,-1.04465,-0.689404,0.174672,-0.180789,-0.509282,-0.488729,-0.00416448,0.187685
26,60,-1.0472,-0.698132,0.174533,-0.174533,-1.04465,-0.689404,0.174672,-0.180789,-0.509282,-0.488729,-0.00416448,0.187685
26,60,-1.0472,-0.698132,0.174533,-0.174533,-1.04465,-0.689404,0.174672,-0.180789,-0.509282,-0.488729,-0.00416448,0.187685
26,60,-1.0472,-0.698132,0.174533,-0.174533,-1.04465,-0.689404,0.174672,-0.180789,-0.509282,-0.488729,-0.00416448,0.187685
26,60,-1.0472,-0.698132,0.174533,-0.174533,-1.04465,-0.689404,0.174672,-0.180789,-0.509282,-0.488729,-0.00416448,0.187685
26,60,-1.0472,-0.698132,0.174533,-0.174533,-1.04465,-0.689404,0.174672,-0.180789,-0.509282,-0.488729,-0.00416448,0.187685
26,60,-1.0472,-0.698132,0.174533,-0.174533,-1.04465,-0.689404,0.174672,-0.180789,-0.509282,-0.488729,-0.00416448,0.187685
26,60,-1.0472,-0.698132,0.174533,-0.174533,-1.04465,-0.689404,0.174672,-0.180789,-0.509282,-0.488729,-0.00416448,0.187685
26,60,-1.0472,-0.698132,0.174533,-0.174533,-1.04465,-0.689404,0.174672,-0.180789,-0.509282,-0.488729,-0.00416448,0.187685
26,60,-1.0472,-0.698132,0.174533,-0.174533,-1.04465,-0.689404,0.174672,-0.180789,-0.509282,-0.488729,-0.00416448,0.187685
26,60,-1.0472,-0.698132,0.174533,-0.174533,-1.04465,-0.689404,0.174672,-0.180789,-0.509282,-0.488729,-0.00416448,0.187685
26,60,-1.0472,-0.698132,0.174533,-0.174533,-1.04465,-0.689404,0.174672,-0.180789,-0.509282,-0.488729,-0.00416448,0.187685
26,60,-1.0472,-0.698132,0.174533,-0.174533,-1.04465,-0.689404,0.174672,-0.180789,-0.509282,-0.488729,-0.00416448,0.187685
26,60,-1.0472,-0.698132,0.174533,-0.174533,-1.04465,-0.689404,0.174672,-0.180789,-0.509282,-0.488729,-0.00416448,0.187685
26,60,-1.0472,-0.698132,0.174533,-0.174533,-1.04465,-0.689404,0.174672,-0.180789,-0.509282,-0.488729,-0.00416448,0.187685
26,60,-1.0472,-0.698132,0.174533,-0.174533,-1.04465,-0.689404,0.174672,-0.180789,-0.509282,-0.488729,-0.00416448,0.187685
26,60,-1.0472,-0.698132,0.174533,-0.174533,-1.04465,-0.689404,0.174672,-0.180789,-0.509282,-0.488729,-0.00416448,0.187685
26,60,-1.0472,-0.698132,0.174533,-0.174533,-1.04465,-0.689404,0.174672,-0.180789,-0.509282,-0.488729,-0.00416448,0.187685
26,60,-1.0472,-0.698132,0.174533,-0.174533,-1.04465,-0.689404,0.174672,-0.180789,-0.509282,-0.488729,-0.00416448,0.187685
26,60,-1.0472,-0.698132,0.174533,-0.174533,-1.04465,-0.689404,0.174672,-0.180789,-0.509282,-0.488729,-0.00416448,0.187685
26,60,-1.0472,-0.698132,0.174533,-0.174533,-1.04465,-0.689404,0.174672,-0.180789,-0.509282,-0.488729,-0.00416448,0.187685
26,60,-1.0472,-0.698132,0.174533,-0.174533,-1.04465,-0.689404,0.174672,-0.180789,-0.509282,-0.488729,-0.00416448,0.187685
26,60,-1.0472,-0.698132,0.174533,-0.174533,-1.04465,-0.689404,0.174672,-0.180789,-0.509282,-0.488729,-0.00416448,0.187685
26,60,-1.0472,-0.698132,0.174533,-0.174533,-1.04465,-0.689404,0.174672,-0.180789,-0.509282,-0.488729,-0.00416448,0.187685
26,60,-1.0472,-0.698132,0.174533,-0.174533,-1.04465,-0.689404,0.174672,-0.180789,-0.509282,-0.488729,-0.00416448,0.187685
26,60,-1.0472,-0.698132,0.174533,-0.174533,-1.04465,-0.689404,0.174672,-0.180789,-0.509282,-0.488729,-0.00416448,0.187685
26,60,-1.0472,-0.698132,0.174533,-0.174533,-1.04465,-0.689404,0.174672,-0.180789,-0.509282,-0.488729,-0.00416448,0.187685
26,60,-1.0472,-0.698132,0.174533,-0.174533,-1.04465,-0.689404,0.174672,-0.180789,-0.509282,-0.488729,-0.00416448,0.187685
26,60,-1.0472,-0.698132,0.174533,-0.174533,-1.04465,-0.689404,0.174672,-0.180789,-0.509282,-0.488729,-0.00416448,0.187685
26,60,-1.0472,-0.698132,0.174533,-0.174533,-1.04465,-0.689404,0.174672,-0.180789,-0.509282,-0.488729,-0.00416448,0.187685
26,60,-1.0472,-0.698132,0.174533,-0.174533,-1.04465,-0.689404,0.174672,-0.180789,-0.509282,-0.488729,-0.00416448,0.187685
26,60,-1.0472,-0.698132,0.174533,-0.174533,-1.04465,-0.689404,0.174672,-0.180789,-0.509282,-0.488729,-0.00416448,0.187685
26,60,-1.0472,-0.698132,0.174533,-0.174533,-1.04465,-0.689404,0.174672,-0.180789,-0.509282,-0.488729,-0.00416448,0.187685
26,60,-1.0472,-0.698132,0.174533,-0.174533,-1.04465,-0.689404,0.174672,-0.180789,-0.509282,-0.488729,-0.00416448,0.187685
26,60,-1.0472,-0.698132,0.174533,-0.174533,-1.04465,-0.689404,0.174672,-0.180789,-0.509282,-0.488729,-0.00416448,0.187685
26,60,-1.0472,-0.698132,0.174533,-0.174533,-1.04465,-0.689404,0.174672,-0.180789,-0.509282,-0.488729,-0.00416448,0.187685
26,60,-1.0472,-0.698132,0.174533,-0.174533,-1.04465,-0.689404,0.174672,-0.180789,-0.509282,-0.488729,-0.00416448,0.187685
26,60,-1.0472,-0.698132,0.174533,-0.174533,-1.04465,-0.689404,0.174672,-0.180789,-0.509282,-0.488729,-0.00416448,0.187685
26,60,-1.0472,-0.698132,0.174533,-0.174533,-1.04465,-0.689404,0.174672,-0.180789,-0.509282,-0.488729,-0.00416448,0.187685
26,60,-1.0472,-0.698132,0.174533,-0.174533,-1.04465,-0.689404,0.174672,-0.180789,-0.509282,-0.488729,-0.00416448,0.187685
26,60,-1.0472,-0.698132,0.174533,-0.174533,-1.04465,-0.689404,0.174672,-0.180789,-0.509282,-0.488729,-0.00416448,0.187685
26,60,-1.0472,-0.698132,0.174533,-0.174533,-1.04465,-0.689404,0.174672,-0.180789,-0.509282,-0.488729,-0.00416448,0.187685
26,60,-1.0472,-0.698132,0.174533,-0.174533,-1.04465,-0.689404,0.174672,-0.180789,-0.509282,-0.488729,-0.00416448,0.187685
26,60,-1.0472,-0.698132,0.174533,-0.174533,-1.04465,-0.689404,0.174672,-0.180789,-0.509282,-0.488729,-0.00416448,0.187685
26,60,-1.0472,-0.698132,0.174533,-0.174533,-1.04465,-0.689404,0.174672,-0.180789,-0.509282,-0.488729,-0.00416448,0.187685
26,60,-1.0472,-0.698132,0.174533,-0.174533,-1.04465,-0.689404,0.174672,-0.180789,-0.509282,-0.488729,-0.00416448,0.187685
26,60,-1.0472,-0.698132,0.174533,-0.174533,-1.04465,-0.689404,0.174672,-0.180789,-0.509282,-0.488729,-0.00416448,0.187685
26,60,-1.0472,-0.698132,0.174533,-0.174533,-1.04465,-0.689404,0.174672,-0.180789,-0.509282,-0.488729,-0.00416448,0.187685
26,60,-1.0472,-0.698132,0.174533,-0.174533,-1.04465,-0.689404,0.174672,-0.180789,-0.509282,-0.488729,-0.00416448,0.187685
26,60,-1.0472,-0.698132,0.174533,-0.174533,-1.04465,-0.689404,0.174672,-0.180789,-0.509282,-0.488729,-0.00416448,0.187685
26,60,-1.0472,-0.698132,0.174533,-0.174533,-1.04465,-0.689404,0.174672,-0.180789,-0.509282,-0.488729,-0.00416448,0.187685
26,60,-1.0472,-0.698132,0.174533,-0.174533,-1.04465,-0.689404,0.174672,-0.180789,-0.509282,-0.488729,-0.00416448,0.187685
26,60,-1.0472,-0.698132,0.174533,-0.174533,-1.04465,-0.689404,0.174672,-0.180789,-0.509282,-0.488729,-0.00416448,0.187685
26,60,-1.0472,-0.698132,0.174533,-0.174533,-1.04465,-0.689404,0.174672,-0.180789,-0.509282,-0.488729,-0.00416448,0.187685
26,60,-1.0472,-0.698132,0.174533,-0.174533,-1.04465,-0.689404,0.174672,-0.180789,-0.509282,-0.488729,-0.00416448,0.187685
26,60,-1.0472,-0.698132,0.174533,-0.174533,-1.04465,-0.689404,0.174672,-0.180789,-0.509282,-0.488729,-0.00416448,0.187685
26,60,-1.0472,-0.698132,0.174533,-0.174533,-1.04465,-0.689404,0.174672,-0.180789,-0.509282,-0.488729,-0.00416448,0.187685
26,60,-1.0472,-0.698132,0.174533,-0.174533,-1.04465,-0.689404,0.174672,-0.180789,-0.509282,-0.488729,-0.00416448,0.187685
26,60,-1.0472,-0.698132,0.174533,-0.174533,-1.04465,-0.689404,0.174672,-0.180789,-0.509282,-0.488729,-0.00416448,0.187685
26,60,-1.0472,-0.698132,0.174533,-0.174533,-1.04465,-0.689404,0.174672,-0.180789,-0.509282,-0.488729,-0.00416448,0.187685
26,60,-1.0472,-0.698132,0.174533,-0.174533,-1.04465,-0.689404,0.174672,-0.180789,-0.509282,-0.488729,-0.00416448,0.187685
26,60,-1.0472,-0.698132,0.174533,-0.174533,-1.04465,-0.689404,0.174672,-0.180789,-0.509282,-0.488729,-0.00416448,0.187685
26,60,-1.0472,-0.698132,0.174533,-0.174533,-1.04465,-0.689404,0.174672,-0.180789,-0.509282,-0.488729,-0.00416448,0.187685
26,60,-1.0472,-0.698132,0.174533,-0.174533,-1.04465,-0.689404,0.174672,-0.180789,-0.509282,-0.488729,-0.00416448,0.187685
26,60,-1.0472,-0.698132,0.174533,-0.174533,-1.04465,-0.689404,0.174672,-0.180789,-0.509282,-0.488729,-0.00416448,0.187685
26,60,-1.0472,-0.698132,0.174533,-0.174533,-1.04465,-0.689404,0.174672,-0.180789,-0.509282,-0.488729,-0.00416448,0.187685
26,60,-1.0472,-0.698132,0.174533,-0.174533,-1.04465,-0.689404,0.174672,-0.180789,-0.509282,-0.488729,-0.00416448,0.187685
26,60,-1.0472,-0.698132,0.174533,-0.174533,-1.04465,-0.689404,0.174672,-0.180789,-0.509282,-0.488729,-0.00416448,0.187685
26,60,-1.0472,-0.698132,0.174533,-0.174533,-1.04465,-0.689404,0.174672,-0.180789,-0.509282,-0.488729,-0.00416448,0.187685
26,60,-1.0472,-0.698132,0.174533,-0.174533,-1.04465,-0.689404,0.174672,-0.180789,-0.509282,-0.488729,-0.00416448,0.187685
26,60,-1.0472,-0.698132,0.174533,-0.174533,-1.04465,-0.689404,0.174672,-0.180789,-0.509282,-0.488729,-0.00416448,0.187685
26,60,-1.0472,-0.698132,0.174533,-0.174533,-1.04465,-0.689404,0.174672,-0.180789,-0.509282,-0.488729,-0.00416448,0.187685
26,60,-1.0472,-0.698132,0.174533,-0.174533,-1.04465,-0.689404,0.174672,-0.180789,-0.509282,-0.488729,-0.00416448,0.187685
26,60,-1.0472,-0.698132,0.174533,-0.174533,-1.04465,-0.689404,0.174672,-0.180789,-0.509282,-0.488729,-0.00416448,0.187685
26,60,-1.0472,-0.698132,0.174533,-0.174533,-1.04465,-0.689404,0.174672,-0.180789,-0.509282,-0.488729,-0.00416448,0.187685
26,60,-1.0472,-0.698132,0.174533,-0.174533,-1.04465,-0.689404,0.174672,-0.180789,-0.509282,-0.488729,-0.00416448,0.187685
26,60,-1.0472,-0.698132,0.174533,-0.174533,-1.04465,-0.689404,0.174672,-0.180789,-0.509282,-0.488729,-0.00416448,0.187685
26,60,-1.0472,-0.698132,0.174533,-0.174533,-1.04465,-0.689404,0.174672,-0.180789,-0.509282,-0.488729,-0.00416448,0.187685
26,60,-1.0472,-0.698132,0.174533,-0.174533,-1.04465,-0.689404,0.174672,-0.180789,-0.509282,-0.488729,-0.00416448,0.187685
26,60,-1.0472,-0.698132,0.174533,-0.174533,-1.04465,-0.689404,0.174672,-0.180789,-0.509282,-0.488729,-0.00416448,0.187685
26,60,-1.0472,-0.698132,0.174533,-0.174533,-1.04465,-0.689404,0.174672,-0.180789,-0.509282,-0.488729,-0.00416448,0.187685
26,60,-1.0472,-0.698132,0.174533,-0.174533,-1.04465,-0.689404,0.174672,-0.180789,-0.509282,-0.488729,-0.00416448,0.187685
26,60,-1.0472,-0.698132,0.174533,-0.174533,-1.04465,-0.689404,0.174672,-0.180789,-0.509282,-0.488729,-0.00416448,0.187685
26,60,-1.0472,-0.698132,0.174533,-0.174533,-1.04465,-0.689404,0.174672,-0.180789,-0.509282,-0.488729,-0.00416448,0.187685
26,60,-1.0472,-0.698132,0.174533,-0.174533,-1.04465,-0.689404,0.174672,-0.180789,-0.509282,-0.488729,-0.00416448,0.187685
26,60,-1.0472,-0.698132,0.174533,-0.174533,-1.04465,-0.689404,0.174672,-0.180789,-0.509282,-0.488729,-0.00416448,0.187685
26,60,-1.0472,-0.698132,0.174533,-0.174533,-1.04465,-0.689404,0.174672,-0.180789,-0.509282,-0.488729,-0.00416448,0.187685
26,60,-1.0472,-0.698132,0.174533,-0.174533,-1.04465,-0.689404,0.174672,-0.180789,-0.509282,-0.488729,-0.00416448,0.187685
26,60,-1.0472,-0.698132,0.174533,-0.174533,-1.04465,-0.689404,0.174672,-0.180789,-0.509282,-0.488729,-0.00416448,0.187685
26,60,-1.0472,-0.698132,0.174533,-0.174533,-1.04465,-0.689404,0.174672,-0.180789,-0.509282,-0.488729,-0.00416448,0.187685
26,60,-1.0472,-0.698132,0.174533,-0.174533,-1.04465,-0.689404,0.174672,-0.180789,-0.509282,-0.488729,-0.00416448,0.187685
26,60,-1.0472,-0.698132,0.174533,-0.174533,-1.04465,-0.689404,0.174672,-0.180789,-0.509282,-0.488729,-0.00416448,0.187685
26,60,-1.0472,-0.698132,0.174533,-0.174533,-1.04465,-0.689404,0.174672,-0.180789,-0.509282,-0.488729,-0.00416448,0.187685
26,60,-1.0472,-0.698132,0.174533,-0.174533,-1.04465,-0.689404,0.174672,-0.180789,-0.509282,-0.488729,-0.00416448,0.187685
26,60,-1.0472,-0.698132,0.174533,-0.174533,-1.04465,-0.689404,0.174672,-0.180789,-0.509282,-0.488729,-0.00416448,0.187685
26,60,-1.0472,-0.698132,0.174533,-0.174533,-1.04465,-0.689404,0.174672,-0.180789,-0.509282,-0.488729,-0.00416448,0.187685
26,60,-1.0472,-0.698132,0.174533,-0.174533,-1.04465,-0.689404,0.174672,-0.180789,-0.509282,-0.488729,-0.00416448,0.187685
26,60,-1.0472,-0.698132,0.174533,-0.174533,-1.04465,-0.689404,0.174672,-0.180789,-0.509282,-0.488729,-0.00416448,0.187685
26,60,-1.0472,-0.698132,0.174533,-0.174533,-1.04465,-0.689404,0.174672,-0.180789,-0.509282,-0.488729,-0.00416448,0.187685
26,60,-1.0472,-0.698132,0.174533,-0.174533,-1.04465,-0.689404,0.174672,-0.180789,-0.509282,-0.488729,-0.00416448,0.187685
26,60,-1.0472,-0.698132,0.174533,-0.174533,-1.04465,-0.689404,0.174672,-0.180789,-0.509282,-0.488729,-0.00416448,0.187685
26,60,-1.0472,-0.698132,0.174533,-0.174533,-1.04465,-0.689404,0.174672,-0.180789,-0.509282,-0.488729,-0.00416448,0.187685
26,60,-1.0472,-0.698132,0.174533,-0.174533,-1.04465,-0.689404,0.174672,-0.180789,-0.509282,-0.488729,-0.00416448,0.187685
26,60,-1.0472,-0.698132,0.174533,-0.174533,-1.04465,-0.689404,0.174672,-0.180789,-0.509282,-0.488729,-0.00416448,0.187685
26,60,-1.0472,-0.698132,0.174533,-0.174533,-1.04465,-0.689404,0.174672,-0.180789,-0.509282,-0.488729,-0.00416448,0.187685
26,60,-1.0472,-0.698132,0.174533,-0.174533,-1.04465,-0.689404,0.174672,-0.180789,-0.509282,-0.488729,-0.00416448,0.187685
26,60,-1.0472,-0.698132,0.174533,-0.174533,-1.04465,-0.689404,0.174672,-0.180789,-0.509282,-0.488729,-0.00416448,0.187685
26,60,-1.0472,-0.698132,0.174533,-0.174533,-1.04465,-0.689404,0.174672,-0.180789,-0.509282,-0.488729,-0.00416448,0.187685
26,60,-1.0472,-0.698132,0.174533,-0.174533,-1.04465,-0.689404,0.174672,-0.180789,-0.509282,-0.488729,-0.00416448,0.187685
26,60,-1.0472,-0.698132,0.174533,-0.174533,-1.04465,-0.689404,0.174672,-0.180789,-0.509282,-0.488729,-0.00416448,0.187685
26,60,-1.0472,-0.698132,0.174533,-0.174533,-1.04465,-0.689404,0.174672,-0.180789,-0.509282,-0.488729,-0.00416448,0.187685
26,60,-1.0472,-0.698132,0.174533,-0.174533,-1.04465,-0.689404,0.174672,-0.180789,-0.509282,-0.488729,-0.00416448,0.187685
26,60,-1.0472,-0.698132,0.174533,-0.174533,-1.04465,-0.689404,0.174672,-0.180789,-0.509282,-0.488729,-0.00416448,0.187685
26,60,-1.0472,-0.698132,0.174533,-0.174533,-1.04465,-0.689404,0.174672,-0.180789,-0.509282,-0.488729,-0.00416448,0.187685
26,60,-1.0472,-0.698132,0.174533,-0.174533,-1.04465,-0.689404,0.174672,-0.180789,-0.509282,-0.488729,-0.00416448,0.187685
26,60,-1.0472,-0.698132,0.174533,-0.174533,-1.04465,-0.689404,0.174672,-0.180789,-0.509282,-0.488729,-0.00416448,0.187685
26,60,-1.0472,-0.698132,0.174533,-0.174533,-1.04465,-0.689404,0.174672,-0.180789,-0.509282,-0.488729,-0.00416448,0.187685
26,60,-1.0472,-0.698132,0.174533,-0.174533,-1.04465,-0.689404,0.174672,-0.180789,-0.509282,-0.488729,-0.00416448,0.187685
26,60,-1.0472,-0.698132,0.174533,-0.174533,-1.04465,-0.689404,0.174672,-0.180789,-0.509282,-0.488729,-0.00416448,0.187685
26,60,-1.0472,-0.698132,0.174533,-0.174533,-1.04465,-0.689404,0.174672,-0.180789,-0.509282,-0.488729,-0.00416448,0.187685
26,60,-1.0472,-0.698132,0.174533,-0.174533,-1.04465,-0.689404,0.174672,-0.180789,-0.509282,-0.488729,-0.00416448,0.187685
26,60,-1.0472,-0.698132,0.174533,-0.174533,-1.04465,-0.689404,0.174672,-0.180789,-0.509282,-0.488729,-0.00416448,0.187685
26,60,-1.0472,-0.698132,0.174533,-0.174533,-1.04465,-0.689404,0.174672,-0.180789,-0.509282,-0.488729,-0.00416448,0.187685
26,60,-1.0472,-0.698132,0.174533,-0.174533,-1.04465,-0.689404,0.174672,-0.180789,-0.509282,-0.488729,-0.00416448,0.187685
26,60,-1.0472,-0.698132,0.174533,-0.174533,-1.04465,-0.689404,0.174672,-0.180789,-0.509282,-0.488729,-0.00416448,0.187685
26,60,-1.0472,-0.698132,0.174533,-0.174533,-1.04465,-0.689404,0.174672,-0.180789,-0.509282,-0.488729,-0.00416448,0.187685
26,60,-1.0472,-0.698132,0.174533,-0.174533,-1.04465,-0.689404,0.174672,-0.180789,-0.509282,-0.488729,-0.00416448,0.187685
26,60,-1.0472,-0.698132,0.174533,-0.174533,-1.04465,-0.689404,0.174672,-0.180789,-0.509282,-0.488729,-0.00416448,0.187685
26,60,-1.0472,-0.698132,0.174533,-0.174533,-1.04465,-0.689404,0.174672,-0.180789,-0.509282,-0.488729,-0.00416448,0.187685
26,60,-1.0472,-0.698132,0.174533,-0.174533,-1.04465,-0.689404,0.174672,-0.180789,-0.509282,-0.488729,-0.00416448,0.187685
26,60,-1.0472,-0.698132,0.174533,-0.174533,-1.04465,-0.689404,0.174672,-0.180789,-0.509282,-0.488729,-0.00416448,0.187685
26,60,-1.0472,-0.698132,0.174533,-0.174533,-1.04465,-0.689404,0.174672,-0.180789,-0.509282,-0.488729,-0.00416448,0.187685
26,60,-1.0472,-0.698132,0.174533,-0.174533,-1.04465,-0.689404,0.174672,-0.180789,-0.509282,-0.488729,-0.00416448,0.187685
26,60,-1.0472,-0.698132,0.174533,-0.174533,-1.04465,-0.689404,0.174672,-0.180789,-0.509282,-0.488729,-0.00416448,0.187685
26,60,-1.0472,-0.698132,0.174533,-0.174533,-1.04465,-0.689404,0.174672,-0.180789,-0.509282,-0.488729,-0.00416448,0.187685
26,60,-1.0472,-0.698132,0.174533,-0.174533,-1.04465,-0.689404,0.174672,-0.180789,-0.509282,-0.488729,-0.00416448,0.187685
26,60,-1.0472,-0.698132,0.174533,-0.174533,-1.04465,-0.689404,0.174672,-0.180789,-0.509282,-0.488729,-0.00416448,0.187685
26,60,-1.0472,-0.698132,0.174533,-0.174533,-1.04465,-0.689404,0.174672,-0.180789,-0.509282,-0.488729,-0.00416448,0.187685
26,60,-1.0472,-0.698132,0.174533,-0.174533,-1.04465,-0.689404,0.174672,-0.180789,-0.509282,-0.488729,-0.00416448,0.187685
26,60,-1.0472,-0.698132,0.174533,-0.174533,-1.04465,-0.689404,0.174672,-0.180789,-0.509282,-0.488729,-0.00416448,0.187685
26,60,-1.0472,-0.698132,0.174533,-0.174533,-1.04465,-0.689404,0.174672,-0.180789,-0.509282,-0.488729,-0.00416448,0.187685
26,60,-1.0472,-0.698132,0.174533,-0.174533,-1.04465,-0.689404,0.174672,-0.180789,-0.509282,-0.488729,-0.00416448,0.187685
26,60,-1.0472,-0.698132,0.174533,-0.174533,-1.04465,-0.689404,0.174672,-0.180789,-0.509282,-0.488729,-0.00416448,0.187685
26,60,-1.0472,-0.698132,0.174533,-0.174533,-1.04465,-0.689404,0.174672,-0.180789,-0.509282,-0.488729,-0.00416448,0.187685
26,60,-1.0472,-0.698132,0.174533,-0.174533,-1.04465,-0.689404,0.174672,-0.180789,-0.509282,-0.488729,-0.00416448,0.187685
26,60,-1.0472,-0.698132,0.174533,-0.174533,-1.04465,-0.689404,0.174672,-0.180789,-0.509282,-0.488729,-0.00416448,0.187685
26,60,-1.0472,-0.698132,0.174533,-0.174533,-1.04465,-0.689404,0.174672,-0.180789,-0.509282,-0.488729,-0.00416448,0.187685
26,60,-1.0472,-0.698132,0.174533,-0.174533,-1.04465,-0.689404,0.174672,-0.180789,-0.509282,-0.488729,-0.00416448,0.187685
26,60,-1.0472,-0.698132,0.174533,-0.174533,-1.04465,-0.689404,0.174672,-0.180789,-0.509282,-0.488729,-0.00416448,0.187685
26,60,-1.0472,-0.698132,0.174533,-0.174533,-1.04465,-0.689404,0.174672,-0.180789,-0.509282,-0.488729,-0.00416448,0.187685
26,60,-1.0472,-0.698132,0.174533,-0.174533,-1.04465,-0.689404,0.174672,-0.180789,-0.509282,-0.488729,-0.00416448,0.187685
26,60,-1.0472,-0.698132,0.174533,-0.174533,-1.04465,-0.689404,0.174672,-0.180789,-0.509282,-0.488729,-0.00416448,0.187685
26,60,-1.0472,-0.698132,0.174533,-0.174533,-1.04465,-0.689404,0.174672,-0.180789,-0.509282,-0.488729,-0.00416448,0.187685
26,60,-1.0472,-0.698132,0.174533,-0.174533,-1.04465,-0.689404,0.174672,-0.180789,-0.509282,-0.488729,-0.00416448,0.187685
26,60,-1.0472,-0.698132,0.174533,-0.174533,-1.04465,-0.689404,0.174672,-0.180789,-0.509282,-0.488729,-0.00416448,0.187685
26,60,-1.0472,-0.698132,0.174533,-0.174533,-1.04465,-0.689404,0.174672,-0.180789,-0.509282,-0.488729,-0.00416448,0.187685
26,60,-1.0472,-0.698132,0.174533,-0.174533,-1.04465,-0.689404,0.174672,-0.180789,-0.509282,-0.488729,-0.00416237,0.187684
26,60,-1.0472,-0.698132,0.174533,-0.174533,-1.04465,-0.689404,0.174672,-0.180789,-0.509282,-0.488729,-0.00416237,0.187684
26,60,-1.0472,-0.698132,0.174533,-0.174533,-1.04465,-0.689404,0.174672,-0.180789,-0.509282,-0.488729,-0.00416237,0.187684
26,60,-1.0472,-0.698132,0.174533,-0.174533,-1.04465,-0.689404,0.174672,-0.180789,-0.509282,-0.488729,-0.00416237,0.187684
26,60,-1.0472,-0.698132,0.174533,-0.174533,-1.04465,-0.689404,0.174672,-0.180789,-0.509282,-0.488729,-0.00416237,0.187684
26,60,-1.0472,-0.698132,0.174533,-0.174533,-1.04465,-0.689404,0.174672,-0.180789,-0.509282,-0.488729,-0.00416237,0.187684
26,60,-1.0472,-0.698132,0.174533,-0.174533,-1.04465,-0.689404,0.174672,-0.180789,-0.509282,-0.488729,-0.00416237,0.187684
26,60,-1.0472,-0.698132,0.174533,-0.174533,-1.04465,-0.689404,0.174672,-0.180789,-0.509282,-0.488729,-0.00416237,0.187684
26,60,-1.0472,-0.698132,0.174533,-0.174533,-1.04465,-0.689404,0.174672,-0.180789,-0.509282,-0.488729,-0.00416237,0.187684
26,60,-1.0472,-0.698132,0.174533,-0.174533,-1.04465,-0.689404,0.174672,-0.180789,-0.509282,-0.488729,-0.00416237,0.187684
26,60,-1.0472,-0.698132,0.174533,-0.174533,-1.04465,-0.689404,0.174672,-0.180789,-0.509282,-0.488729,-0.00416237,0.187684
26,60,-1.0472,-0.698132,0.174533,-0.174533,-1.04465,-0.689404,0.174672,-0.180789,-0.509282,-0.488729,-0.00416237,0.187684
26,60,-1.0472,-0.698132,0.174533,-0.174533,-1.04465,-0.689404,0.174672,-0.180789,-0.509282,-0.488729,-0.00416237,0.187684
26,60,-1.0472,-0.698132,0.174533,-0.174533,-1.04465,-0.689404,0.174672,-0.180789,-0.509282,-0.488729,-0.00416237,0.187684
26,60,-1.0472,-0.698132,0.174533,-0.174533,-1.04465,-0.689404,0.174672,-0.180789,-0.509282,-0.488729,-0.00416237,0.187684
26,60,-1.0472,-0.698132,0.174533,-0.174533,-1.04465,-0.689404,0.174672,-0.180789,-0.509282,-0.488729,-0.00416237,0.187684
26,60,-1.0472,-0.698132,0.174533,-0.174533,-1.04465,-0.689404,0.174672,-0.180789,-0.509282,-0.488729,-0.00416237,0.187684
26,60,-1.0472,-0.698132,0.174533,-0.174533,-1.04465,-0.689404,0.174672,-0.180789,-0.509282,-0.488729,-0.00416237,0.187684
26,60,-1.0472,-0.698132,0.174533,-0.174533,-1.04465,-0.689404,0.174672,-0.180789,-0.509282,-0.488729,-0.00416237,0.187684
26,60,-1.0472,-0.698132,0.174533,-0.174533,-1.04465,-0.689404,0.174672,-0.180789,-0.509282,-0.488729,-0.00416237,0.187684
26,60,-1.0472,-0.698132,0.174533,-0.174533,-1.04465,-0.689404,0.174672,-0.180789,-0.509282,-0.488729,-0.00416237,0.187684
26,60,-1.0472,-0.698132,0.174533,-0.174533,-1.04465,-0.689404,0.174672,-0.180789,-0.509282,-0.488729,-0.00416237,0.187684
26,60,-1.0472,-0.698132,0.174533,-0.174533,-1.04465,-0.689404,0.174672,-0.180789,-0.509282,-0.488729,-0.00416237,0.187684
26,60,-1.0472,-0.698132,0.174533,-0.174533,-1.04465,-0.689404,0.174672,-0.180789,-0.509282,-0.488729,-0.00416237,0.187684
26,60,-1.0472,-0.698132,0.174533,-0.174533,-1.04465,-0.689404,0.174672,-0.180789,-0.509282,-0.488729,-0.00416237,0.187684
26,60,-1.0472,-0.698132,0.174533,-0.174533,-1.04465,-0.689404,0.174672,-0.180789,-0.509282,-0.488729,-0.00416237,0.187684
26,60,-1.0472,-0.698132,0.174533,-0.174533,-1.04465,-0.689404,0.174672,-0.180789,-0.509282,-0.488729,-0.00416237,0.187684
26,60,-1.0472,-0.698132,0.174533,-0.174533,-1.04465,-0.689404,0.174672,-0.180789,-0.509282,-0.488729,-0.00416237,0.187684
26,60,-1.0472,-0.698132,0.174533,-0.174533,-1.04465,-0.689404,0.174672,-0.180789,-0.509282,-0.488729,-0.00416237,0.187684
26,60,-1.0472,-0.698132,0.174533,-0.174533,-1.04465,-0.689404,0.174672,-0.180789,-0.509282,-0.488729,-0.00416237,0.187684
26,60,-1.0472,-0.698132,0.174533,-0.174533,-1.04465,-0.689404,0.174672,-0.180789,-0.509282,-0.488729,-0.00416237,0.187684
26,60,-1.0472,-0.698132,0.174533,-0.174533,-1.04465,-0.689404,0.174672,-0.180789,-0.509282,-0.488729,-0.00416237,0.187684
26,60,-1.0472,-0.698132,0.174533,-0.174533,-1.04465,-0.689404,0.174672,-0.180789,-0.509282,-0.488729,-0.00416237,0.187684
26,60,-1.0472,-0.698132,0.174533,-0.174533,-1.04465,-0.689404,0.174672,-0.180789,-0.509282,-0.488729,-0.00416237,0.187684
26,60,-1.0472,-0.698132,0.174533,-0.174533,-1.04465,-0.689404,0.174672,-0.180789,-0.509282,-0.488729,-0.00416237,0.187684
26,60,-1.0472,-0.698132,0.174533,-0.174533,-1.04465,-0.689404,0.174744,-0.180818,-0.509282,-0.488729,-0.00633875,0.188571
26,60,-1.0472,-0.698132,0.174533,-0.174533,-1.04465,-0.689404,0.174744,-0.180818,-0.509282,-0.488729,-0.00633875,0.188571
26,60,-1.0472,-0.698132,0.174533,-0.174533,-1.04465,-0.689404,0.174744,-0.180818,-0.509282,-0.488729,-0.00633875,0.188571
26,60,-1.0472,-0.698132,0.174533,-0.174533,-1.04465,-0.689404,0.174744,-0.180818,-0.509282,-0.488729,-0.00633875,0.188571
26,60,-1.0472,-0.698132,0.174533,-0.174533,-1.04465,-0.689404,0.174744,-0.180818,-0.509282,-0.488729,-0.00633875,0.188571
26,60,-1.0472,-0.698132,0.174533,-0.174533,-1.04465,-0.689404,0.174744,-0.180818,-0.509282,-0.488729,-0.00633875,0.188571
26,60,-1.0472,-0.698132,0.174533,-0.174533,-1.04465,-0.689404,0.174744,-0.180818,-0.509282,-0.488729,-0.00633875,0.188571
26,60,-1.0472,-0.698132,0.174533,-0.174533,-1.04465,-0.689404,0.174744,-0.180818,-0.509282,-0.488729,-0.00633875,0.188571
26,60,-1.0472,-0.698132,0.174533,-0.174533,-1.04465,-0.689404,0.174744,-0.180818,-0.509282,-0.488729,-0.00633875,0.188571
26,60,-1.0472,-0.698132,0.174533,-0.174533,-1.04465,-0.689404,0.174744,-0.180818,-0.509282,-0.488729,-0.00633875,0.188571
26,60,-1.0472,-0.698132,0.174533,-0.174533,-1.04465,-0.689404,0.174744,-0.180818,-0.509282,-0.488729,-0.00633875,0.188571
26,60,-1.0472,-0.698132,0.174533,-0.174533,-1.04465,-0.689404,0.174744,-0.180818,-0.509282,-0.488729,-0.00633875,0.188571
26,60,-1.0472,-0.698132,0.174533,-0.174533,-1.04465,-0.689404,0.174744,-0.180818,-0.509282,-0.488729,-0.00633875,0.188571
26,60,-1.0472,-0.698132,0.174533,-0.174533,-1.04465,-0.689404,0.174744,-0.180818,-0.509282,-0.488729,-0.00633875,0.188571
26,60,-1.0472,-0.698132,0.174533,-0.174533,-1.04465,-0.689404,0.174744,-0.180818,-0.509282,-0.488729,-0.00633875,0.188571
26,60,-1.0472,-0.698132,0.174533,-0.174533,-1.04465,-0.689404,0.174744,-0.180818,-0.509282,-0.488729,-0.00633875,0.188571
26,60,-1.0472,-0.698132,0.174533,-0.174533,-1.04465,-0.689404,0.174744,-0.180818,-0.509282,-0.488729,-0.00633875,0.188571
26,60,-1.0472,-0.698132,0.174533,-0.174533,-1.04465,-0.689404,0.174744,-0.180818,-0.509282,-0.488729,-0.00633875,0.188571
26,60,-1.0472,-0.698132,0.174533,-0.174533,-1.04465,-0.689404,0.174744,-0.180818,-0.509282,-0.488729,-0.00633875,0.188571
26,60,-1.0472,-0.698132,0.174533,-0.174533,-1.04465,-0.689404,0.174744,-0.180818,-0.509282,-0.488729,-0.00633875,0.188571
26,60,-1.0472,-0.698132,0.174533,-0.174533,-1.04465,-0.689404,0.174744,-0.180818,-0.509282,-0.488729,-0.00633875,0.188571
26,60,-1.0472,-0.698132,0.174533,-0.174533,-1.04465,-0.689404,0.174744,-0.180818,-0.509282,-0.488729,-0.00633875,0.188571
26,60,-1.0472,-0.698132,0.174533,-0.174533,-1.04465,-0.689404,0.174744,-0.180818,-0.509282,-0.488729,-0.00633875,0.188571
26,60,-1.0472,-0.698132,0.174533,-0.174533,-1.04465,-0.689404,0.174744,-0.180818,-0.509282,-0.488729,-0.00633875,0.188571
26,60,-1.0472,-0.698132,0.174533,-0.174533,-1.04465,-0.689404,0.174744,-0.180818,-0.509282,-0.488729,-0.00633875,0.188571
26,60,-1.0472,-0.698132,0.174533,-0.174533,-1.04465,-0.689404,0.174744,-0.180818,-0.509282,-0.488729,-0.00633875,0.188571
26,60,-1.0472,-0.698132,0.174533,-0.174533,-1.04465,-0.689404,0.174744,-0.180818,-0.509282,-0.488729,-0.00633875,0.188571
26,60,-1.0472,-0.698132,0.174533,-0.174533,-1.04465,-0.689404,0.174744,-0.180818,-0.509282,-0.488729,-0.00633875,0.188571
26,60,-1.0472,-0.698132,0.174533,-0.174533,-1.04465,-0.689404,0.174744,-0.180818,-0.509282,-0.488729,-0.00633875,0.188571
26,60,-1.0472,-0.698132,0.174533,-0.174533,-1.04465,-0.689404,0.174744,-0.180818,-0.509282,-0.488729,-0.00633875,0.188571
26,60,-1.0472,-0.698132,0.174533,-0.174533,-1.04465,-0.689404,0.174744,-0.180818,-0.509282,-0.488729,-0.00633875,0.188571
26,60,-1.0472,-0.698132,0.174533,-0.174533,-1.04465,-0.689404,0.174744,-0.180818,-0.509282,-0.488729,-0.00633875,0.188571
26,60,-1.0472,-0.698132,0.174533,-0.174533,-1.04465,-0.689404,0.174744,-0.180818,-0.509282,-0.488729,-0.00633875,0.188571
26,60,-1.0472,-0.698132,0.174533,-0.174533,-1.04465,-0.689404,0.174816,-0.180848,-0.509282,-0.488729,-0.00851218,0.189456
26,60,-1.0472,-0.698132,0.174533,-0.174533,-1.04465,-0.689404,0.174816,-0.180848,-0.509282,-0.488729,-0.00851218,0.189456
26,60,-1.0472,-0.698132,0.174533,-0.174533,-1.04465,-0.689404,0.174816,-0.180848,-0.509282,-0.488729,-0.00851218,0.189456
26,60,-1.0472,-0.698132,0.174533,-0.174533,-1.04465,-0.689404,0.174816,-0.180848,-0.509282,-0.488729,-0.00851218,0.189456
26,60,-1.0472,-0.698132,0.174533,-0.174533,-1.04465,-0.689404,0.174816,-0.180848,-0.509282,-0.488729,-0.00851218,0.189456
26,60,-1.0472,-0.698132,0.174533,-0.174533,-1.04465,-0.689404,0.174816,-0.180848,-0.509282,-0.488729,-0.00851218,0.189456
26,60,-1.0472,-0.698132,0.174533,-0.174533,-1.04465,-0.689404,0.174816,-0.180848,-0.509282,-0.488729,-0.00851218,0.189456
26,60,-1.0472,-0.698132,0.174533,-0.174533,-1.04465,-0.689404,0.174816,-0.180848,-0.509282,-0.488729,-0.00851218,0.189456
26,60,-1.0472,-0.698132,0.174533,-0.174533,-1.04465,-0.689404,0.174816,-0.180848,-0.509282,-0.488729,-0.00851218,0.189456
26,60,-1.0472,-0.698132,0.174533,-0.174533,-1.04465,-0.689404,0.174816,-0.180848,-0.509282,-0.488729,-0.00851218,0.189456
26,60,-1.0472,-0.698132,0.174533,-0.174533,-1.04465,-0.689404,0.174816,-0.180848,-0.509282,-0.488729,-0.00851218,0.189456
