stim_pw [us],stim_amp [mA],com_elbow_fe [rad],com_forearm_ps [rad],com_wrist_fe [rad],com_wrist_ru [rad],act_elbow_fe [rad],act_forearm_ps [rad],act_wrist_fe [rad],act_wrist_ru [rad],elbow_fe_trq [Nm],forearm_ps_trq [Nm],wrist_fe_trq [Nm],wrist_ru_trq [Nm]
28,60,-0.567232,-0.698132,-0.174533,-0.174533,-0.569536,-0.695505,-0.166315,-0.19963,0.465253,-0.147077,-0.24635,0.753025
28,60,-0.567232,-0.698132,-0.174533,-0.174533,-0.569536,-0.695505,-0.166315,-0.19963,0.465253,-0.147077,-0.24635,0.753025
28,60,-0.567232,-0.698132,-0.174533,-0.174533,-0.569536,-0.695505,-0.166315,-0.19963,0.465253,-0.147077,-0.24635,0.753025
28,60,-0.567232,-0.698132,-0.174533,-0.174533,-0.569536,-0.695505,-0.166315,-0.19963,0.465253,-0.147077,-0.24635,0.753025
28,60,-0.567232,-0.698132,-0.174533,-0.174533,-0.569536,-0.695505,-0.166315,-0.19963,0.465253,-0.147077,-0.24635,0.753025
28,60,-0.567232,-0.698132,-0.174533,-0.174533,-0.569536,-0.695505,-0.166315,-0.19963,0.465253,-0.147077,-0.24635,0.753025
28,60,-0.567232,-0.698132,-0.174533,-0.174533,-0.569536,-0.695505,-0.166315,-0.19963,0.465253,-0.147077,-0.24635,0.753025
28,60,-0.567232,-0.698132,-0.174533,-0.174533,-0.569536,-0.695505,-0.166315,-0.19963,0.465253,-0.147077,-0.24635,0.753025
28,60,-0.567232,-0.698132,-0.174533,-0.174533,-0.569536,-0.695505,-0.166315,-0.19963,0.465253,-0.147077,-0.24635,0.753025
28,60,-0.567232,-0.698132,-0.174533,-0.174533,-0.569536,-0.695505,-0.166315,-0.19963,0.465253,-0.147077,-0.24635,0.753025
28,60,-0.567232,-0.698132,-0.174533,-0.174533,-0.569536,-0.695505,-0.166315,-0.19963,0.465253,-0.147077,-0.24635,0.753025
28,60,-0.567232,-0.698132,-0.174533,-0.174533,-0.569536,-0.695505,-0.166315,-0.19963,0.465253,-0.147077,-0.24635,0.753025
28,60,-0.567232,-0.698132,-0.174533,-0.174533,-0.569536,-0.695505,-0.166315,-0.19963,0.465253,-0.147077,-0.24635,0.753025
28,60,-0.567232,-0.698132,-0.174533,-0.174533,-0.569608,-0.695505,-0.166315,-0.19963,0.484496,-0.147077,-0.24635,0.753025
28,60,-0.567232,-0.698132,-0.174533,-0.174533,-0.569608,-0.695505,-0.166315,-0.19963,0.484496,-0.147077,-0.24635,0.753025
28,60,-0.567232,-0.698132,-0.174533,-0.174533,-0.569608,-0.695505,-0.166315,-0.19963,0.484496,-0.147077,-0.24635,0.753025
28,60,-0.567232,-0.698132,-0.174533,-0.174533,-0.569608,-0.695505,-0.166315,-0.19963,0.484496,-0.147077,-0.24635,0.753025
28,60,-0.567232,-0.698132,-0.174533,-0.174533,-0.569608,-0.695505,-0.166315,-0.19963,0.484496,-0.147077,-0.24635,0.753025
28,60,-0.567232,-0.698132,-0.174533,-0.174533,-0.569608,-0.695505,-0.166315,-0.19963,0.484496,-0.147077,-0.24635,0.753025
28,60,-0.567232,-0.698132,-0.174533,-0.174533,-0.569608,-0.695505,-0.166315,-0.19963,0.484496,-0.147077,-0.24635,0.753025
28,60,-0.567232,-0.698132,-0.174533,-0.174533,-0.569608,-0.695505,-0.166315,-0.19963,0.484496,-0.147077,-0.24635,0.753025
28,60,-0.567232,-0.698132,-0.174533,-0.174533,-0.569608,-0.695505,-0.166315,-0.19963,0.484496,-0.147077,-0.24635,0.753025
28,60,-0.567232,-0.698132,-0.174533,-0.174533,-0.569608,-0.695505,-0.166315,-0.19963,0.484496,-0.147077,-0.24635,0.753025
28,60,-0.567232,-0.698132,-0.174533,-0.174533,-0.569608,-0.695505,-0.166315,-0.19963,0.484496,-0.147077,-0.24635,0.753025
28,60,-0.567232,-0.698132,-0.174533,-0.174533,-0.569608,-0.695505,-0.166315,-0.19963,0.484496,-0.147077,-0.24635,0.753025
28,60,-0.567232,-0.698132,-0.174533,-0.174533,-0.569608,-0.695505,-0.166315,-0.19963,0.484496,-0.147077,-0.24635,0.753025
28,60,-0.567232,-0.698132,-0.174533,-0.174533,-0.569608,-0.695505,-0.166315,-0.19963,0.484496,-0.147077,-0.24635,0.753025
28,60,-0.567232,-0.698132,-0.174533,-0.174533,-0.569608,-0.695505,-0.166383,-0.199673,0.484496,-0.147077,-0.244366,0.754284
28,60,-0.567232,-0.698132,-0.174533,-0.174533,-0.569608,-0.695505,-0.166383,-0.199673,0.484496,-0.147077,-0.244366,0.754284
28,60,-0.567232,-0.698132,-0.174533,-0.174533,-0.569608,-0.695505,-0.166383,-0.199673,0.484496,-0.147077,-0.244366,0.754284
28,60,-0.567232,-0.698132,-0.174533,-0.174533,-0.569608,-0.695505,-0.166383,-0.199673,0.484496,-0.147077,-0.244366,0.754284
28,60,-0.567232,-0.698132,-0.174533,-0.174533,-0.569608,-0.695505,-0.166383,-0.199673,0.484496,-0.147077,-0.244366,0.754284
28,60,-0.567232,-0.698132,-0.174533,-0.174533,-0.569608,-0.695505,-0.166383,-0.199673,0.484496,-0.147077,-0.244366,0.754284
28,60,-0.567232,-0.698132,-0.174533,-0.174533,-0.569608,-0.695505,-0.166383,-0.199673,0.484496,-0.147077,-0.244366,0.754284
28,60,-0.567232,-0.698132,-0.174533,-0.174533,-0.56968,-0.695505,-0.166383,-0.199673,0.500674,-0.147077,-0.244366,0.754284
28,60,-0.567232,-0.698132,-0.174533,-0.174533,-0.56968,-0.695505,-0.166383,-0.199673,0.500674,-0.147077,-0.244366,0.754284
28,60,-0.567232,-0.698132,-0.174533,-0.174533,-0.56968,-0.695505,-0.166383,-0.199673,0.500674,-0.147077,-0.244366,0.754284
28,60,-0.567232,-0.698132,-0.174533,-0.174533,-0.56968,-0.695505,-0.166383,-0.199673,0.500674,-0.147077,-0.244366,0.754284
28,60,-0.567232,-0.698132,-0.174533,-0.174533,-0.56968,-0.695505,-0.166383,-0.199673,0.500674,-0.147077,-0.244366,0.754284
28,60,-0.567232,-0.698132,-0.174533,-0.174533,-0.56968,-0.695505,-0.166383,-0.199673,0.500674,-0.147077,-0.244366,0.754284
28,60,-0.567232,-0.698132,-0.174533,-0.174533,-0.56968,-0.695505,-0.166383,-0.199673,0.500674,-0.147077,-0.244366,0.754284
28,60,-0.567232,-0.698132,-0.174533,-0.174533,-0.56968,-0.695505,-0.166383,-0.199673,0.500674,-0.147077,-0.244366,0.754284
28,60,-0.567232,-0.698132,-0.174533,-0.174533,-0.56968,-0.695505,-0.166383,-0.199673,0.500674,-0.147077,-0.244366,0.754284
28,60,-0.567232,-0.698132,-0.174533,-0.174533,-0.56968,-0.695505,-0.166383,-0.199673,0.500674,-0.147077,-0.244366,0.754284
28,60,-0.567232,-0.698132,-0.174533,-0.174533,-0.56968,-0.695505,-0.166383,-0.199673,0.500674,-0.147077,-0.244366,0.754284
28,60,-0.567232,-0.698132,-0.174533,-0.174533,-0.56968,-0.695505,-0.166383,-0.199673,0.500674,-0.147077,-0.244366,0.754284
28,60,-0.567232,-0.698132,-0.174533,-0.174533,-0.56968,-0.695505,-0.166383,-0.199673,0.500674,-0.147077,-0.244366,0.754284
28,60,-0.567232,-0.698132,-0.174533,-0.174533,-0.56968,-0.695505,-0.166383,-0.199673,0.500674,-0.147077,-0.244366,0.754284
28,60,-0.567232,-0.698132,-0.174533,-0.174533,-0.56968,-0.695505,-0.166383,-0.199673,0.500674,-0.147077,-0.244366,0.754284
28,60,-0.567232,-0.698132,-0.174533,-0.174533,-0.56968,-0.695505,-0.166383,-0.199673,0.500674,-0.147077,-0.244366,0.754284
28,60,-0.567232,-0.698132,-0.174533,-0.174533,-0.56968,-0.695505,-0.166383,-0.199673,0.500674,-0.147077,-0.244366,0.754284
28,60,-0.567232,-0.698132,-0.174533,-0.174533,-0.56968,-0.695505,-0.166383,-0.199673,0.500674,-0.147077,-0.244366,0.754284
28,60,-0.567232,-0.698132,-0.174533,-0.174533,-0.56968,-0.695505,-0.166383,-0.199673,0.500674,-0.147077,-0.244366,0.754284
28,60,-0.567232,-0.698132,-0.174533,-0.174533,-0.56968,-0.695505,-0.166383,-0.199673,0.500674,-0.147077,-0.244366,0.754284
28,60,-0.567232,-0.698132,-0.174533,-0.174533,-0.56968,-0.695505,-0.166383,-0.199673,0.500674,-0.147077,-0.244366,0.754284
28,60,-0.567232,-0.698132,-0.174533,-0.174533,-0.56968,-0.695505,-0.166383,-0.199673,0.500674,-0.147077,-0.244366,0.754284
28,60,-0.567232,-0.698132,-0.174533,-0.174533,-0.56968,-0.695505,-0.166383,-0.199673,0.500674,-0.147077,-0.244366,0.754284
28,60,-0.567232,-0.698132,-0.174533,-0.174533,-0.56968,-0.695505,-0.166383,-0.199673,0.500674,-0.147077,-0.244366,0.754284
28,60,-0.567232,-0.698132,-0.174533,-0.174533,-0.56968,-0.695505,-0.166383,-0.199673,0.500674,-0.147077,-0.244366,0.754284
28,60,-0.567232,-0.698132,-0.174533,-0.174533,-0.56968,-0.695505,-0.166383,-0.199673,0.500674,-0.147077,-0.244366,0.754284
28,60,-0.567232,-0.698132,-0.174533,-0.174533,-0.56968,-0.695505,-0.166383,-0.199673,0.500674,-0.147077,-0.244366,0.754284
28,60,-0.567232,-0.698132,-0.174533,-0.174533,-0.56968,-0.695505,-0.166383,-0.199673,0.500674,-0.147077,-0.244366,0.754284
28,60,-0.567232,-0.698132,-0.174533,-0.174533,-0.569751,-0.695505,-0.166383,-0.199673,0.512959,-0.147077,-0.244366,0.754284
28,60,-0.567232,-0.698132,-0.174533,-0.174533,-0.569751,-0.695505,-0.166383,-0.199673,0.512959,-0.147077,-0.244366,0.754284
28,60,-0.567232,-0.698132,-0.174533,-0.174533,-0.569751,-0.695505,-0.166383,-0.199673,0.512959,-0.147077,-0.244366,0.754284
28,60,-0.567232,-0.698132,-0.174533,-0.174533,-0.569751,-0.695505,-0.166383,-0.199673,0.512959,-0.147077,-0.244366,0.754284
28,60,-0.567232,-0.698132,-0.174533,-0.174533,-0.569751,-0.695505,-0.166383,-0.199673,0.512959,-0.147077,-0.244366,0.754284
28,60,-0.567232,-0.698132,-0.174533,-0.174533,-0.569751,-0.695505,-0.166383,-0.199673,0.512959,-0.147077,-0.244366,0.754284
28,60,-0.567232,-0.698132,-0.174533,-0.174533,-0.569751,-0.695505,-0.166383,-0.199673,0.512959,-0.147077,-0.244366,0.754284
28,60,-0.567232,-0.698132,-0.174533,-0.174533,-0.569751,-0.695505,-0.166383,-0.199673,0.512959,-0.147077,-0.244366,0.754284
28,60,-0.567232,-0.698132,-0.174533,-0.174533,-0.569751,-0.695505,-0.16645,-0.199715,0.512959,-0.147077,-0.242408,0.755527
28,60,-0.567232,-0.698132,-0.174533,-0.174533,-0.569751,-0.695505,-0.16645,-0.199715,0.512959,-0.147077,-0.242408,0.755527
28,60,-0.567232,-0.698132,-0.174533,-0.174533,-0.569751,-0.695505,-0.16645,-0.199715,0.512959,-0.147077,-0.242408,0.755527
28,60,-0.567232,-0.698132,-0.174533,-0.174533,-0.569751,-0.695505,-0.16645,-0.199715,0.512959,-0.147077,-0.242408,0.755527
28,60,-0.567232,-0.698132,-0.174533,-0.174533,-0.569751,-0.695505,-0.16645,-0.199715,0.512959,-0.147077,-0.242408,0.755527
28,60,-0.567232,-0.698132,-0.174533,-0.174533,-0.569751,-0.695505,-0.16645,-0.199715,0.512959,-0.147077,-0.242408,0.755527
28,60,-0.567232,-0.698132,-0.174533,-0.174533,-0.569751,-0.695505,-0.16645,-0.199715,0.512959,-0.147077,-0.242408,0.755527
28,60,-0.567232,-0.698132,-0.174533,-0.174533,-0.569751,-0.695505,-0.16645,-0.199715,0.512959,-0.147077,-0.242408,0.755527
28,60,-0.567232,-0.698132,-0.174533,-0.174533,-0.569751,-0.695505,-0.16645,-0.199715,0.512959,-0.147077,-0.242408,0.755527
28,60,-0.567232,-0.698132,-0.174533,-0.174533,-0.569751,-0.695505,-0.16645,-0.199715,0.512959,-0.147077,-0.242408,0.755527
28,60,-0.567232,-0.698132,-0.174533,-0.174533,-0.569751,-0.695505,-0.16645,-0.199715,0.512959,-0.147077,-0.242408,0.755527
28,60,-0.567232,-0.698132,-0.174533,-0.174533,-0.569751,-0.695505,-0.16645,-0.199715,0.512959,-0.147077,-0.242408,0.755527
28,60,-0.567232,-0.698132,-0.174533,-0.174533,-0.569751,-0.695505,-0.16645,-0.199715,0.512959,-0.147077,-0.242408,0.755527
28,60,-0.567232,-0.698132,-0.174533,-0.174533,-0.569751,-0.695505,-0.16645,-0.199715,0.512959,-0.147077,-0.242408,0.755527
28,60,-0.567232,-0.698132,-0.174533,-0.174533,-0.569751,-0.695505,-0.16645,-0.199715,0.512959,-0.147077,-0.242408,0.755527
28,60,-0.567232,-0.698132,-0.174533,-0.174533,-0.569751,-0.695505,-0.16645,-0.199715,0.512959,-0.147077,-0.242408,0.755527
28,60,-0.567232,-0.698132,-0.174533,-0.174533,-0.569751,-0.695505,-0.16645,-0.199715,0.512959,-0.147077,-0.242408,0.755527
28,60,-0.567232,-0.698132,-0.174533,-0.174533,-0.569751,-0.695505,-0.16645,-0.199715,0.512959,-0.147077,-0.242408,0.755527
28,60,-0.567232,-0.698132,-0.174533,-0.174533,-0.569751,-0.695505,-0.16645,-0.199715,0.512959,-0.147077,-0.242408,0.755527
28,60,-0.567232,-0.698132,-0.174533,-0.174533,-0.569751,-0.695505,-0.16645,-0.199715,0.512959,-0.147077,-0.242408,0.755527
28,60,-0.567232,-0.698132,-0.174533,-0.174533,-0.569751,-0.695505,-0.16645,-0.199715,0.512959,-0.147077,-0.242408,0.755527
28,60,-0.567232,-0.698132,-0.174533,-0.174533,-0.569751,-0.695505,-0.16645,-0.199715,0.512959,-0.147077,-0.242408,0.755527
28,60,-0.567232,-0.698132,-0.174533,-0.174533,-0.569751,-0.695505,-0.16645,-0.199715,0.512959,-0.147077,-0.242408,0.755527
28,60,-0.567232,-0.698132,-0.174533,-0.174533,-0.569751,-0.695505,-0.16645,-0.199715,0.512959,-0.147077,-0.242408,0.755527
28,60,-0.567232,-0.698132,-0.174533,-0.174533,-0.569751,-0.695505,-0.16645,-0.199715,0.512959,-0.147077,-0.242408,0.755527
28,60,-0.567232,-0.698132,-0.174533,-0.174533,-0.569751,-0.695505,-0.16645,-0.199715,0.512959,-0.147077,-0.242408,0.755527
28,60,-0.567232,-0.698132,-0.174533,-0.174533,-0.569751,-0.695505,-0.16645,-0.199715,0.512959,-0.147077,-0.242408,0.755527
28,60,-0.567232,-0.698132,-0.174533,-0.174533,-0.569751,-0.695505,-0.16645,-0.199715,0.512959,-0.147077,-0.242408,0.755527
28,60,-0.567232,-0.698132,-0.174533,-0.174533,-0.569751,-0.695505,-0.16645,-0.199715,0.512959,-0.147077,-0.242408,0.755527
28,60,-0.567232,-0.698132,-0.174533,-0.174533,-0.569751,-0.695505,-0.16645,-0.199715,0.512959,-0.147077,-0.242408,0.755527
28,60,-0.567232,-0.698132,-0.174533,-0.174533,-0.569751,-0.695505,-0.16645,-0.199715,0.512959,-0.147077,-0.242408,0.755527
28,60,-0.567232,-0.698132,-0.174533,-0.174533,-0.569751,-0.695505,-0.16645,-0.199715,0.512959,-0.147077,-0.242408,0.755527
28,60,-0.567232,-0.698132,-0.174533,-0.174533,-0.569751,-0.695505,-0.16645,-0.199715,0.512959,-0.147077,-0.242408,0.755527
28,60,-0.567232,-0.698132,-0.174533,-0.174533,-0.569751,-0.695505,-0.16645,-0.199715,0.512959,-0.147077,-0.242408,0.755527
28,60,-0.567232,-0.698132,-0.174533,-0.174533,-0.569751,-0.695505,-0.16645,-0.199715,0.512959,-0.147077,-0.242408,0.755527
28,60,-0.567232,-0.698132,-0.174533,-0.174533,-0.569751,-0.695505,-0.16645,-0.199715,0.512959,-0.147077,-0.242408,0.755527
28,60,-0.567232,-0.698132,-0.174533,-0.174533,-0.569751,-0.695505,-0.16645,-0.199715,0.512959,-0.147077,-0.242408,0.755527
28,60,-0.567232,-0.698132,-0.174533,-0.174533,-0.569751,-0.695505,-0.16645,-0.199715,0.512959,-0.147077,-0.242408,0.755527
28,60,-0.567232,-0.698132,-0.174533,-0.174533,-0.569751,-0.695505,-0.16645,-0.199715,0.512959,-0.147077,-0.242408,0.755527
28,60,-0.567232,-0.698132,-0.174533,-0.174533,-0.569751,-0.695505,-0.16645,-0.199715,0.512959,-0.147077,-0.242408,0.755527
28,60,-0.567232,-0.698132,-0.174533,-0.174533,-0.569751,-0.695505,-0.16645,-0.199715,0.512959,-0.147077,-0.242408,0.755527
28,60,-0.567232,-0.698132,-0.174533,-0.174533,-0.569751,-0.695505,-0.16645,-0.199715,0.512959,-0.147077,-0.242408,0.755527
28,60,-0.567232,-0.698132,-0.174533,-0.174533,-0.569751,-0.695505,-0.16645,-0.199715,0.512959,-0.147077,-0.242408,0.755527
28,60,-0.567232,-0.698132,-0.174533,-0.174533,-0.569751,-0.695505,-0.16645,-0.199715,0.512959,-0.147077,-0.242408,0.755527
28,60,-0.567232,-0.698132,-0.174533,-0.174533,-0.569751,-0.695505,-0.16645,-0.199715,0.512959,-0.147077,-0.242408,0.755527
28,60,-0.567232,-0.698132,-0.174533,-0.174533,-0.569751,-0.695505,-0.16645,-0.199715,0.512959,-0.147077,-0.242408,0.755527
28,60,-0.567232,-0.698132,-0.174533,-0.174533,-0.569751,-0.695505,-0.16645,-0.199715,0.512959,-0.147077,-0.242408,0.755527
28,60,-0.567232,-0.698132,-0.174533,-0.174533,-0.569751,-0.695505,-0.16645,-0.199715,0.512959,-0.147077,-0.242408,0.755527
28,60,-0.567232,-0.698132,-0.174533,-0.174533,-0.569751,-0.695505,-0.16645,-0.199715,0.512959,-0.147077,-0.242408,0.755527
28,60,-0.567232,-0.698132,-0.174533,-0.174533,-0.569751,-0.695505,-0.16645,-0.199715,0.512959,-0.147077,-0.242408,0.755527
28,60,-0.567232,-0.698132,-0.174533,-0.174533,-0.569751,-0.695505,-0.16645,-0.199715,0.512959,-0.147077,-0.242408,0.755527
28,60,-0.567232,-0.698132,-0.174533,-0.174533,-0.569751,-0.695505,-0.16645,-0.199715,0.512959,-0.147077,-0.242408,0.755527
28,60,-0.567232,-0.698132,-0.174533,-0.174533,-0.569751,-0.695505,-0.16645,-0.199715,0.512959,-0.147077,-0.242408,0.755527
28,60,-0.567232,-0.698132,-0.174533,-0.174533,-0.569751,-0.695505,-0.16645,-0.199715,0.512959,-0.147077,-0.242408,0.755527
28,60,-0.567232,-0.698132,-0.174533,-0.174533,-0.569751,-0.695505,-0.16645,-0.199715,0.512959,-0.147077,-0.242408,0.755527
28,60,-0.567232,-0.698132,-0.174533,-0.174533,-0.569751,-0.695505,-0.16645,-0.199715,0.512959,-0.147077,-0.242408,0.755527
28,60,-0.567232,-0.698132,-0.174533,-0.174533,-0.569751,-0.695505,-0.16645,-0.199715,0.512959,-0.147077,-0.242408,0.755527
28,60,-0.567232,-0.698132,-0.174533,-0.174533,-0.569751,-0.695505,-0.16645,-0.199715,0.512959,-0.147077,-0.242408,0.755527
28,60,-0.567232,-0.698132,-0.174533,-0.174533,-0.569751,-0.695505,-0.16645,-0.199715,0.512959,-0.147077,-0.242408,0.755527
28,60,-0.567232,-0.698132,-0.174533,-0.174533,-0.569751,-0.695505,-0.16645,-0.199715,0.512959,-0.147077,-0.242408,0.755527
28,60,-0.567232,-0.698132,-0.174533,-0.174533,-0.569751,-0.695505,-0.16645,-0.199715,0.512959,-0.147077,-0.242408,0.755527
28,60,-0.567232,-0.698132,-0.174533,-0.174533,-0.569751,-0.695505,-0.16645,-0.199715,0.512959,-0.147077,-0.242408,0.755527
28,60,-0.567232,-0.698132,-0.174533,-0.174533,-0.569751,-0.695505,-0.16645,-0.199715,0.512959,-0.147077,-0.242408,0.755527
28,60,-0.567232,-0.698132,-0.174533,-0.174533,-0.569751,-0.695505,-0.16645,-0.199715,0.512959,-0.147077,-0.242408,0.755527
28,60,-0.567232,-0.698132,-0.174533,-0.174533,-0.569751,-0.695505,-0.16645,-0.199715,0.512959,-0.147077,-0.242408,0.755527
28,60,-0.567232,-0.698132,-0.174533,-0.174533,-0.569751,-0.695505,-0.16645,-0.199715,0.512959,-0.147077,-0.242408,0.755527
28,60,-0.567232,-0.698132,-0.174533,-0.174533,-0.569751,-0.695505,-0.16645,-0.199715,0.512959,-0.147077,-0.242408,0.755527
28,60,-0.567232,-0.698132,-0.174533,-0.174533,-0.569751,-0.695505,-0.16645,-0.199715,0.512959,-0.147077,-0.242408,0.755527
28,60,-0.567232,-0.698132,-0.174533,-0.174533,-0.569751,-0.695505,-0.16645,-0.199715,0.512959,-0.147077,-0.242408,0.755527
28,60,-0.567232,-0.698132,-0.174533,-0.174533,-0.569751,-0.695505,-0.16645,-0.199715,0.512959,-0.147077,-0.242408,0.755527
28,60,-0.567232,-0.698132,-0.174533,-0.174533,-0.569751,-0.695505,-0.16645,-0.199715,0.512959,-0.147077,-0.242408,0.755527
28,60,-0.567232,-0.698132,-0.174533,-0.174533,-0.569751,-0.695505,-0.16645,-0.199715,0.512959,-0.147077,-0.242408,0.755527
28,60,-0.567232,-0.698132,-0.174533,-0.174533,-0.569751,-0.695505,-0.16645,-0.199715,0.512959,-0.147077,-0.242408,0.755527
28,60,-0.567232,-0.698132,-0.174533,-0.174533,-0.569751,-0.695505,-0.16645,-0.199715,0.512959,-0.147077,-0.242408,0.755527
28,60,-0.567232,-0.698132,-0.174533,-0.174533,-0.569751,-0.695505,-0.16645,-0.199715,0.512959,-0.147077,-0.242408,0.755527
28,60,-0.567232,-0.698132,-0.174533,-0.174533,-0.569751,-0.695505,-0.16645,-0.199715,0.512959,-0.147077,-0.242408,0.755527
28,60,-0.567232,-0.698132,-0.174533,-0.174533,-0.569751,-0.695505,-0.16645,-0.199715,0.512959,-0.147077,-0.242408,0.755527
28,60,-0.567232,-0.698132,-0.174533,-0.174533,-0.569751,-0.695505,-0.16645,-0.199715,0.512959,-0.147077,-0.242408,0.755527
28,60,-0.567232,-0.698132,-0.174533,-0.174533,-0.569751,-0.695505,-0.16645,-0.199715,0.512959,-0.147077,-0.242408,0.755527
28,60,-0.567232,-0.698132,-0.174533,-0.174533,-0.569751,-0.695505,-0.16645,-0.199715,0.512959,-0.147077,-0.242408,0.755527
28,60,-0.567232,-0.698132,-0.174533,-0.174533,-0.569751,-0.695505,-0.16645,-0.199715,0.512959,-0.147077,-0.242408,0.755527
28,60,-0.567232,-0.698132,-0.174533,-0.174533,-0.569751,-0.695505,-0.16645,-0.199715,0.512959,-0.147077,-0.242408,0.755527
28,60,-0.567232,-0.698132,-0.174533,-0.174533,-0.569751,-0.695505,-0.16645,-0.199715,0.512959,-0.147077,-0.242408,0.755527
28,60,-0.567232,-0.698132,-0.174533,-0.174533,-0.569751,-0.695505,-0.16645,-0.199715,0.512959,-0.147077,-0.242408,0.755527
28,60,-0.567232,-0.698132,-0.174533,-0.174533,-0.569751,-0.695505,-0.16645,-0.199715,0.512959,-0.147077,-0.242408,0.755527
28,60,-0.567232,-0.698132,-0.174533,-0.174533,-0.569751,-0.695505,-0.16645,-0.199715,0.512959,-0.147077,-0.242408,0.755527
28,60,-0.567232,-0.698132,-0.174533,-0.174533,-0.569751,-0.695505,-0.16645,-0.199715,0.512959,-0.147077,-0.242408,0.755527
28,60,-0.567232,-0.698132,-0.174533,-0.174533,-0.569751,-0.695505,-0.16645,-0.199715,0.512959,-0.147077,-0.242408,0.755527
28,60,-0.567232,-0.698132,-0.174533,-0.174533,-0.569751,-0.695505,-0.16645,-0.199715,0.512959,-0.147077,-0.242408,0.755527
28,60,-0.567232,-0.698132,-0.174533,-0.174533,-0.569751,-0.695505,-0.16645,-0.199715,0.512959,-0.147077,-0.242408,0.755527
28,60,-0.567232,-0.698132,-0.174533,-0.174533,-0.569751,-0.695505,-0.16645,-0.199715,0.512959,-0.147077,-0.242408,0.755527
28,60,-0.567232,-0.698132,-0.174533,-0.174533,-0.569751,-0.695505,-0.16645,-0.199715,0.512959,-0.147077,-0.242408,0.755527
28,60,-0.567232,-0.698132,-0.174533,-0.174533,-0.569751,-0.695505,-0.16645,-0.199715,0.512959,-0.147077,-0.242408,0.755527
28,60,-0.567232,-0.698132,-0.174533,-0.174533,-0.569751,-0.695505,-0.16645,-0.199715,0.512959,-0.147077,-0.242408,0.755527
28,60,-0.567232,-0.698132,-0.174533,-0.174533,-0.569751,-0.695505,-0.16645,-0.199715,0.512959,-0.147077,-0.242408,0.755527
28,60,-0.567232,-0.698132,-0.174533,-0.174533,-0.569751,-0.695505,-0.16645,-0.199715,0.512959,-0.147077,-0.242408,0.755527
28,60,-0.567232,-0.698132,-0.174533,-0.174533,-0.569751,-0.695505,-0.16645,-0.199715,0.512959,-0.147077,-0.242408,0.755527
28,60,-0.567232,-0.698132,-0.174533,-0.174533,-0.569751,-0.695505,-0.16645,-0.199715,0.512959,-0.147077,-0.242408,0.755527
28,60,-0.567232,-0.698132,-0.174533,-0.174533,-0.569751,-0.695505,-0.16645,-0.199715,0.512959,-0.147077,-0.242408,0.755527
28,60,-0.567232,-0.698132,-0.174533,-0.174533,-0.569751,-0.695505,-0.16645,-0.199715,0.512959,-0.147077,-0.242408,0.755527
28,60,-0.567232,-0.698132,-0.174533,-0.174533,-0.569751,-0.695505,-0.16645,-0.199715,0.512959,-0.147077,-0.242408,0.755527
28,60,-0.567232,-0.698132,-0.174533,-0.174533,-0.569751,-0.695505,-0.16645,-0.199715,0.512959,-0.147077,-0.242408,0.755527
28,60,-0.567232,-0.698132,-0.174533,-0.174533,-0.569751,-0.695505,-0.16645,-0.199715,0.512959,-0.147077,-0.242408,0.755527
28,60,-0.567232,-0.698132,-0.174533,-0.174533,-0.569751,-0.695505,-0.16645,-0.199715,0.512959,-0.147077,-0.242408,0.755527
28,60,-0.567232,-0.698132,-0.174533,-0.174533,-0.569751,-0.695505,-0.16645,-0.199715,0.512959,-0.147077,-0.242408,0.755527
28,60,-0.567232,-0.698132,-0.174533,-0.174533,-0.569751,-0.695505,-0.16645,-0.199715,0.512959,-0.147077,-0.242408,0.755527
28,60,-0.567232,-0.698132,-0.174533,-0.174533,-0.569751,-0.695505,-0.16645,-0.199715,0.512959,-0.147077,-0.242408,0.755527
28,60,-0.567232,-0.698132,-0.174533,-0.174533,-0.569751,-0.695505,-0.16645,-0.199715,0.512959,-0.147077,-0.242408,0.755527
28,60,-0.567232,-0.698132,-0.174533,-0.174533,-0.569751,-0.695505,-0.16645,-0.199715,0.512959,-0.147077,-0.242408,0.755527
28,60,-0.567232,-0.698132,-0.174533,-0.174533,-0.569751,-0.695505,-0.16645,-0.199715,0.512959,-0.147077,-0.242408,0.755527
28,60,-0.567232,-0.698132,-0.174533,-0.174533,-0.569751,-0.695505,-0.16645,-0.199715,0.512959,-0.147077,-0.242408,0.755527
28,60,-0.567232,-0.698132,-0.174533,-0.174533,-0.569751,-0.695505,-0.16645,-0.199715,0.512959,-0.147077,-0.242408,0.755527
28,60,-0.567232,-0.698132,-0.174533,-0.174533,-0.569751,-0.695505,-0.16645,-0.199715,0.512959,-0.147077,-0.242408,0.755527
28,60,-0.567232,-0.698132,-0.174533,-0.174533,-0.569751,-0.695505,-0.16645,-0.199715,0.512959,-0.147077,-0.242408,0.755527
28,60,-0.567232,-0.698132,-0.174533,-0.174533,-0.569751,-0.695505,-0.16645,-0.199715,0.512959,-0.147077,-0.242408,0.755527
28,60,-0.567232,-0.698132,-0.174533,-0.174533,-0.569751,-0.695505,-0.16645,-0.199715,0.512959,-0.147077,-0.242408,0.755527
28,60,-0.567232,-0.698132,-0.174533,-0.174533,-0.569751,-0.695505,-0.16645,-0.199715,0.512959,-0.147077,-0.242408,0.755527
28,60,-0.567232,-0.698132,-0.174533,-0.174533,-0.569751,-0.695505,-0.16645,-0.199715,0.512959,-0.147077,-0.242408,0.755527
28,60,-0.567232,-0.698132,-0.174533,-0.174533,-0.569751,-0.695505,-0.16645,-0.199715,0.512959,-0.147077,-0.242408,0.755527
28,60,-0.567232,-0.698132,-0.174533,-0.174533,-0.569751,-0.695505,-0.16645,-0.199715,0.512959,-0.147077,-0.242408,0.755527
28,60,-0.567232,-0.698132,-0.174533,-0.174533,-0.569751,-0.695505,-0.16645,-0.199715,0.512959,-0.147077,-0.242408,0.755527
28,60,-0.567232,-0.698132,-0.174533,-0.174533,-0.569751,-0.695505,-0.16645,-0.199715,0.512959,-0.147077,-0.242408,0.755527
28,60,-0.567232,-0.698132,-0.174533,-0.174533,-0.569751,-0.695505,-0.16645,-0.199715,0.512959,-0.147077,-0.242408,0.755527
28,60,-0.567232,-0.698132,-0.174533,-0.174533,-0.569751,-0.695505,-0.16645,-0.199715,0.512959,-0.147077,-0.242408,0.755527
28,60,-0.567232,-0.698132,-0.174533,-0.174533,-0.569751,-0.695505,-0.16645,-0.199715,0.512959,-0.147077,-0.242408,0.755527
28,60,-0.567232,-0.698132,-0.174533,-0.174533,-0.569751,-0.695505,-0.16645,-0.199715,0.512959,-0.147077,-0.242408,0.755527
28,60,-0.567232,-0.698132,-0.174533,-0.174533,-0.569751,-0.695505,-0.16645,-0.199715,0.512959,-0.147077,-0.242408,0.755527
28,60,-0.567232,-0.698132,-0.174533,-0.174533,-0.569751,-0.695505,-0.16645,-0.199715,0.512959,-0.147077,-0.242408,0.755527
28,60,-0.567232,-0.698132,-0.174533,-0.174533,-0.569751,-0.695505,-0.16645,-0.199715,0.512959,-0.147077,-0.242408,0.755527
28,60,-0.567232,-0.698132,-0.174533,-0.174533,-0.569751,-0.695505,-0.16645,-0.199715,0.512959,-0.147077,-0.242408,0.755527
28,60,-0.567232,-0.698132,-0.174533,-0.174533,-0.569751,-0.695505,-0.16645,-0.199715,0.512959,-0.147077,-0.242408,0.755527
28,60,-0.567232,-0.698132,-0.174533,-0.174533,-0.569751,-0.695505,-0.16645,-0.199715,0.512959,-0.147077,-0.242408,0.755527
28,60,-0.567232,-0.698132,-0.174533,-0.174533,-0.569751,-0.695505,-0.166517,-0.199758,0.512959,-0.147077,-0.240424,0.756786
28,60,-0.567232,-0.698132,-0.174533,-0.174533,-0.569751,-0.695505,-0.166517,-0.199758,0.512959,-0.147077,-0.240424,0.756786
28,60,-0.567232,-0.698132,-0.174533,-0.174533,-0.569751,-0.695505,-0.166517,-0.199758,0.512959,-0.147077,-0.240424,0.756786
28,60,-0.567232,-0.698132,-0.174533,-0.174533,-0.569751,-0.695505,-0.166517,-0.199758,0.512959,-0.147077,-0.240424,0.756786
28,60,-0.567232,-0.698132,-0.174533,-0.174533,-0.569751,-0.695505,-0.166517,-0.199758,0.512959,-0.147077,-0.240424,0.756786
28,60,-0.567232,-0.698132,-0.174533,-0.174533,-0.569751,-0.695505,-0.166517,-0.199758,0.512959,-0.147077,-0.240424,0.756786
28,60,-0.567232,-0.698132,-0.174533,-0.174533,-0.569751,-0.695505,-0.166517,-0.199758,0.512959,-0.147077,-0.240424,0.756786
28,60,-0.567232,-0.698132,-0.174533,-0.174533,-0.569751,-0.695505,-0.166517,-0.199758,0.512959,-0.147077,-0.240424,0.756786
28,60,-0.567232,-0.698132,-0.174533,-0.174533,-0.569751,-0.695505,-0.166517,-0.199758,0.512959,-0.147077,-0.240424,0.756786
28,60,-0.567232,-0.698132,-0.174533,-0.174533,-0.569751,-0.695505,-0.166517,-0.199758,0.512959,-0.147077,-0.240424,0.756786
28,60,-0.567232,-0.698132,-0.174533,-0.174533,-0.569751,-0.695505,-0.166517,-0.199758,0.512959,-0.147077,-0.240424,0.756786
28,60,-0.567232,-0.698132,-0.174533,-0.174533,-0.569751,-0.695505,-0.166517,-0.199758,0.512959,-0.147077,-0.240424,0.756786
28,60,-0.567232,-0.698132,-0.174533,-0.174533,-0.569751,-0.695505,-0.166517,-0.199758,0.512959,-0.147077,-0.240424,0.756786
28,60,-0.567232,-0.698132,-0.174533,-0.174533,-0.569751,-0.695505,-0.166517,-0.199758,0.512959,-0.147077,-0.240424,0.756786
28,60,-0.567232,-0.698132,-0.174533,-0.174533,-0.569751,-0.695505,-0.166517,-0.199758,0.512959,-0.147077,-0.240424,0.756786
28,60,-0.567232,-0.698132,-0.174533,-0.174533,-0.569751,-0.695505,-0.166517,-0.199758,0.512959,-0.147077,-0.240424,0.756786
28,60,-0.567232,-0.698132,-0.174533,-0.174533,-0.569751,-0.695505,-0.166517,-0.199758,0.512959,-0.147077,-0.240424,0.756786
28,60,-0.567232,-0.698132,-0.174533,-0.174533,-0.569751,-0.695505,-0.166517,-0.199758,0.512959,-0.147077,-0.240424,0.756786
28,60,-0.567232,-0.698132,-0.174533,-0.174533,-0.569751,-0.695505,-0.166517,-0.199758,0.512959,-0.147077,-0.240424,0.756786
28,60,-0.567232,-0.698132,-0.174533,-0.174533,-0.569751,-0.695505,-0.166517,-0.199758,0.512959,-0.147077,-0.240424,0.756786
28,60,-0.567232,-0.698132,-0.174533,-0.174533,-0.569751,-0.695505,-0.166517,-0.199758,0.512959,-0.147077,-0.240424,0.756786
28,60,-0.567232,-0.698132,-0.174533,-0.174533,-0.569751,-0.695505,-0.166517,-0.199758,0.512959,-0.147077,-0.240424,0.756786
28,60,-0.567232,-0.698132,-0.174533,-0.174533,-0.569751,-0.695505,-0.166517,-0.199758,0.512959,-0.147077,-0.240424,0.756786
28,60,-0.567232,-0.698132,-0.174533,-0.174533,-0.569751,-0.695505,-0.166517,-0.199758,0.512959,-0.147077,-0.240424,0.756786
28,60,-0.567232,-0.698132,-0.174533,-0.174533,-0.569751,-0.695505,-0.166517,-0.199758,0.512959,-0.147077,-0.240424,0.756786
28,60,-0.567232,-0.698132,-0.174533,-0.174533,-0.569751,-0.695505,-0.166517,-0.199758,0.512959,-0.147077,-0.240424,0.756786
28,60,-0.567232,-0.698132,-0.174533,-0.174533,-0.569751,-0.695505,-0.166517,-0.199758,0.512959,-0.147077,-0.240424,0.756786
28,60,-0.567232,-0.698132,-0.174533,-0.174533,-0.569751,-0.695505,-0.166517,-0.199758,0.512959,-0.147077,-0.240424,0.756786
28,60,-0.567232,-0.698132,-0.174533,-0.174533,-0.569751,-0.695505,-0.166517,-0.199758,0.512959,-0.147077,-0.240424,0.756786
28,60,-0.567232,-0.698132,-0.174533,-0.174533,-0.569751,-0.695505,-0.166517,-0.199758,0.512959,-0.147077,-0.240424,0.756786
28,60,-0.567232,-0.698132,-0.174533,-0.174533,-0.569751,-0.695505,-0.166517,-0.199758,0.512959,-0.147077,-0.240424,0.756786
28,60,-0.567232,-0.698132,-0.174533,-0.174533,-0.569751,-0.695505,-0.166517,-0.199758,0.512959,-0.147077,-0.240424,0.756786
28,60,-0.567232,-0.698132,-0.174533,-0.174533,-0.569751,-0.695505,-0.166517,-0.199758,0.512959,-0.147077,-0.240424,0.756786
28,60,-0.567232,-0.698132,-0.174533,-0.174533,-0.569751,-0.695505,-0.166584,-0.199801,0.512959,-0.147077,-0.238439,0.758046
28,60,-0.567232,-0.698132,-0.174533,-0.174533,-0.569751,-0.695505,-0.166584,-0.199801,0.512959,-0.147077,-0.238439,0.758046
28,60,-0.567232,-0.698132,-0.174533,-0.174533,-0.569751,-0.695505,-0.166584,-0.199801,0.512959,-0.147077,-0.238439,0.758046
28,60,-0.567232,-0.698132,-0.174533,-0.174533,-0.569751,-0.695505,-0.166584,-0.199801,0.512959,-0.147077,-0.238439,0.758046
28,60,-0.567232,-0.698132,-0.174533,-0.174533,-0.569751,-0.695505,-0.166584,-0.199801,0.512959,-0.147077,-0.238439,0.758046
28,60,-0.567232,-0.698132,-0.174533,-0.174533,-0.569751,-0.695505,-0.166584,-0.199801,0.512959,-0.147077,-0.238439,0.758046
28,60,-0.567232,-0.698132,-0.174533,-0.174533,-0.569751,-0.695505,-0.166584,-0.199801,0.512959,-0.147077,-0.238439,0.758046
28,60,-0.567232,-0.698132,-0.174533,-0.174533,-0.569751,-0.695505,-0.166584,-0.199801,0.512959,-0.147077,-0.238439,0.758046
28,60,-0.567232,-0.698132,-0.174533,-0.174533,-0.569751,-0.695505,-0.166584,-0.199801,0.512959,-0.147077,-0.238439,0.758046
28,60,-0.567232,-0.698132,-0.174533,-0.174533,-0.569751,-0.695505,-0.166584,-0.199801,0.512959,-0.147077,-0.238439,0.758046
28,60,-0.567232,-0.698132,-0.174533,-0.174533,-0.569751,-0.695505,-0.166584,-0.199801,0.512959,-0.147077,-0.238439,0.758046
28,60,-0.567232,-0.698132,-0.174533,-0.174533,-0.569751,-0.695505,-0.166584,-0.199801,0.512959,-0.147077,-0.238439,0.758046
28,60,-0.567232,-0.698132,-0.174533,-0.174533,-0.569751,-0.695505,-0.166584,-0.199801,0.512959,-0.147077,-0.238439,0.758046
28,60,-0.567232,-0.698132,-0.174533,-0.174533,-0.569751,-0.695505,-0.166584,-0.199801,0.512959,-0.147077,-0.238439,0.758046
28,60,-0.567232,-0.698132,-0.174533,-0.174533,-0.569751,-0.695505,-0.166584,-0.199801,0.512959,-0.147077,-0.238439,0.758046
28,60,-0.567232,-0.698132,-0.174533,-0.174533,-0.569751,-0.695505,-0.166584,-0.199801,0.512959,-0.147077,-0.238439,0.758046
28,60,-0.567232,-0.698132,-0.174533,-0.174533,-0.569751,-0.695505,-0.166584,-0.199801,0.512959,-0.147077,-0.238439,0.758046
28,60,-0.567232,-0.698132,-0.174533,-0.174533,-0.569751,-0.695505,-0.166584,-0.199801,0.512959,-0.147077,-0.238439,0.758046
28,60,-0.567232,-0.698132,-0.174533,-0.174533,-0.569751,-0.695505,-0.166584,-0.199801,0.512959,-0.147077,-0.238439,0.758046
28,60,-0.567232,-0.698132,-0.174533,-0.174533,-0.569751,-0.695505,-0.166584,-0.199801,0.512959,-0.147077,-0.238439,0.758046
28,60,-0.567232,-0.698132,-0.174533,-0.174533,-0.569751,-0.695505,-0.166584,-0.199801,0.512959,-0.147077,-0.238439,0.758046
28,60,-0.567232,-0.698132,-0.174533,-0.174533,-0.569751,-0.695505,-0.166651,-0.199843,0.512959,-0.147077,-0.236425,0.759324
28,60,-0.567232,-0.698132,-0.174533,-0.174533,-0.569751,-0.695505,-0.166651,-0.199843,0.512959,-0.147077,-0.236425,0.759324
28,60,-0.567232,-0.698132,-0.174533,-0.174533,-0.569751,-0.695505,-0.166651,-0.199843,0.512959,-0.147077,-0.236425,0.759324
28,60,-0.567232,-0.698132,-0.174533,-0.174533,-0.569751,-0.695505,-0.166651,-0.199843,0.512959,-0.147077,-0.236425,0.759324
28,60,-0.567232,-0.698132,-0.174533,-0.174533,-0.569751,-0.695505,-0.166651,-0.199843,0.512959,-0.147077,-0.236425,0.759324
28,60,-0.567232,-0.698132,-0.174533,-0.174533,-0.569751,-0.695505,-0.166651,-0.199843,0.512959,-0.147077,-0.236425,0.759324
28,60,-0.567232,-0.698132,-0.174533,-0.174533,-0.569751,-0.695505,-0.166651,-0.199843,0.512959,-0.147077,-0.236425,0.759324
28,60,-0.567232,-0.698132,-0.174533,-0.174533,-0.569751,-0.695505,-0.166651,-0.199843,0.512959,-0.147077,-0.236425,0.759324
28,60,-0.567232,-0.698132,-0.174533,-0.174533,-0.569751,-0.695505,-0.166651,-0.199843,0.512959,-0.147077,-0.236425,0.759324
28,60,-0.567232,-0.698132,-0.174533,-0.174533,-0.569751,-0.695505,-0.166651,-0.199843,0.512959,-0.147077,-0.236425,0.759324
28,60,-0.567232,-0.698132,-0.174533,-0.174533,-0.569751,-0.695505,-0.166651,-0.199843,0.512959,-0.147077,-0.236425,0.759324
28,60,-0.567232,-0.698132,-0.174533,-0.174533,-0.569751,-0.695505,-0.166651,-0.199843,0.512959,-0.147077,-0.236425,0.759324
28,60,-0.567232,-0.698132,-0.174533,-0.174533,-0.569751,-0.695505,-0.166651,-0.199843,0.512959,-0.147077,-0.236425,0.759324
28,60,-0.567232,-0.698132,-0.174533,-0.174533,-0.569751,-0.695505,-0.166651,-0.199843,0.512959,-0.147077,-0.236425,0.759324
28,60,-0.567232,-0.698132,-0.174533,-0.174533,-0.569751,-0.695505,-0.166651,-0.199843,0.512959,-0.147077,-0.236425,0.759324
28,60,-0.567232,-0.698132,-0.174533,-0.174533,-0.569751,-0.695505,-0.166651,-0.199843,0.512959,-0.147077,-0.236425,0.759324
28,60,-0.567232,-0.698132,-0.174533,-0.174533,-0.569751,-0.695505,-0.166651,-0.199843,0.503827,-0.147077,-0.236425,0.759324
28,60,-0.567232,-0.698132,-0.174533,-0.174533,-0.569751,-0.695505,-0.166651,-0.199843,0.503827,-0.147077,-0.236425,0.759324
28,60,-0.567232,-0.698132,-0.174533,-0.174533,-0.569751,-0.695505,-0.166651,-0.199843,0.503827,-0.147077,-0.236425,0.759324
28,60,-0.567232,-0.698132,-0.174533,-0.174533,-0.569751,-0.695505,-0.166651,-0.199843,0.503827,-0.147077,-0.236425,0.759324
28,60,-0.567232,-0.698132,-0.174533,-0.174533,-0.569751,-0.695505,-0.166651,-0.199843,0.503827,-0.147077,-0.236425,0.759324
28,60,-0.567232,-0.698132,-0.174533,-0.174533,-0.569751,-0.695505,-0.166651,-0.199843,0.503827,-0.147077,-0.236425,0.759324
28,60,-0.567232,-0.698132,-0.174533,-0.174533,-0.569751,-0.695505,-0.166651,-0.199843,0.503827,-0.147077,-0.236425,0.759324
28,60,-0.567232,-0.698132,-0.174533,-0.174533,-0.569751,-0.695505,-0.166651,-0.199843,0.503827,-0.147077,-0.236425,0.759324
28,60,-0.567232,-0.698132,-0.174533,-0.174533,-0.569751,-0.695505,-0.166651,-0.199843,0.503827,-0.147077,-0.236425,0.759324
28,60,-0.567232,-0.698132,-0.174533,-0.174533,-0.569751,-0.695505,-0.166651,-0.199843,0.503827,-0.147077,-0.236425,0.759324
28,60,-0.567232,-0.698132,-0.174533,-0.174533,-0.569751,-0.695505,-0.166651,-0.199843,0.503827,-0.147077,-0.236425,0.759324
28,60,-0.567232,-0.698132,-0.174533,-0.174533,-0.569751,-0.695505,-0.166651,-0.199843,0.503827,-0.147077,-0.236425,0.759324
28,60,-0.567232,-0.698132,-0.174533,-0.174533,-0.569751,-0.695505,-0.166651,-0.199843,0.503827,-0.147077,-0.236425,0.759324
28,60,-0.567232,-0.698132,-0.174533,-0.174533,-0.569751,-0.695505,-0.166651,-0.199843,0.503827,-0.147077,-0.236425,0.759324
28,60,-0.567232,-0.698132,-0.174533,-0.174533,-0.569751,-0.695505,-0.166651,-0.199843,0.503827,-0.147077,-0.236425,0.759324
28,60,-0.567232,-0.698132,-0.174533,-0.174533,-0.569751,-0.695505,-0.166719,-0.199886,0.503827,-0.147077,-0.234408,0.760604
28,60,-0.567232,-0.698132,-0.174533,-0.174533,-0.569751,-0.695505,-0.166719,-0.199886,0.503827,-0.147077,-0.234408,0.760604
28,60,-0.567232,-0.698132,-0.174533,-0.174533,-0.569751,-0.695505,-0.166719,-0.199886,0.503827,-0.147077,-0.234408,0.760604
28,60,-0.567232,-0.698132,-0.174533,-0.174533,-0.569751,-0.695505,-0.166719,-0.199886,0.503827,-0.147077,-0.234408,0.760604
28,60,-0.567232,-0.698132,-0.174533,-0.174533,-0.569751,-0.695505,-0.166719,-0.199886,0.503827,-0.147077,-0.234408,0.760604
28,60,-0.567232,-0.698132,-0.174533,-0.174533,-0.569751,-0.695505,-0.166719,-0.199886,0.503827,-0.147077,-0.234408,0.760604
28,60,-0.567232,-0.698132,-0.174533,-0.174533,-0.569751,-0.695505,-0.166719,-0.199886,0.503827,-0.147077,-0.234408,0.760604
28,60,-0.567232,-0.698132,-0.174533,-0.174533,-0.569751,-0.695505,-0.166719,-0.199886,0.503827,-0.147077,-0.234408,0.760604
28,60,-0.567232,-0.698132,-0.174533,-0.174533,-0.569751,-0.695505,-0.166719,-0.199886,0.503827,-0.147077,-0.234408,0.760604
28,60,-0.567232,-0.698132,-0.174533,-0.174533,-0.569751,-0.695505,-0.166719,-0.199886,0.503827,-0.147077,-0.234408,0.760604
28,60,-0.567232,-0.698132,-0.174533,-0.174533,-0.569751,-0.695505,-0.166719,-0.199886,0.503827,-0.147077,-0.234408,0.760604
28,60,-0.567232,-0.698132,-0.174533,-0.174533,-0.569751,-0.695505,-0.166719,-0.199886,0.503827,-0.147077,-0.234408,0.760604
28,60,-0.567232,-0.698132,-0.174533,-0.174533,-0.569751,-0.695505,-0.166719,-0.199886,0.503827,-0.147077,-0.234408,0.760604
28,60,-0.567232,-0.698132,-0.174533,-0.174533,-0.569751,-0.695505,-0.166719,-0.199886,0.503827,-0.147077,-0.234408,0.760604
28,60,-0.567232,-0.698132,-0.174533,-0.174533,-0.569751,-0.695505,-0.166719,-0.199886,0.503827,-0.147077,-0.234408,0.760604
28,60,-0.567232,-0.698132,-0.174533,-0.174533,-0.569751,-0.695505,-0.166719,-0.199886,0.503827,-0.147077,-0.234408,0.760604
28,60,-0.567232,-0.698132,-0.174533,-0.174533,-0.569751,-0.695505,-0.166719,-0.199886,0.503827,-0.147077,-0.234408,0.760604
28,60,-0.567232,-0.698132,-0.174533,-0.174533,-0.569751,-0.695505,-0.166719,-0.199886,0.503827,-0.147077,-0.234408,0.760604
28,60,-0.567232,-0.698132,-0.174533,-0.174533,-0.569751,-0.695505,-0.166719,-0.199886,0.503827,-0.147077,-0.234408,0.760604
28,60,-0.567232,-0.698132,-0.174533,-0.174533,-0.569751,-0.695505,-0.166719,-0.199886,0.503827,-0.147077,-0.234408,0.760604
28,60,-0.567232,-0.698132,-0.174533,-0.174533,-0.569751,-0.695505,-0.166719,-0.199886,0.503827,-0.147077,-0.234408,0.760604
28,60,-0.567232,-0.698132,-0.174533,-0.174533,-0.569751,-0.695505,-0.166719,-0.199886,0.503827,-0.147077,-0.234408,0.760604
28,60,-0.567232,-0.698132,-0.174533,-0.174533,-0.569751,-0.695505,-0.166719,-0.199886,0.503827,-0.147077,-0.234408,0.760604
28,60,-0.567232,-0.698132,-0.174533,-0.174533,-0.569751,-0.695505,-0.166719,-0.199886,0.503827,-0.147077,-0.234408,0.760604
28,60,-0.567232,-0.698132,-0.174533,-0.174533,-0.569751,-0.695505,-0.166719,-0.199886,0.503827,-0.147077,-0.234408,0.760604
28,60,-0.567232,-0.698132,-0.174533,-0.174533,-0.569751,-0.695505,-0.166719,-0.199886,0.503827,-0.147077,-0.234408,0.760604
28,60,-0.567232,-0.698132,-0.174533,-0.174533,-0.569751,-0.695505,-0.166719,-0.199886,0.503827,-0.147077,-0.234408,0.760604
28,60,-0.567232,-0.698132,-0.174533,-0.174533,-0.569751,-0.695505,-0.166719,-0.199886,0.503827,-0.147077,-0.234408,0.760604
28,60,-0.567232,-0.698132,-0.174533,-0.174533,-0.569751,-0.695505,-0.166719,-0.199886,0.503827,-0.147077,-0.234408,0.760604
28,60,-0.567232,-0.698132,-0.174533,-0.174533,-0.569751,-0.695505,-0.166719,-0.199886,0.503827,-0.147077,-0.234408,0.760604
28,60,-0.567232,-0.698132,-0.174533,-0.174533,-0.569751,-0.695505,-0.166719,-0.199886,0.503827,-0.147077,-0.234408,0.760604
28,60,-0.567232,-0.698132,-0.174533,-0.174533,-0.569751,-0.695505,-0.166719,-0.199886,0.503827,-0.147077,-0.234408,0.760604
28,60,-0.567232,-0.698132,-0.174533,-0.174533,-0.569751,-0.695505,-0.166719,-0.199886,0.503827,-0.147077,-0.234408,0.760604
28,60,-0.567232,-0.698132,-0.174533,-0.174533,-0.569751,-0.695505,-0.166719,-0.199886,0.503827,-0.147077,-0.234408,0.760604
28,60,-0.567232,-0.698132,-0.174533,-0.174533,-0.569751,-0.695505,-0.166719,-0.199886,0.503827,-0.147077,-0.234408,0.760604
28,60,-0.567232,-0.698132,-0.174533,-0.174533,-0.569751,-0.695505,-0.166719,-0.199886,0.503827,-0.147077,-0.234408,0.760604
28,60,-0.567232,-0.698132,-0.174533,-0.174533,-0.569751,-0.695505,-0.166719,-0.199886,0.503827,-0.147077,-0.234408,0.760604
28,60,-0.567232,-0.698132,-0.174533,-0.174533,-0.569751,-0.695505,-0.166719,-0.199886,0.503827,-0.147077,-0.234408,0.760604
28,60,-0.567232,-0.698132,-0.174533,-0.174533,-0.569751,-0.695505,-0.166719,-0.199886,0.503827,-0.147077,-0.234408,0.760604
28,60,-0.567232,-0.698132,-0.174533,-0.174533,-0.569751,-0.695505,-0.166719,-0.199886,0.503827,-0.147077,-0.234408,0.760604
28,60,-0.567232,-0.698132,-0.174533,-0.174533,-0.569751,-0.695505,-0.166719,-0.199886,0.503827,-0.147077,-0.234408,0.760604
28,60,-0.567232,-0.698132,-0.174533,-0.174533,-0.569751,-0.695505,-0.166719,-0.199886,0.503827,-0.147077,-0.234408,0.760604
28,60,-0.567232,-0.698132,-0.174533,-0.174533,-0.569751,-0.695505,-0.166719,-0.199886,0.503827,-0.147077,-0.234408,0.760604
28,60,-0.567232,-0.698132,-0.174533,-0.174533,-0.569751,-0.695505,-0.166719,-0.199886,0.503827,-0.147077,-0.234408,0.760604
28,60,-0.567232,-0.698132,-0.174533,-0.174533,-0.569751,-0.695505,-0.166719,-0.199886,0.503827,-0.147077,-0.234408,0.760604
28,60,-0.567232,-0.698132,-0.174533,-0.174533,-0.569751,-0.695505,-0.166719,-0.199886,0.503827,-0.147077,-0.234408,0.760604
28,60,-0.567232,-0.698132,-0.174533,-0.174533,-0.569751,-0.695505,-0.166719,-0.199886,0.503827,-0.147077,-0.234408,0.760604
28,60,-0.567232,-0.698132,-0.174533,-0.174533,-0.569751,-0.695505,-0.166719,-0.199886,0.503827,-0.147077,-0.234408,0.760604
28,60,-0.567232,-0.698132,-0.174533,-0.174533,-0.569751,-0.695505,-0.166719,-0.199886,0.503827,-0.147077,-0.234408,0.760604
28,60,-0.567232,-0.698132,-0.174533,-0.174533,-0.569751,-0.695505,-0.166719,-0.199886,0.503827,-0.147077,-0.234408,0.760604
28,60,-0.567232,-0.698132,-0.174533,-0.174533,-0.569751,-0.695505,-0.166719,-0.199886,0.503827,-0.147077,-0.234408,0.760604
28,60,-0.567232,-0.698132,-0.174533,-0.174533,-0.569751,-0.695505,-0.166719,-0.199886,0.503827,-0.147077,-0.234408,0.760604
28,60,-0.567232,-0.698132,-0.174533,-0.174533,-0.569751,-0.695505,-0.166719,-0.199886,0.503827,-0.147077,-0.234408,0.760604
28,60,-0.567232,-0.698132,-0.174533,-0.174533,-0.569751,-0.695505,-0.166719,-0.199886,0.503827,-0.147077,-0.234408,0.760604
28,60,-0.567232,-0.698132,-0.174533,-0.174533,-0.569751,-0.695505,-0.166719,-0.199886,0.503827,-0.147077,-0.234408,0.760604
28,60,-0.567232,-0.698132,-0.174533,-0.174533,-0.569751,-0.695505,-0.166719,-0.199886,0.503827,-0.147077,-0.234408,0.760604
28,60,-0.567232,-0.698132,-0.174533,-0.174533,-0.569751,-0.695505,-0.166719,-0.199886,0.503827,-0.147077,-0.234408,0.760604
28,60,-0.567232,-0.698132,-0.174533,-0.174533,-0.569751,-0.695505,-0.166719,-0.199886,0.503827,-0.147077,-0.234408,0.760604
28,60,-0.567232,-0.698132,-0.174533,-0.174533,-0.569751,-0.695505,-0.166719,-0.199886,0.503827,-0.147077,-0.234408,0.760604
28,60,-0.567232,-0.698132,-0.174533,-0.174533,-0.569751,-0.695505,-0.166719,-0.199886,0.503827,-0.147077,-0.234408,0.760604
28,60,-0.567232,-0.698132,-0.174533,-0.174533,-0.569751,-0.695505,-0.166719,-0.199886,0.503827,-0.147077,-0.234408,0.760604
28,60,-0.567232,-0.698132,-0.174533,-0.174533,-0.569751,-0.695505,-0.166719,-0.199886,0.503827,-0.147077,-0.234408,0.760604
28,60,-0.567232,-0.698132,-0.174533,-0.174533,-0.569751,-0.695505,-0.166719,-0.199886,0.503827,-0.147077,-0.234408,0.760604
28,60,-0.567232,-0.698132,-0.174533,-0.174533,-0.569751,-0.695505,-0.166719,-0.199886,0.503827,-0.147077,-0.234408,0.760604
28,60,-0.567232,-0.698132,-0.174533,-0.174533,-0.569751,-0.695505,-0.166719,-0.199886,0.503827,-0.147077,-0.234408,0.760604
28,60,-0.567232,-0.698132,-0.174533,-0.174533,-0.569751,-0.695505,-0.166719,-0.199886,0.503827,-0.147077,-0.234408,0.760604
28,60,-0.567232,-0.698132,-0.174533,-0.174533,-0.569751,-0.695505,-0.166719,-0.199886,0.503827,-0.147077,-0.234408,0.760604
28,60,-0.567232,-0.698132,-0.174533,-0.174533,-0.569751,-0.695505,-0.166719,-0.199886,0.503827,-0.147077,-0.234408,0.760604
28,60,-0.567232,-0.698132,-0.174533,-0.174533,-0.569751,-0.695505,-0.166719,-0.199886,0.503827,-0.147077,-0.234408,0.760604
28,60,-0.567232,-0.698132,-0.174533,-0.174533,-0.569751,-0.695505,-0.166719,-0.199886,0.503827,-0.147077,-0.234408,0.760604
28,60,-0.567232,-0.698132,-0.174533,-0.174533,-0.569751,-0.695505,-0.166719,-0.199886,0.503827,-0.147077,-0.234408,0.760604
28,60,-0.567232,-0.698132,-0.174533,-0.174533,-0.569751,-0.695505,-0.166719,-0.199886,0.503827,-0.147077,-0.234408,0.760604
28,60,-0.567232,-0.698132,-0.174533,-0.174533,-0.569751,-0.695505,-0.166719,-0.199886,0.503827,-0.147077,-0.234408,0.760604
28,60,-0.567232,-0.698132,-0.174533,-0.174533,-0.569751,-0.695505,-0.166719,-0.199886,0.503827,-0.147077,-0.234408,0.760604
28,60,-0.567232,-0.698132,-0.174533,-0.174533,-0.569751,-0.695505,-0.166719,-0.199886,0.503827,-0.147077,-0.234408,0.760604
28,60,-0.567232,-0.698132,-0.174533,-0.174533,-0.569751,-0.695505,-0.166719,-0.199886,0.503827,-0.147077,-0.234408,0.760604
28,60,-0.567232,-0.698132,-0.174533,-0.174533,-0.569751,-0.695505,-0.166719,-0.199886,0.503827,-0.147077,-0.234408,0.760604
28,60,-0.567232,-0.698132,-0.174533,-0.174533,-0.569751,-0.695505,-0.166719,-0.199886,0.503827,-0.147077,-0.234408,0.760604
28,60,-0.567232,-0.698132,-0.174533,-0.174533,-0.569751,-0.695505,-0.166719,-0.199886,0.503827,-0.147077,-0.234408,0.760604
28,60,-0.567232,-0.698132,-0.174533,-0.174533,-0.569751,-0.695505,-0.166719,-0.199886,0.503827,-0.147077,-0.234408,0.760604
28,60,-0.567232,-0.698132,-0.174533,-0.174533,-0.569751,-0.695505,-0.166719,-0.199886,0.503827,-0.147077,-0.234408,0.760604
28,60,-0.567232,-0.698132,-0.174533,-0.174533,-0.569751,-0.695505,-0.166719,-0.199886,0.503827,-0.147077,-0.234408,0.760604
28,60,-0.567232,-0.698132,-0.174533,-0.174533,-0.569751,-0.695505,-0.166786,-0.199929,0.503827,-0.147077,-0.232391,0.761885
28,60,-0.567232,-0.698132,-0.174533,-0.174533,-0.569751,-0.695505,-0.166786,-0.199929,0.503827,-0.147077,-0.232391,0.761885
28,60,-0.567232,-0.698132,-0.174533,-0.174533,-0.569751,-0.695505,-0.166786,-0.199929,0.503827,-0.147077,-0.232391,0.761885
28,60,-0.567232,-0.698132,-0.174533,-0.174533,-0.569751,-0.695505,-0.166786,-0.199929,0.503827,-0.147077,-0.232391,0.761885
28,60,-0.567232,-0.698132,-0.174533,-0.174533,-0.569751,-0.695505,-0.166786,-0.199929,0.503827,-0.147077,-0.232391,0.761885
28,60,-0.567232,-0.698132,-0.174533,-0.174533,-0.569751,-0.695505,-0.166786,-0.199929,0.503827,-0.147077,-0.232391,0.761885
28,60,-0.567232,-0.698132,-0.174533,-0.174533,-0.569751,-0.695505,-0.166786,-0.199929,0.503827,-0.147077,-0.232391,0.761885
28,60,-0.567232,-0.698132,-0.174533,-0.174533,-0.569751,-0.695505,-0.166786,-0.199929,0.503827,-0.147077,-0.232391,0.761885
28,60,-0.567232,-0.698132,-0.174533,-0.174533,-0.569751,-0.695505,-0.166786,-0.199929,0.503827,-0.147077,-0.232391,0.761885
28,60,-0.567232,-0.698132,-0.174533,-0.174533,-0.569751,-0.695505,-0.166786,-0.199929,0.503827,-0.147077,-0.232391,0.761885
28,60,-0.567232,-0.698132,-0.174533,-0.174533,-0.569751,-0.695505,-0.166786,-0.199929,0.503827,-0.147077,-0.232391,0.761885
28,60,-0.567232,-0.698132,-0.174533,-0.174533,-0.569751,-0.695505,-0.166786,-0.199929,0.503827,-0.147077,-0.232391,0.761885
28,60,-0.567232,-0.698132,-0.174533,-0.174533,-0.569751,-0.695505,-0.166786,-0.199929,0.503827,-0.147077,-0.232391,0.761885
28,60,-0.567232,-0.698132,-0.174533,-0.174533,-0.569751,-0.695505,-0.166786,-0.199929,0.503827,-0.147077,-0.232391,0.761885
28,60,-0.567232,-0.698132,-0.174533,-0.174533,-0.569751,-0.695505,-0.166786,-0.199929,0.503827,-0.147077,-0.232391,0.761885
28,60,-0.567232,-0.698132,-0.174533,-0.174533,-0.569751,-0.695505,-0.166786,-0.199929,0.503827,-0.147077,-0.232391,0.761885
28,60,-0.567232,-0.698132,-0.174533,-0.174533,-0.569751,-0.695505,-0.166786,-0.199929,0.503827,-0.147077,-0.232391,0.761885
28,60,-0.567232,-0.698132,-0.174533,-0.174533,-0.569751,-0.695505,-0.166786,-0.199929,0.503827,-0.147077,-0.232391,0.761885
28,60,-0.567232,-0.698132,-0.174533,-0.174533,-0.569751,-0.695505,-0.166786,-0.199929,0.503827,-0.147077,-0.232391,0.761885
28,60,-0.567232,-0.698132,-0.174533,-0.174533,-0.569751,-0.695505,-0.166786,-0.199929,0.503827,-0.147077,-0.232391,0.761885
28,60,-0.567232,-0.698132,-0.174533,-0.174533,-0.569751,-0.695505,-0.166786,-0.199929,0.503827,-0.147077,-0.232391,0.761885
28,60,-0.567232,-0.698132,-0.174533,-0.174533,-0.569751,-0.695505,-0.166786,-0.199929,0.503827,-0.147077,-0.232391,0.761885
28,60,-0.567232,-0.698132,-0.174533,-0.174533,-0.569751,-0.695505,-0.166786,-0.199929,0.503827,-0.147077,-0.232391,0.761885
28,60,-0.567232,-0.698132,-0.174533,-0.174533,-0.569751,-0.695505,-0.166786,-0.199929,0.503827,-0.147077,-0.232391,0.761885
28,60,-0.567232,-0.698132,-0.174533,-0.174533,-0.569751,-0.695505,-0.166786,-0.199929,0.503827,-0.147077,-0.232391,0.761885
28,60,-0.567232,-0.698132,-0.174533,-0.174533,-0.569751,-0.695505,-0.166786,-0.199929,0.503827,-0.147077,-0.232391,0.761885
28,60,-0.567232,-0.698132,-0.174533,-0.174533,-0.569751,-0.695505,-0.166786,-0.199929,0.503827,-0.147077,-0.232391,0.761885
28,60,-0.567232,-0.698132,-0.174533,-0.174533,-0.569751,-0.695505,-0.166786,-0.199929,0.503827,-0.147077,-0.232391,0.761885
28,60,-0.567232,-0.698132,-0.174533,-0.174533,-0.569751,-0.695505,-0.166786,-0.199929,0.503827,-0.147077,-0.232391,0.761885
28,60,-0.567232,-0.698132,-0.174533,-0.174533,-0.569751,-0.695505,-0.166786,-0.199929,0.503827,-0.147077,-0.232391,0.761885
28,60,-0.567232,-0.698132,-0.174533,-0.174533,-0.569751,-0.695505,-0.166786,-0.199929,0.503827,-0.147077,-0.232391,0.761885
28,60,-0.567232,-0.698132,-0.174533,-0.174533,-0.569751,-0.695505,-0.166786,-0.199929,0.503827,-0.147077,-0.232391,0.761885
28,60,-0.567232,-0.698132,-0.174533,-0.174533,-0.569751,-0.695505,-0.166786,-0.199929,0.503827,-0.147077,-0.232391,0.761885
28,60,-0.567232,-0.698132,-0.174533,-0.174533,-0.569751,-0.695505,-0.166786,-0.199929,0.503827,-0.147077,-0.232391,0.761885
28,60,-0.567232,-0.698132,-0.174533,-0.174533,-0.569751,-0.695505,-0.166786,-0.199929,0.503827,-0.147077,-0.232391,0.761885
28,60,-0.567232,-0.698132,-0.174533,-0.174533,-0.569751,-0.695505,-0.166786,-0.199929,0.503827,-0.147077,-0.232391,0.761885
28,60,-0.567232,-0.698132,-0.174533,-0.174533,-0.569751,-0.695505,-0.166786,-0.199929,0.503827,-0.147077,-0.232391,0.761885
28,60,-0.567232,-0.698132,-0.174533,-0.174533,-0.569751,-0.695505,-0.166786,-0.199929,0.503827,-0.147077,-0.232391,0.761885
28,60,-0.567232,-0.698132,-0.174533,-0.174533,-0.569751,-0.695505,-0.166786,-0.199929,0.503827,-0.147077,-0.232391,0.761885
28,60,-0.567232,-0.698132,-0.174533,-0.174533,-0.569751,-0.695505,-0.166786,-0.199929,0.503827,-0.147077,-0.232391,0.761885
28,60,-0.567232,-0.698132,-0.174533,-0.174533,-0.569751,-0.695505,-0.166786,-0.199929,0.503827,-0.147077,-0.232391,0.761885
28,60,-0.567232,-0.698132,-0.174533,-0.174533,-0.569751,-0.695505,-0.166786,-0.199929,0.503827,-0.147077,-0.232391,0.761885
28,60,-0.567232,-0.698132,-0.174533,-0.174533,-0.569751,-0.695505,-0.166786,-0.199929,0.503827,-0.147077,-0.232391,0.761885
28,60,-0.567232,-0.698132,-0.174533,-0.174533,-0.569751,-0.695505,-0.166786,-0.199929,0.503827,-0.147077,-0.232391,0.761885
28,60,-0.567232,-0.698132,-0.174533,-0.174533,-0.569751,-0.695505,-0.166786,-0.199929,0.503827,-0.147077,-0.232391,0.761885
28,60,-0.567232,-0.698132,-0.174533,-0.174533,-0.569751,-0.695505,-0.166786,-0.199929,0.503827,-0.147077,-0.232391,0.761885
28,60,-0.567232,-0.698132,-0.174533,-0.174533,-0.569751,-0.695505,-0.166786,-0.199929,0.503827,-0.147077,-0.232391,0.761885
28,60,-0.567232,-0.698132,-0.174533,-0.174533,-0.569751,-0.695505,-0.166786,-0.199929,0.503827,-0.147077,-0.232391,0.761885
28,60,-0.567232,-0.698132,-0.174533,-0.174533,-0.569751,-0.695505,-0.166786,-0.199929,0.503827,-0.147077,-0.232391,0.761885
28,60,-0.567232,-0.698132,-0.174533,-0.174533,-0.569751,-0.695505,-0.166786,-0.199929,0.503827,-0.147077,-0.232391,0.761885
28,60,-0.567232,-0.698132,-0.174533,-0.174533,-0.569751,-0.695505,-0.166786,-0.199929,0.503827,-0.147077,-0.232391,0.761885
28,60,-0.567232,-0.698132,-0.174533,-0.174533,-0.569751,-0.695505,-0.166786,-0.199929,0.503827,-0.147077,-0.232391,0.761885
28,60,-0.567232,-0.698132,-0.174533,-0.174533,-0.569751,-0.695505,-0.166786,-0.199929,0.503827,-0.147077,-0.232391,0.761885
28,60,-0.567232,-0.698132,-0.174533,-0.174533,-0.569751,-0.695505,-0.166786,-0.199929,0.503827,-0.147077,-0.232391,0.761885
28,60,-0.567232,-0.698132,-0.174533,-0.174533,-0.569751,-0.695505,-0.166786,-0.199929,0.503827,-0.147077,-0.232391,0.761885
28,60,-0.567232,-0.698132,-0.174533,-0.174533,-0.569751,-0.695505,-0.166786,-0.199929,0.503827,-0.147077,-0.232391,0.761885
28,60,-0.567232,-0.698132,-0.174533,-0.174533,-0.569751,-0.695505,-0.166786,-0.199929,0.503827,-0.147077,-0.232391,0.761885
28,60,-0.567232,-0.698132,-0.174533,-0.174533,-0.569751,-0.695505,-0.166786,-0.199929,0.503827,-0.147077,-0.232391,0.761885
28,60,-0.567232,-0.698132,-0.174533,-0.174533,-0.569751,-0.695505,-0.166786,-0.199929,0.503827,-0.147077,-0.232391,0.761885
28,60,-0.567232,-0.698132,-0.174533,-0.174533,-0.569751,-0.695505,-0.166786,-0.199929,0.503827,-0.147077,-0.232391,0.761885
28,60,-0.567232,-0.698132,-0.174533,-0.174533,-0.569751,-0.695505,-0.166853,-0.199971,0.503827,-0.147077,-0.230367,0.763169
28,60,-0.567232,-0.698132,-0.174533,-0.174533,-0.569751,-0.695505,-0.166853,-0.199971,0.503827,-0.147077,-0.230367,0.763169
28,60,-0.567232,-0.698132,-0.174533,-0.174533,-0.569751,-0.695505,-0.166853,-0.199971,0.503827,-0.147077,-0.230367,0.763169
28,60,-0.567232,-0.698132,-0.174533,-0.174533,-0.569751,-0.695505,-0.166853,-0.199971,0.503827,-0.147077,-0.230367,0.763169
28,60,-0.567232,-0.698132,-0.174533,-0.174533,-0.569751,-0.695505,-0.166853,-0.199971,0.503827,-0.147077,-0.230367,0.763169
28,60,-0.567232,-0.698132,-0.174533,-0.174533,-0.569751,-0.695505,-0.166853,-0.199971,0.503827,-0.147077,-0.230367,0.763169
28,60,-0.567232,-0.698132,-0.174533,-0.174533,-0.569751,-0.695505,-0.166853,-0.199971,0.503827,-0.147077,-0.230367,0.763169
28,60,-0.567232,-0.698132,-0.174533,-0.174533,-0.569751,-0.695505,-0.166853,-0.199971,0.503827,-0.147077,-0.230367,0.763169
28,60,-0.567232,-0.698132,-0.174533,-0.174533,-0.569751,-0.695505,-0.166853,-0.199971,0.503827,-0.147077,-0.230367,0.763169
28,60,-0.567232,-0.698132,-0.174533,-0.174533,-0.569751,-0.695505,-0.166853,-0.199971,0.503827,-0.147077,-0.230367,0.763169
28,60,-0.567232,-0.698132,-0.174533,-0.174533,-0.569751,-0.695505,-0.166853,-0.199971,0.503827,-0.147077,-0.230367,0.763169
28,60,-0.567232,-0.698132,-0.174533,-0.174533,-0.569751,-0.695505,-0.166853,-0.199971,0.503827,-0.147077,-0.230367,0.763169
28,60,-0.567232,-0.698132,-0.174533,-0.174533,-0.569751,-0.695505,-0.166853,-0.199971,0.503827,-0.147077,-0.230367,0.763169
28,60,-0.567232,-0.698132,-0.174533,-0.174533,-0.569751,-0.695505,-0.166853,-0.199971,0.503827,-0.147077,-0.230367,0.763169
28,60,-0.567232,-0.698132,-0.174533,-0.174533,-0.569751,-0.695505,-0.166853,-0.199971,0.503827,-0.147077,-0.230367,0.763169
28,60,-0.567232,-0.698132,-0.174533,-0.174533,-0.569751,-0.695505,-0.166853,-0.199971,0.503827,-0.147077,-0.230367,0.763169
28,60,-0.567232,-0.698132,-0.174533,-0.174533,-0.569751,-0.695505,-0.166853,-0.199971,0.503827,-0.147077,-0.230367,0.763169
28,60,-0.567232,-0.698132,-0.174533,-0.174533,-0.569751,-0.695505,-0.166853,-0.199971,0.503827,-0.147077,-0.230367,0.763169
28,60,-0.567232,-0.698132,-0.174533,-0.174533,-0.569751,-0.695505,-0.166853,-0.199971,0.503827,-0.147077,-0.230367,0.763169
28,60,-0.567232,-0.698132,-0.174533,-0.174533,-0.569751,-0.695505,-0.166853,-0.199971,0.503827,-0.147077,-0.230367,0.763169
28,60,-0.567232,-0.698132,-0.174533,-0.174533,-0.569751,-0.695505,-0.166853,-0.199971,0.503827,-0.147077,-0.230367,0.763169
28,60,-0.567232,-0.698132,-0.174533,-0.174533,-0.569751,-0.695505,-0.166853,-0.199971,0.503827,-0.147077,-0.230367,0.763169
28,60,-0.567232,-0.698132,-0.174533,-0.174533,-0.569751,-0.695505,-0.166853,-0.199971,0.503827,-0.147077,-0.230367,0.763169
28,60,-0.567232,-0.698132,-0.174533,-0.174533,-0.569751,-0.695505,-0.166853,-0.199971,0.503827,-0.147077,-0.230367,0.763169
28,60,-0.567232,-0.698132,-0.174533,-0.174533,-0.569751,-0.695505,-0.166853,-0.199971,0.503827,-0.147077,-0.230367,0.763169
28,60,-0.567232,-0.698132,-0.174533,-0.174533,-0.569751,-0.695505,-0.166853,-0.199971,0.503827,-0.147077,-0.230367,0.763169
28,60,-0.567232,-0.698132,-0.174533,-0.174533,-0.569751,-0.695505,-0.166853,-0.199971,0.503827,-0.147077,-0.230367,0.763169
28,60,-0.567232,-0.698132,-0.174533,-0.174533,-0.569751,-0.695505,-0.166853,-0.199971,0.503827,-0.147077,-0.230367,0.763169
28,60,-0.567232,-0.698132,-0.174533,-0.174533,-0.569751,-0.695505,-0.166853,-0.199971,0.503827,-0.147077,-0.230367,0.763169
28,60,-0.567232,-0.698132,-0.174533,-0.174533,-0.569751,-0.695505,-0.166853,-0.199971,0.503827,-0.147077,-0.230367,0.763169
28,60,-0.567232,-0.698132,-0.174533,-0.174533,-0.569751,-0.695505,-0.166853,-0.199971,0.503827,-0.147077,-0.230367,0.763169
28,60,-0.567232,-0.698132,-0.174533,-0.174533,-0.569751,-0.695505,-0.166853,-0.199971,0.503827,-0.147077,-0.230367,0.763169
28,60,-0.567232,-0.698132,-0.174533,-0.174533,-0.569751,-0.695505,-0.166853,-0.199971,0.503827,-0.147077,-0.230367,0.763169
28,60,-0.567232,-0.698132,-0.174533,-0.174533,-0.569751,-0.695505,-0.166853,-0.199971,0.503827,-0.147077,-0.230367,0.763169
28,60,-0.567232,-0.698132,-0.174533,-0.174533,-0.569751,-0.695505,-0.166853,-0.199971,0.503827,-0.147077,-0.230367,0.763169
28,60,-0.567232,-0.698132,-0.174533,-0.174533,-0.569751,-0.695505,-0.166853,-0.199971,0.503827,-0.147077,-0.230367,0.763169
28,60,-0.567232,-0.698132,-0.174533,-0.174533,-0.569751,-0.695505,-0.166853,-0.199971,0.503827,-0.147077,-0.230367,0.763169
28,60,-0.567232,-0.698132,-0.174533,-0.174533,-0.569751,-0.695505,-0.166853,-0.199971,0.503827,-0.147077,-0.230367,0.763169
28,60,-0.567232,-0.698132,-0.174533,-0.174533,-0.569751,-0.695505,-0.166853,-0.199971,0.503827,-0.147077,-0.230367,0.763169
28,60,-0.567232,-0.698132,-0.174533,-0.174533,-0.569751,-0.695505,-0.166853,-0.199971,0.503827,-0.147077,-0.230367,0.763169
28,60,-0.567232,-0.698132,-0.174533,-0.174533,-0.569751,-0.695505,-0.166853,-0.199971,0.503827,-0.147077,-0.230367,0.763169
28,60,-0.567232,-0.698132,-0.174533,-0.174533,-0.569751,-0.695505,-0.166853,-0.199971,0.503827,-0.147077,-0.230367,0.763169
28,60,-0.567232,-0.698132,-0.174533,-0.174533,-0.569751,-0.695505,-0.166853,-0.199971,0.503827,-0.147077,-0.230367,0.763169
28,60,-0.567232,-0.698132,-0.174533,-0.174533,-0.569751,-0.695505,-0.166853,-0.199971,0.503827,-0.147077,-0.230367,0.763169
28,60,-0.567232,-0.698132,-0.174533,-0.174533,-0.569751,-0.695505,-0.166853,-0.199971,0.503827,-0.147077,-0.230367,0.763169
28,60,-0.567232,-0.698132,-0.174533,-0.174533,-0.569751,-0.695505,-0.166853,-0.199971,0.503827,-0.147077,-0.230367,0.763169
28,60,-0.567232,-0.698132,-0.174533,-0.174533,-0.569751,-0.695505,-0.166853,-0.199971,0.503827,-0.147077,-0.230367,0.763169
28,60,-0.567232,-0.698132,-0.174533,-0.174533,-0.569751,-0.695505,-0.166853,-0.199971,0.503827,-0.147077,-0.230367,0.763169
28,60,-0.567232,-0.698132,-0.174533,-0.174533,-0.569751,-0.695505,-0.166853,-0.199971,0.503827,-0.147077,-0.230367,0.763169
28,60,-0.567232,-0.698132,-0.174533,-0.174533,-0.569751,-0.695505,-0.166853,-0.199971,0.503827,-0.147077,-0.230367,0.763169
28,60,-0.567232,-0.698132,-0.174533,-0.174533,-0.569751,-0.695505,-0.166853,-0.199971,0.503827,-0.147077,-0.230367,0.763169
28,60,-0.567232,-0.698132,-0.174533,-0.174533,-0.569751,-0.695505,-0.166853,-0.199971,0.503827,-0.147077,-0.230367,0.763169
28,60,-0.567232,-0.698132,-0.174533,-0.174533,-0.569751,-0.695505,-0.166853,-0.199971,0.503827,-0.147077,-0.230367,0.763169
28,60,-0.567232,-0.698132,-0.174533,-0.174533,-0.569751,-0.695505,-0.166853,-0.199971,0.503827,-0.147077,-0.230367,0.763169
28,60,-0.567232,-0.698132,-0.174533,-0.174533,-0.569751,-0.695505,-0.166853,-0.199971,0.503827,-0.147077,-0.230367,0.763169
28,60,-0.567232,-0.698132,-0.174533,-0.174533,-0.569751,-0.695505,-0.166853,-0.199971,0.503827,-0.147077,-0.230367,0.763169
28,60,-0.567232,-0.698132,-0.174533,-0.174533,-0.569751,-0.695505,-0.166853,-0.199971,0.503827,-0.147077,-0.230367,0.763169
28,60,-0.567232,-0.698132,-0.174533,-0.174533,-0.569751,-0.695505,-0.166853,-0.199971,0.503827,-0.147077,-0.230367,0.763169
28,60,-0.567232,-0.698132,-0.174533,-0.174533,-0.569751,-0.695505,-0.166853,-0.199971,0.503827,-0.147077,-0.230367,0.763169
28,60,-0.567232,-0.698132,-0.174533,-0.174533,-0.569751,-0.695505,-0.166853,-0.199971,0.503827,-0.147077,-0.230367,0.763169
28,60,-0.567232,-0.698132,-0.174533,-0.174533,-0.569751,-0.695505,-0.166853,-0.199971,0.503827,-0.147077,-0.230367,0.763169
28,60,-0.567232,-0.698132,-0.174533,-0.174533,-0.569751,-0.695505,-0.166853,-0.199971,0.503827,-0.147077,-0.230367,0.763169
28,60,-0.567232,-0.698132,-0.174533,-0.174533,-0.569751,-0.695505,-0.166853,-0.199971,0.503827,-0.147077,-0.230367,0.763169
28,60,-0.567232,-0.698132,-0.174533,-0.174533,-0.569751,-0.695505,-0.166853,-0.199971,0.503827,-0.147077,-0.230367,0.763169
28,60,-0.567232,-0.698132,-0.174533,-0.174533,-0.569751,-0.695505,-0.166853,-0.199971,0.503827,-0.147077,-0.230367,0.763169
28,60,-0.567232,-0.698132,-0.174533,-0.174533,-0.569751,-0.695505,-0.166853,-0.199971,0.503827,-0.147077,-0.230367,0.763169
28,60,-0.567232,-0.698132,-0.174533,-0.174533,-0.569751,-0.695505,-0.166853,-0.199971,0.503827,-0.147077,-0.230367,0.763169
28,60,-0.567232,-0.698132,-0.174533,-0.174533,-0.569751,-0.695505,-0.166853,-0.199971,0.503827,-0.147077,-0.230367,0.763169
28,60,-0.567232,-0.698132,-0.174533,-0.174533,-0.569751,-0.695505,-0.166853,-0.199971,0.503827,-0.147077,-0.230367,0.763169
28,60,-0.567232,-0.698132,-0.174533,-0.174533,-0.569751,-0.695505,-0.166853,-0.199971,0.503827,-0.147077,-0.230367,0.763169
28,60,-0.567232,-0.698132,-0.174533,-0.174533,-0.569751,-0.695505,-0.166853,-0.199971,0.503827,-0.147077,-0.230367,0.763169
28,60,-0.567232,-0.698132,-0.174533,-0.174533,-0.569751,-0.695505,-0.166853,-0.199971,0.503827,-0.147077,-0.230367,0.763169
28,60,-0.567232,-0.698132,-0.174533,-0.174533,-0.569751,-0.695505,-0.166853,-0.199971,0.503827,-0.147077,-0.230367,0.763169
28,60,-0.567232,-0.698132,-0.174533,-0.174533,-0.569751,-0.695505,-0.166853,-0.199971,0.503827,-0.147077,-0.230367,0.763169
28,60,-0.567232,-0.698132,-0.174533,-0.174533,-0.569751,-0.695505,-0.166853,-0.199971,0.503827,-0.147077,-0.230367,0.763169
28,60,-0.567232,-0.698132,-0.174533,-0.174533,-0.569751,-0.695505,-0.166853,-0.199971,0.503827,-0.147077,-0.230367,0.763169
28,60,-0.567232,-0.698132,-0.174533,-0.174533,-0.569751,-0.695505,-0.166853,-0.199971,0.503827,-0.147077,-0.230367,0.763169
28,60,-0.567232,-0.698132,-0.174533,-0.174533,-0.569751,-0.695505,-0.166853,-0.199971,0.503827,-0.147077,-0.230367,0.763169
28,60,-0.567232,-0.698132,-0.174533,-0.174533,-0.569751,-0.695505,-0.166853,-0.199971,0.503827,-0.147077,-0.230367,0.763169
28,60,-0.567232,-0.698132,-0.174533,-0.174533,-0.569751,-0.695505,-0.166853,-0.199971,0.503827,-0.147077,-0.230367,0.763169
28,60,-0.567232,-0.698132,-0.174533,-0.174533,-0.569751,-0.695505,-0.166853,-0.199971,0.503827,-0.147077,-0.230367,0.763169
28,60,-0.567232,-0.698132,-0.174533,-0.174533,-0.569751,-0.695505,-0.166853,-0.199971,0.503827,-0.147077,-0.230367,0.763169
28,60,-0.567232,-0.698132,-0.174533,-0.174533,-0.569751,-0.695556,-0.166853,-0.199971,0.503827,-0.144197,-0.230367,0.763169
28,60,-0.567232,-0.698132,-0.174533,-0.174533,-0.569751,-0.695556,-0.166853,-0.199971,0.503827,-0.144197,-0.230367,0.763169
28,60,-0.567232,-0.698132,-0.174533,-0.174533,-0.569751,-0.695556,-0.166853,-0.199971,0.503827,-0.144197,-0.230367,0.763169
28,60,-0.567232,-0.698132,-0.174533,-0.174533,-0.569751,-0.695556,-0.166853,-0.199971,0.503827,-0.144197,-0.230367,0.763169
28,60,-0.567232,-0.698132,-0.174533,-0.174533,-0.569751,-0.695556,-0.166853,-0.199971,0.503827,-0.144197,-0.230367,0.763169
28,60,-0.567232,-0.698132,-0.174533,-0.174533,-0.569751,-0.695556,-0.166853,-0.199971,0.503827,-0.144197,-0.230367,0.763169
28,60,-0.567232,-0.698132,-0.174533,-0.174533,-0.569751,-0.695556,-0.166853,-0.199971,0.503827,-0.144197,-0.230367,0.763169
28,60,-0.567232,-0.698132,-0.174533,-0.174533,-0.569751,-0.695556,-0.166853,-0.199971,0.503827,-0.144197,-0.230367,0.763169
28,60,-0.567232,-0.698132,-0.174533,-0.174533,-0.569751,-0.695556,-0.166853,-0.199971,0.503827,-0.144197,-0.230367,0.763169
28,60,-0.567232,-0.698132,-0.174533,-0.174533,-0.569751,-0.695556,-0.166853,-0.199971,0.503827,-0.144197,-0.230367,0.763169
28,60,-0.567232,-0.698132,-0.174533,-0.174533,-0.569751,-0.695556,-0.166853,-0.199971,0.503827,-0.144197,-0.230367,0.763169
28,60,-0.567232,-0.698132,-0.174533,-0.174533,-0.569751,-0.695556,-0.166853,-0.199971,0.503827,-0.144197,-0.230367,0.763169
28,60,-0.567232,-0.698132,-0.174533,-0.174533,-0.569751,-0.695556,-0.166853,-0.199971,0.503827,-0.144197,-0.230367,0.763169
28,60,-0.567232,-0.698132,-0.174533,-0.174533,-0.569751,-0.695556,-0.166853,-0.199971,0.503827,-0.144197,-0.230367,0.763169
28,60,-0.567232,-0.698132,-0.174533,-0.174533,-0.569751,-0.695556,-0.166853,-0.199971,0.503827,-0.144197,-0.230367,0.763169
28,60,-0.567232,-0.698132,-0.174533,-0.174533,-0.569751,-0.695556,-0.166853,-0.199971,0.503827,-0.144197,-0.230367,0.763169
28,60,-0.567232,-0.698132,-0.174533,-0.174533,-0.569751,-0.695556,-0.166853,-0.199971,0.503827,-0.144197,-0.230367,0.763169
28,60,-0.567232,-0.698132,-0.174533,-0.174533,-0.569751,-0.695556,-0.166853,-0.199971,0.503827,-0.144197,-0.230367,0.763169
28,60,-0.567232,-0.698132,-0.174533,-0.174533,-0.569751,-0.695556,-0.166853,-0.199971,0.503827,-0.144197,-0.230367,0.763169
28,60,-0.567232,-0.698132,-0.174533,-0.174533,-0.569751,-0.695556,-0.166853,-0.199971,0.503827,-0.144197,-0.230367,0.763169
28,60,-0.567232,-0.698132,-0.174533,-0.174533,-0.569751,-0.695556,-0.166853,-0.199971,0.503827,-0.144197,-0.230367,0.763169
28,60,-0.567232,-0.698132,-0.174533,-0.174533,-0.569751,-0.695556,-0.166853,-0.199971,0.503827,-0.144197,-0.230367,0.763169
28,60,-0.567232,-0.698132,-0.174533,-0.174533,-0.569751,-0.695556,-0.166853,-0.199971,0.503827,-0.144197,-0.230367,0.763169
28,60,-0.567232,-0.698132,-0.174533,-0.174533,-0.569751,-0.695556,-0.166853,-0.199971,0.503827,-0.144197,-0.230367,0.763169
28,60,-0.567232,-0.698132,-0.174533,-0.174533,-0.569751,-0.695556,-0.166853,-0.199971,0.503827,-0.144197,-0.230367,0.763169
28,60,-0.567232,-0.698132,-0.174533,-0.174533,-0.569751,-0.695556,-0.166853,-0.199971,0.503827,-0.144197,-0.230367,0.763169
28,60,-0.567232,-0.698132,-0.174533,-0.174533,-0.569751,-0.695556,-0.166853,-0.199971,0.503827,-0.144197,-0.230367,0.763169
28,60,-0.567232,-0.698132,-0.174533,-0.174533,-0.569751,-0.695556,-0.166853,-0.199971,0.503827,-0.144197,-0.230367,0.763169
28,60,-0.567232,-0.698132,-0.174533,-0.174533,-0.569751,-0.695556,-0.166853,-0.199971,0.503827,-0.144197,-0.230367,0.763169
28,60,-0.567232,-0.698132,-0.174533,-0.174533,-0.569751,-0.695556,-0.166853,-0.199971,0.503827,-0.144197,-0.230367,0.763169
28,60,-0.567232,-0.698132,-0.174533,-0.174533,-0.569751,-0.695556,-0.166853,-0.199971,0.503827,-0.144197,-0.230367,0.763169
28,60,-0.567232,-0.698132,-0.174533,-0.174533,-0.569751,-0.695556,-0.166853,-0.199971,0.503827,-0.144197,-0.230367,0.763169
28,60,-0.567232,-0.698132,-0.174533,-0.174533,-0.569751,-0.695556,-0.166853,-0.199971,0.503827,-0.144197,-0.230367,0.763169
28,60,-0.567232,-0.698132,-0.174533,-0.174533,-0.569751,-0.695556,-0.166853,-0.199971,0.503827,-0.144197,-0.230367,0.763169
28,60,-0.567232,-0.698132,-0.174533,-0.174533,-0.569751,-0.695556,-0.166853,-0.199971,0.503827,-0.144197,-0.230367,0.763169
28,60,-0.567232,-0.698132,-0.174533,-0.174533,-0.569751,-0.695556,-0.166853,-0.199971,0.503827,-0.144197,-0.230367,0.763169
28,60,-0.567232,-0.698132,-0.174533,-0.174533,-0.569751,-0.695556,-0.166853,-0.199971,0.503827,-0.144197,-0.230367,0.763169
28,60,-0.567232,-0.698132,-0.174533,-0.174533,-0.569751,-0.695556,-0.166853,-0.199971,0.503827,-0.144197,-0.230367,0.763169
28,60,-0.567232,-0.698132,-0.174533,-0.174533,-0.569751,-0.695556,-0.166853,-0.199971,0.503827,-0.144197,-0.230367,0.763169
28,60,-0.567232,-0.698132,-0.174533,-0.174533,-0.569751,-0.695556,-0.166853,-0.199971,0.503827,-0.144197,-0.230367,0.763169
28,60,-0.567232,-0.698132,-0.174533,-0.174533,-0.569751,-0.695556,-0.166853,-0.199971,0.503827,-0.144197,-0.230367,0.763169
28,60,-0.567232,-0.698132,-0.174533,-0.174533,-0.569751,-0.695556,-0.166853,-0.199971,0.503827,-0.144197,-0.230367,0.763169
28,60,-0.567232,-0.698132,-0.174533,-0.174533,-0.569751,-0.695556,-0.166853,-0.199971,0.503827,-0.144197,-0.230367,0.763169
28,60,-0.567232,-0.698132,-0.174533,-0.174533,-0.569751,-0.695556,-0.166853,-0.199971,0.503827,-0.144197,-0.230367,0.763169
28,60,-0.567232,-0.698132,-0.174533,-0.174533,-0.569751,-0.695556,-0.166853,-0.199971,0.503827,-0.144197,-0.230367,0.763169
28,60,-0.567232,-0.698132,-0.174533,-0.174533,-0.569751,-0.695556,-0.166853,-0.199971,0.503827,-0.144197,-0.230367,0.763169
28,60,-0.567232,-0.698132,-0.174533,-0.174533,-0.569751,-0.695556,-0.166853,-0.199971,0.503827,-0.144197,-0.230367,0.763169
28,60,-0.567232,-0.698132,-0.174533,-0.174533,-0.569751,-0.695556,-0.166853,-0.199971,0.503827,-0.144197,-0.230367,0.763169
28,60,-0.567232,-0.698132,-0.174533,-0.174533,-0.569751,-0.695556,-0.166853,-0.199971,0.503827,-0.144197,-0.230367,0.763169
28,60,-0.567232,-0.698132,-0.174533,-0.174533,-0.569751,-0.695556,-0.166853,-0.199971,0.503827,-0.144197,-0.230367,0.763169
28,60,-0.567232,-0.698132,-0.174533,-0.174533,-0.569751,-0.695556,-0.166853,-0.199971,0.503827,-0.144197,-0.230367,0.763169
28,60,-0.567232,-0.698132,-0.174533,-0.174533,-0.569751,-0.695556,-0.166853,-0.199971,0.503827,-0.144197,-0.230367,0.763169
28,60,-0.567232,-0.698132,-0.174533,-0.174533,-0.569751,-0.695556,-0.166853,-0.199971,0.503827,-0.144197,-0.230367,0.763169
28,60,-0.567232,-0.698132,-0.174533,-0.174533,-0.569751,-0.695556,-0.166853,-0.199971,0.503827,-0.144197,-0.230367,0.763169
28,60,-0.567232,-0.698132,-0.174533,-0.174533,-0.569751,-0.695556,-0.166853,-0.199971,0.503827,-0.144197,-0.230367,0.763169
28,60,-0.567232,-0.698132,-0.174533,-0.174533,-0.569751,-0.695556,-0.166853,-0.199971,0.503827,-0.144197,-0.230367,0.763169
28,60,-0.567232,-0.698132,-0.174533,-0.174533,-0.569751,-0.695556,-0.166853,-0.199971,0.503827,-0.144197,-0.230367,0.763169
28,60,-0.567232,-0.698132,-0.174533,-0.174533,-0.569751,-0.695556,-0.166853,-0.199971,0.503827,-0.144197,-0.230367,0.763169
28,60,-0.567232,-0.698132,-0.174533,-0.174533,-0.569751,-0.695556,-0.166853,-0.199971,0.503827,-0.144197,-0.230367,0.763169
28,60,-0.567232,-0.698132,-0.174533,-0.174533,-0.569751,-0.695556,-0.166853,-0.199971,0.503827,-0.144197,-0.230367,0.763169
28,60,-0.567232,-0.698132,-0.174533,-0.174533,-0.569751,-0.695556,-0.166853,-0.199971,0.503827,-0.144197,-0.230367,0.763169
28,60,-0.567232,-0.698132,-0.174533,-0.174533,-0.569751,-0.695556,-0.166853,-0.199971,0.503827,-0.144197,-0.230367,0.763169
28,60,-0.567232,-0.698132,-0.174533,-0.174533,-0.569751,-0.695556,-0.166853,-0.199971,0.503827,-0.144197,-0.230367,0.763169
28,60,-0.567232,-0.698132,-0.174533,-0.174533,-0.569751,-0.695556,-0.166853,-0.199971,0.503827,-0.144197,-0.230367,0.763169
28,60,-0.567232,-0.698132,-0.174533,-0.174533,-0.569751,-0.695556,-0.166853,-0.199971,0.503827,-0.144197,-0.230367,0.763169
28,60,-0.567232,-0.698132,-0.174533,-0.174533,-0.569751,-0.695556,-0.166853,-0.199971,0.503827,-0.144197,-0.230367,0.763169
28,60,-0.567232,-0.698132,-0.174533,-0.174533,-0.569751,-0.695556,-0.166853,-0.199971,0.503827,-0.144197,-0.230367,0.763169
28,60,-0.567232,-0.698132,-0.174533,-0.174533,-0.569751,-0.695556,-0.166853,-0.199971,0.503827,-0.144197,-0.230367,0.763169
28,60,-0.567232,-0.698132,-0.174533,-0.174533,-0.569751,-0.695556,-0.166853,-0.199971,0.503827,-0.144197,-0.230367,0.763169
28,60,-0.567232,-0.698132,-0.174533,-0.174533,-0.569751,-0.695556,-0.166853,-0.199971,0.503827,-0.144197,-0.230367,0.763169
28,60,-0.567232,-0.698132,-0.174533,-0.174533,-0.569751,-0.695556,-0.166853,-0.199971,0.503827,-0.144197,-0.230367,0.763169
28,60,-0.567232,-0.698132,-0.174533,-0.174533,-0.569751,-0.695556,-0.166853,-0.199971,0.503827,-0.144197,-0.230367,0.763169
28,60,-0.567232,-0.698132,-0.174533,-0.174533,-0.569751,-0.695556,-0.166853,-0.199971,0.503827,-0.144197,-0.230367,0.763169
28,60,-0.567232,-0.698132,-0.174533,-0.174533,-0.569751,-0.695556,-0.166853,-0.199971,0.503827,-0.144197,-0.230367,0.763169
28,60,-0.567232,-0.698132,-0.174533,-0.174533,-0.569751,-0.695556,-0.166853,-0.199971,0.503827,-0.144197,-0.230367,0.763169
28,60,-0.567232,-0.698132,-0.174533,-0.174533,-0.569751,-0.695556,-0.166853,-0.199971,0.503827,-0.144197,-0.230367,0.763169
28,60,-0.567232,-0.698132,-0.174533,-0.174533,-0.569751,-0.695556,-0.166853,-0.199971,0.503827,-0.144197,-0.230367,0.763169
28,60,-0.567232,-0.698132,-0.174533,-0.174533,-0.569751,-0.695556,-0.166853,-0.199971,0.503827,-0.144197,-0.230367,0.763169
28,60,-0.567232,-0.698132,-0.174533,-0.174533,-0.569751,-0.695556,-0.166853,-0.199971,0.503827,-0.144197,-0.230367,0.763169
28,60,-0.567232,-0.698132,-0.174533,-0.174533,-0.569751,-0.695556,-0.166853,-0.199971,0.503827,-0.144197,-0.230367,0.763169
28,60,-0.567232,-0.698132,-0.174533,-0.174533,-0.569751,-0.695556,-0.166853,-0.199971,0.503827,-0.144197,-0.230367,0.763169
28,60,-0.567232,-0.698132,-0.174533,-0.174533,-0.569751,-0.695556,-0.166853,-0.199971,0.503827,-0.144197,-0.230367,0.763169
28,60,-0.567232,-0.698132,-0.174533,-0.174533,-0.569751,-0.695556,-0.166853,-0.199971,0.503827,-0.144197,-0.230367,0.763169
28,60,-0.567232,-0.698132,-0.174533,-0.174533,-0.569751,-0.695556,-0.166853,-0.199971,0.503827,-0.144197,-0.230367,0.763169
28,60,-0.567232,-0.698132,-0.174533,-0.174533,-0.569751,-0.695556,-0.166853,-0.199971,0.503827,-0.144197,-0.230367,0.763169
28,60,-0.567232,-0.698132,-0.174533,-0.174533,-0.569751,-0.695556,-0.166853,-0.199971,0.503827,-0.144197,-0.230367,0.763169
28,60,-0.567232,-0.698132,-0.174533,-0.174533,-0.569751,-0.695556,-0.166853,-0.199971,0.503827,-0.144197,-0.230367,0.763169
28,60,-0.567232,-0.698132,-0.174533,-0.174533,-0.569751,-0.695556,-0.166853,-0.199971,0.503827,-0.144197,-0.230367,0.763169
28,60,-0.567232,-0.698132,-0.174533,-0.174533,-0.569751,-0.695556,-0.166853,-0.199971,0.503827,-0.144197,-0.230367,0.763169
28,60,-0.567232,-0.698132,-0.174533,-0.174533,-0.569751,-0.695556,-0.166853,-0.199971,0.503827,-0.144197,-0.230367,0.763169
28,60,-0.567232,-0.698132,-0.174533,-0.174533,-0.569751,-0.695556,-0.166853,-0.199971,0.503827,-0.144197,-0.230367,0.763169
28,60,-0.567232,-0.698132,-0.174533,-0.174533,-0.569751,-0.695556,-0.166853,-0.199971,0.503827,-0.144197,-0.230367,0.763169
28,60,-0.567232,-0.698132,-0.174533,-0.174533,-0.569751,-0.695556,-0.166853,-0.199971,0.503827,-0.144197,-0.230367,0.763169
28,60,-0.567232,-0.698132,-0.174533,-0.174533,-0.569751,-0.695556,-0.166853,-0.199971,0.503827,-0.144197,-0.230367,0.763169
28,60,-0.567232,-0.698132,-0.174533,-0.174533,-0.569751,-0.695556,-0.166853,-0.199971,0.503827,-0.144197,-0.230367,0.763169
28,60,-0.567232,-0.698132,-0.174533,-0.174533,-0.569751,-0.695556,-0.166853,-0.199971,0.503827,-0.144197,-0.230367,0.763169
28,60,-0.567232,-0.698132,-0.174533,-0.174533,-0.569751,-0.695556,-0.166853,-0.199971,0.503827,-0.144197,-0.230367,0.763169
28,60,-0.567232,-0.698132,-0.174533,-0.174533,-0.569751,-0.695556,-0.166853,-0.199971,0.503827,-0.144197,-0.230367,0.763169
28,60,-0.567232,-0.698132,-0.174533,-0.174533,-0.569751,-0.695556,-0.166853,-0.199971,0.503827,-0.144197,-0.230367,0.763169
28,60,-0.567232,-0.698132,-0.174533,-0.174533,-0.569751,-0.695556,-0.166853,-0.199971,0.503827,-0.144197,-0.230367,0.763169
28,60,-0.567232,-0.698132,-0.174533,-0.174533,-0.569751,-0.695556,-0.166853,-0.199971,0.503827,-0.144197,-0.230367,0.763169
28,60,-0.567232,-0.698132,-0.174533,-0.174533,-0.569751,-0.695556,-0.166853,-0.199971,0.503827,-0.144197,-0.230367,0.763169
28,60,-0.567232,-0.698132,-0.174533,-0.174533,-0.569751,-0.695556,-0.166853,-0.199971,0.503827,-0.144197,-0.230367,0.763169
28,60,-0.567232,-0.698132,-0.174533,-0.174533,-0.569751,-0.695556,-0.166853,-0.199971,0.503827,-0.144197,-0.230367,0.763169
28,60,-0.567232,-0.698132,-0.174533,-0.174533,-0.569751,-0.695556,-0.166853,-0.199971,0.503827,-0.144197,-0.230367,0.763169
28,60,-0.567232,-0.698132,-0.174533,-0.174533,-0.569751,-0.695556,-0.166853,-0.199971,0.503827,-0.144197,-0.230367,0.763169
28,60,-0.567232,-0.698132,-0.174533,-0.174533,-0.569751,-0.695556,-0.166853,-0.199971,0.503827,-0.144197,-0.230367,0.763169
28,60,-0.567232,-0.698132,-0.174533,-0.174533,-0.569751,-0.695556,-0.166853,-0.199971,0.503827,-0.144197,-0.230367,0.763169
28,60,-0.567232,-0.698132,-0.174533,-0.174533,-0.569751,-0.695556,-0.166853,-0.199971,0.503827,-0.144197,-0.230367,0.763169
28,60,-0.567232,-0.698132,-0.174533,-0.174533,-0.569751,-0.695556,-0.166853,-0.199971,0.503827,-0.144197,-0.230367,0.763169
28,60,-0.567232,-0.698132,-0.174533,-0.174533,-0.569751,-0.695556,-0.166853,-0.199971,0.503827,-0.144197,-0.230367,0.763169
28,60,-0.567232,-0.698132,-0.174533,-0.174533,-0.569751,-0.695556,-0.166853,-0.199971,0.503827,-0.144197,-0.230367,0.763169
28,60,-0.567232,-0.698132,-0.174533,-0.174533,-0.569751,-0.695556,-0.166853,-0.199971,0.503827,-0.144197,-0.230367,0.763169
28,60,-0.567232,-0.698132,-0.174533,-0.174533,-0.569751,-0.695556,-0.166853,-0.199971,0.503827,-0.144197,-0.230367,0.763169
28,60,-0.567232,-0.698132,-0.174533,-0.174533,-0.569751,-0.695556,-0.166853,-0.199971,0.503827,-0.144197,-0.230367,0.763169
28,60,-0.567232,-0.698132,-0.174533,-0.174533,-0.569751,-0.695556,-0.166853,-0.199971,0.503827,-0.144197,-0.230367,0.763169
28,60,-0.567232,-0.698132,-0.174533,-0.174533,-0.569751,-0.695556,-0.166853,-0.199971,0.503827,-0.144197,-0.230367,0.763169
28,60,-0.567232,-0.698132,-0.174533,-0.174533,-0.569751,-0.695556,-0.166853,-0.199971,0.503827,-0.144197,-0.230367,0.763169
28,60,-0.567232,-0.698132,-0.174533,-0.174533,-0.569751,-0.695556,-0.166853,-0.199971,0.503827,-0.144197,-0.230367,0.763169
28,60,-0.567232,-0.698132,-0.174533,-0.174533,-0.569751,-0.695556,-0.166853,-0.199971,0.503827,-0.144197,-0.230367,0.763169
28,60,-0.567232,-0.698132,-0.174533,-0.174533,-0.569751,-0.695556,-0.166853,-0.199971,0.503827,-0.144197,-0.230367,0.763169
28,60,-0.567232,-0.698132,-0.174533,-0.174533,-0.569751,-0.695556,-0.166853,-0.199971,0.503827,-0.144197,-0.230367,0.763169
28,60,-0.567232,-0.698132,-0.174533,-0.174533,-0.569751,-0.695556,-0.166853,-0.199971,0.503827,-0.144197,-0.230367,0.763169
28,60,-0.567232,-0.698132,-0.174533,-0.174533,-0.569751,-0.695556,-0.166853,-0.199971,0.503827,-0.144197,-0.230367,0.763169
28,60,-0.567232,-0.698132,-0.174533,-0.174533,-0.569751,-0.695556,-0.166853,-0.199971,0.503827,-0.144197,-0.230367,0.763169
28,60,-0.567232,-0.698132,-0.174533,-0.174533,-0.569751,-0.695556,-0.166853,-0.199971,0.503827,-0.144197,-0.230367,0.763169
28,60,-0.567232,-0.698132,-0.174533,-0.174533,-0.569751,-0.695556,-0.166853,-0.199971,0.503827,-0.144197,-0.230367,0.763169
28,60,-0.567232,-0.698132,-0.174533,-0.174533,-0.569751,-0.695556,-0.166853,-0.199971,0.503827,-0.144197,-0.230367,0.763169
28,60,-0.567232,-0.698132,-0.174533,-0.174533,-0.569751,-0.695556,-0.166853,-0.199971,0.503827,-0.144197,-0.230399,0.763149
28,60,-0.567232,-0.698132,-0.174533,-0.174533,-0.569751,-0.695556,-0.166853,-0.199971,0.503827,-0.144197,-0.230399,0.763149
28,60,-0.567232,-0.698132,-0.174533,-0.174533,-0.569751,-0.695556,-0.166853,-0.199971,0.503827,-0.144197,-0.230399,0.763149
28,60,-0.567232,-0.698132,-0.174533,-0.174533,-0.569751,-0.695556,-0.166853,-0.199971,0.503827,-0.144197,-0.230399,0.763149
28,60,-0.567232,-0.698132,-0.174533,-0.174533,-0.569751,-0.695556,-0.166853,-0.199971,0.503827,-0.144197,-0.230399,0.763149
28,60,-0.567232,-0.698132,-0.174533,-0.174533,-0.569751,-0.695556,-0.166853,-0.199971,0.503827,-0.144197,-0.230399,0.763149
28,60,-0.567232,-0.698132,-0.174533,-0.174533,-0.569751,-0.695556,-0.166853,-0.199971,0.503827,-0.144197,-0.230399,0.763149
28,60,-0.567232,-0.698132,-0.174533,-0.174533,-0.569751,-0.695556,-0.166853,-0.199971,0.503827,-0.144197,-0.230399,0.763149
28,60,-0.567232,-0.698132,-0.174533,-0.174533,-0.569751,-0.695556,-0.166853,-0.199971,0.503827,-0.144197,-0.230399,0.763149
28,60,-0.567232,-0.698132,-0.174533,-0.174533,-0.569751,-0.695556,-0.166853,-0.199971,0.503827,-0.144197,-0.230399,0.763149
28,60,-0.567232,-0.698132,-0.174533,-0.174533,-0.569751,-0.695556,-0.166853,-0.199971,0.503827,-0.144197,-0.230399,0.763149
28,60,-0.567232,-0.698132,-0.174533,-0.174533,-0.569751,-0.695556,-0.166853,-0.199971,0.503827,-0.144197,-0.230399,0.763149
28,60,-0.567232,-0.698132,-0.174533,-0.174533,-0.569751,-0.695556,-0.166853,-0.199971,0.503827,-0.144197,-0.230399,0.763149
28,60,-0.567232,-0.698132,-0.174533,-0.174533,-0.569751,-0.695556,-0.166853,-0.199971,0.503827,-0.144197,-0.230399,0.763149
28,60,-0.567232,-0.698132,-0.174533,-0.174533,-0.569751,-0.695556,-0.166853,-0.199971,0.503827,-0.144197,-0.230399,0.763149
28,60,-0.567232,-0.698132,-0.174533,-0.174533,-0.569751,-0.695556,-0.166853,-0.199971,0.503827,-0.144197,-0.230399,0.763149
28,60,-0.567232,-0.698132,-0.174533,-0.174533,-0.569751,-0.695556,-0.166853,-0.199971,0.503827,-0.144197,-0.230399,0.763149
28,60,-0.567232,-0.698132,-0.174533,-0.174533,-0.569751,-0.695556,-0.166853,-0.199971,0.503827,-0.144197,-0.230399,0.763149
28,60,-0.567232,-0.698132,-0.174533,-0.174533,-0.569751,-0.695556,-0.166853,-0.199971,0.503827,-0.144197,-0.230399,0.763149
28,60,-0.567232,-0.698132,-0.174533,-0.174533,-0.569751,-0.695556,-0.166853,-0.199971,0.503827,-0.144197,-0.230399,0.763149
28,60,-0.567232,-0.698132,-0.174533,-0.174533,-0.569751,-0.695556,-0.166853,-0.199971,0.503827,-0.144197,-0.230399,0.763149
28,60,-0.567232,-0.698132,-0.174533,-0.174533,-0.569751,-0.695556,-0.166853,-0.199971,0.503827,-0.144197,-0.230399,0.763149
28,60,-0.567232,-0.698132,-0.174533,-0.174533,-0.569751,-0.695556,-0.166853,-0.199971,0.503827,-0.144197,-0.230399,0.763149
28,60,-0.567232,-0.698132,-0.174533,-0.174533,-0.569751,-0.695556,-0.166853,-0.199971,0.503827,-0.144197,-0.230399,0.763149
28,60,-0.567232,-0.698132,-0.174533,-0.174533,-0.569751,-0.695556,-0.166853,-0.199971,0.503827,-0.144197,-0.230399,0.763149
28,60,-0.567232,-0.698132,-0.174533,-0.174533,-0.569751,-0.695556,-0.166853,-0.199971,0.503827,-0.144197,-0.230399,0.763149
28,60,-0.567232,-0.698132,-0.174533,-0.174533,-0.569751,-0.695556,-0.166853,-0.199971,0.503827,-0.144197,-0.230399,0.763149
28,60,-0.567232,-0.698132,-0.174533,-0.174533,-0.569751,-0.695556,-0.166853,-0.199971,0.503827,-0.144197,-0.230399,0.763149
28,60,-0.567232,-0.698132,-0.174533,-0.174533,-0.569751,-0.695556,-0.166853,-0.199971,0.503827,-0.144197,-0.230399,0.763149
28,60,-0.567232,-0.698132,-0.174533,-0.174533,-0.569751,-0.695556,-0.166853,-0.199971,0.503827,-0.144197,-0.230399,0.763149
28,60,-0.567232,-0.698132,-0.174533,-0.174533,-0.569751,-0.695556,-0.166853,-0.199971,0.503827,-0.144197,-0.230399,0.763149
28,60,-0.567232,-0.698132,-0.174533,-0.174533,-0.569751,-0.695556,-0.166853,-0.199971,0.503827,-0.144197,-0.230399,0.763149
28,60,-0.567232,-0.698132,-0.174533,-0.174533,-0.569751,-0.695556,-0.166853,-0.199971,0.503827,-0.144197,-0.230399,0.763149
28,60,-0.567232,-0.698132,-0.174533,-0.174533,-0.569751,-0.695556,-0.166853,-0.199971,0.503827,-0.144197,-0.230399,0.763149
28,60,-0.567232,-0.698132,-0.174533,-0.174533,-0.569751,-0.695556,-0.166853,-0.199971,0.503827,-0.144197,-0.230399,0.763149
28,60,-0.567232,-0.698132,-0.174533,-0.174533,-0.569751,-0.695556,-0.166853,-0.199971,0.503827,-0.144197,-0.230399,0.763149
28,60,-0.567232,-0.698132,-0.174533,-0.174533,-0.569751,-0.695556,-0.166853,-0.199971,0.503827,-0.144197,-0.230399,0.763149
28,60,-0.567232,-0.698132,-0.174533,-0.174533,-0.569751,-0.695556,-0.166853,-0.199971,0.503827,-0.144197,-0.230399,0.763149
28,60,-0.567232,-0.698132,-0.174533,-0.174533,-0.569751,-0.695556,-0.166853,-0.199971,0.503827,-0.144197,-0.230399,0.763149
28,60,-0.567232,-0.698132,-0.174533,-0.174533,-0.569751,-0.695556,-0.166853,-0.199971,0.503827,-0.144197,-0.230399,0.763149
28,60,-0.567232,-0.698132,-0.174533,-0.174533,-0.569751,-0.695556,-0.166853,-0.199971,0.503827,-0.144197,-0.230399,0.763149
28,60,-0.567232,-0.698132,-0.174533,-0.174533,-0.569751,-0.695556,-0.166853,-0.199971,0.503827,-0.144197,-0.230399,0.763149
28,60,-0.567232,-0.698132,-0.174533,-0.174533,-0.569751,-0.695556,-0.166853,-0.199971,0.503827,-0.144197,-0.230399,0.763149
28,60,-0.567232,-0.698132,-0.174533,-0.174533,-0.569751,-0.695556,-0.166853,-0.199971,0.503827,-0.144197,-0.230399,0.763149
28,60,-0.567232,-0.698132,-0.174533,-0.174533,-0.569751,-0.695556,-0.166853,-0.199971,0.503827,-0.144197,-0.230399,0.763149
28,60,-0.567232,-0.698132,-0.174533,-0.174533,-0.569751,-0.695556,-0.166853,-0.199971,0.503827,-0.144197,-0.230399,0.763149
28,60,-0.567232,-0.698132,-0.174533,-0.174533,-0.569751,-0.695556,-0.166853,-0.199971,0.503827,-0.144197,-0.230399,0.763149
28,60,-0.567232,-0.698132,-0.174533,-0.174533,-0.569751,-0.695556,-0.166853,-0.199971,0.503827,-0.144197,-0.230399,0.763149
28,60,-0.567232,-0.698132,-0.174533,-0.174533,-0.569751,-0.695556,-0.166853,-0.199971,0.503827,-0.144197,-0.230399,0.763149
28,60,-0.567232,-0.698132,-0.174533,-0.174533,-0.569751,-0.695556,-0.166853,-0.199971,0.503827,-0.144197,-0.230399,0.763149
28,60,-0.567232,-0.698132,-0.174533,-0.174533,-0.569751,-0.695556,-0.166853,-0.199971,0.503827,-0.144197,-0.230399,0.763149
28,60,-0.567232,-0.698132,-0.174533,-0.174533,-0.569751,-0.695556,-0.166853,-0.199971,0.503827,-0.144197,-0.230399,0.763149
28,60,-0.567232,-0.698132,-0.174533,-0.174533,-0.569751,-0.695556,-0.166853,-0.199971,0.503827,-0.144197,-0.230399,0.763149
28,60,-0.567232,-0.698132,-0.174533,-0.174533,-0.569751,-0.695556,-0.166853,-0.199971,0.503827,-0.144197,-0.230399,0.763149
28,60,-0.567232,-0.698132,-0.174533,-0.174533,-0.569751,-0.695556,-0.166853,-0.199971,0.503827,-0.144197,-0.230399,0.763149
28,60,-0.567232,-0.698132,-0.174533,-0.174533,-0.569751,-0.695556,-0.166853,-0.199971,0.503827,-0.144197,-0.230399,0.763149
28,60,-0.567232,-0.698132,-0.174533,-0.174533,-0.569751,-0.695556,-0.166853,-0.199971,0.503827,-0.144197,-0.230399,0.763149
28,60,-0.567232,-0.698132,-0.174533,-0.174533,-0.569751,-0.695556,-0.166853,-0.199971,0.503827,-0.144197,-0.230399,0.763149
28,60,-0.567232,-0.698132,-0.174533,-0.174533,-0.569751,-0.695556,-0.166853,-0.199971,0.503827,-0.144197,-0.230399,0.763149
28,60,-0.567232,-0.698132,-0.174533,-0.174533,-0.569751,-0.695556,-0.166853,-0.199971,0.503827,-0.144197,-0.230399,0.763149
28,60,-0.567232,-0.698132,-0.174533,-0.174533,-0.569751,-0.695556,-0.166853,-0.199971,0.503827,-0.144197,-0.230399,0.763149
28,60,-0.567232,-0.698132,-0.174533,-0.174533,-0.569751,-0.695556,-0.166853,-0.199971,0.503827,-0.144197,-0.230399,0.763149
28,60,-0.567232,-0.698132,-0.174533,-0.174533,-0.569751,-0.695556,-0.166853,-0.199971,0.503827,-0.144197,-0.230399,0.763149
28,60,-0.567232,-0.698132,-0.174533,-0.174533,-0.569751,-0.695556,-0.166853,-0.199971,0.503827,-0.144197,-0.230399,0.763149
28,60,-0.567232,-0.698132,-0.174533,-0.174533,-0.569751,-0.695556,-0.166853,-0.199971,0.503827,-0.144197,-0.230399,0.763149
28,60,-0.567232,-0.698132,-0.174533,-0.174533,-0.569751,-0.695556,-0.166853,-0.199971,0.503827,-0.144197,-0.230399,0.763149
28,60,-0.567232,-0.698132,-0.174533,-0.174533,-0.569751,-0.695556,-0.166853,-0.199971,0.503827,-0.144197,-0.230399,0.763149
28,60,-0.567232,-0.698132,-0.174533,-0.174533,-0.569751,-0.695556,-0.166853,-0.199971,0.503827,-0.144197,-0.230399,0.763149
28,60,-0.567232,-0.698132,-0.174533,-0.174533,-0.569751,-0.695556,-0.166853,-0.199971,0.503827,-0.144197,-0.230399,0.763149
28,60,-0.567232,-0.698132,-0.174533,-0.174533,-0.569751,-0.695556,-0.166853,-0.199971,0.503827,-0.144197,-0.230399,0.763149
28,60,-0.567232,-0.698132,-0.174533,-0.174533,-0.569751,-0.695556,-0.166853,-0.199971,0.503827,-0.144197,-0.230399,0.763149
28,60,-0.567232,-0.698132,-0.174533,-0.174533,-0.569751,-0.695556,-0.166853,-0.199971,0.503827,-0.144197,-0.230399,0.763149
28,60,-0.567232,-0.698132,-0.174533,-0.174533,-0.569751,-0.695556,-0.166853,-0.199971,0.503827,-0.144197,-0.230399,0.763149
28,60,-0.567232,-0.698132,-0.174533,-0.174533,-0.569751,-0.695556,-0.166853,-0.199971,0.503827,-0.144197,-0.230399,0.763149
28,60,-0.567232,-0.698132,-0.174533,-0.174533,-0.569751,-0.695556,-0.166853,-0.199971,0.503827,-0.144197,-0.230399,0.763149
28,60,-0.567232,-0.698132,-0.174533,-0.174533,-0.569751,-0.695556,-0.166853,-0.199971,0.503827,-0.144197,-0.230399,0.763149
28,60,-0.567232,-0.698132,-0.174533,-0.174533,-0.569751,-0.695556,-0.166853,-0.199971,0.503827,-0.144197,-0.230399,0.763149
28,60,-0.567232,-0.698132,-0.174533,-0.174533,-0.569751,-0.695556,-0.166853,-0.199971,0.503827,-0.144197,-0.230399,0.763149
28,60,-0.567232,-0.698132,-0.174533,-0.174533,-0.569751,-0.695556,-0.166853,-0.199971,0.503827,-0.144197,-0.230399,0.763149
28,60,-0.567232,-0.698132,-0.174533,-0.174533,-0.569751,-0.695556,-0.166853,-0.199971,0.503827,-0.144197,-0.230399,0.763149
28,60,-0.567232,-0.698132,-0.174533,-0.174533,-0.569751,-0.695556,-0.166853,-0.199971,0.503827,-0.144197,-0.230399,0.763149
28,60,-0.567232,-0.698132,-0.174533,-0.174533,-0.569751,-0.695556,-0.166853,-0.199971,0.503827,-0.144197,-0.230399,0.763149
28,60,-0.567232,-0.698132,-0.174533,-0.174533,-0.569751,-0.695556,-0.166853,-0.199971,0.503827,-0.14423,-0.230399,0.763149
28,60,-0.567232,-0.698132,-0.174533,-0.174533,-0.569751,-0.695556,-0.166853,-0.199971,0.503827,-0.14423,-0.230399,0.763149
28,60,-0.567232,-0.698132,-0.174533,-0.174533,-0.569751,-0.695556,-0.166853,-0.199971,0.503827,-0.14423,-0.230399,0.763149
28,60,-0.567232,-0.698132,-0.174533,-0.174533,-0.569751,-0.695556,-0.166853,-0.199971,0.503827,-0.14423,-0.230399,0.763149
28,60,-0.567232,-0.698132,-0.174533,-0.174533,-0.569751,-0.695556,-0.166853,-0.199971,0.503827,-0.14423,-0.230399,0.763149
28,60,-0.567232,-0.698132,-0.174533,-0.174533,-0.569751,-0.695556,-0.166853,-0.199971,0.503827,-0.14423,-0.230399,0.763149
28,60,-0.567232,-0.698132,-0.174533,-0.174533,-0.569751,-0.695556,-0.166853,-0.199971,0.503827,-0.14423,-0.230399,0.763149
28,60,-0.567232,-0.698132,-0.174533,-0.174533,-0.569751,-0.695556,-0.166853,-0.199971,0.503827,-0.14423,-0.230399,0.763149
28,60,-0.567232,-0.698132,-0.174533,-0.174533,-0.569751,-0.695556,-0.166853,-0.199971,0.503827,-0.14423,-0.230399,0.763149
28,60,-0.567232,-0.698132,-0.174533,-0.174533,-0.569751,-0.695556,-0.166853,-0.199971,0.503827,-0.14423,-0.230399,0.763149
28,60,-0.567232,-0.698132,-0.174533,-0.174533,-0.569751,-0.695556,-0.166853,-0.199971,0.503827,-0.14423,-0.230399,0.763149
28,60,-0.567232,-0.698132,-0.174533,-0.174533,-0.569751,-0.695556,-0.166853,-0.199971,0.503827,-0.14423,-0.230399,0.763149
28,60,-0.567232,-0.698132,-0.174533,-0.174533,-0.569751,-0.695556,-0.166853,-0.199971,0.503827,-0.14423,-0.230399,0.763149
28,60,-0.567232,-0.698132,-0.174533,-0.174533,-0.569751,-0.695556,-0.166853,-0.199971,0.503827,-0.14423,-0.230399,0.763149
28,60,-0.567232,-0.698132,-0.174533,-0.174533,-0.569751,-0.695556,-0.166853,-0.199971,0.503827,-0.14423,-0.230399,0.763149
28,60,-0.567232,-0.698132,-0.174533,-0.174533,-0.569751,-0.695556,-0.166853,-0.199971,0.503827,-0.14423,-0.230399,0.763149
28,60,-0.567232,-0.698132,-0.174533,-0.174533,-0.569751,-0.695556,-0.166853,-0.199971,0.503827,-0.14423,-0.230399,0.763149
28,60,-0.567232,-0.698132,-0.174533,-0.174533,-0.569751,-0.695556,-0.166853,-0.199971,0.503827,-0.14423,-0.230399,0.763149
28,60,-0.567232,-0.698132,-0.174533,-0.174533,-0.569751,-0.695556,-0.166853,-0.199971,0.503827,-0.14423,-0.230399,0.763149
28,60,-0.567232,-0.698132,-0.174533,-0.174533,-0.569751,-0.695556,-0.166853,-0.199971,0.503827,-0.14423,-0.230399,0.763149
28,60,-0.567232,-0.698132,-0.174533,-0.174533,-0.569751,-0.695556,-0.166853,-0.199971,0.503827,-0.14423,-0.230399,0.763149
28,60,-0.567232,-0.698132,-0.174533,-0.174533,-0.569751,-0.695556,-0.166853,-0.199971,0.503827,-0.14423,-0.230399,0.763149
28,60,-0.567232,-0.698132,-0.174533,-0.174533,-0.569751,-0.695556,-0.166853,-0.199971,0.503827,-0.14423,-0.230399,0.763149
28,60,-0.567232,-0.698132,-0.174533,-0.174533,-0.569751,-0.695556,-0.166853,-0.199971,0.503827,-0.14423,-0.230399,0.763149
28,60,-0.567232,-0.698132,-0.174533,-0.174533,-0.569751,-0.695556,-0.166853,-0.199971,0.503827,-0.14423,-0.230399,0.763149
28,60,-0.567232,-0.698132,-0.174533,-0.174533,-0.569751,-0.695556,-0.166853,-0.199971,0.503827,-0.14423,-0.230399,0.763149
28,60,-0.567232,-0.698132,-0.174533,-0.174533,-0.569751,-0.695556,-0.166853,-0.199971,0.503827,-0.14423,-0.230399,0.763149
28,60,-0.567232,-0.698132,-0.174533,-0.174533,-0.569751,-0.695556,-0.166853,-0.199971,0.503827,-0.14423,-0.230399,0.763149
28,60,-0.567232,-0.698132,-0.174533,-0.174533,-0.569751,-0.695556,-0.166853,-0.199971,0.503827,-0.14423,-0.230399,0.763149
28,60,-0.567232,-0.698132,-0.174533,-0.174533,-0.569751,-0.695556,-0.166853,-0.199971,0.503827,-0.14423,-0.230399,0.763149
28,60,-0.567232,-0.698132,-0.174533,-0.174533,-0.569751,-0.695556,-0.166853,-0.199971,0.503827,-0.14423,-0.230399,0.763149
28,60,-0.567232,-0.698132,-0.174533,-0.174533,-0.569751,-0.695556,-0.166853,-0.199971,0.503827,-0.14423,-0.230399,0.763149
28,60,-0.567232,-0.698132,-0.174533,-0.174533,-0.569751,-0.695556,-0.166853,-0.199971,0.503827,-0.14423,-0.230399,0.763149
28,60,-0.567232,-0.698132,-0.174533,-0.174533,-0.569751,-0.695556,-0.166853,-0.199971,0.503827,-0.14423,-0.230399,0.763149
28,60,-0.567232,-0.698132,-0.174533,-0.174533,-0.569751,-0.695556,-0.166853,-0.199971,0.503827,-0.14423,-0.230399,0.763149
28,60,-0.567232,-0.698132,-0.174533,-0.174533,-0.569751,-0.695556,-0.166853,-0.199971,0.503827,-0.14423,-0.230399,0.763149
28,60,-0.567232,-0.698132,-0.174533,-0.174533,-0.569751,-0.695556,-0.166853,-0.199971,0.503827,-0.14423,-0.230399,0.763149
28,60,-0.567232,-0.698132,-0.174533,-0.174533,-0.569751,-0.695556,-0.166853,-0.199971,0.503827,-0.14423,-0.230399,0.763149
28,60,-0.567232,-0.698132,-0.174533,-0.174533,-0.569751,-0.695556,-0.166853,-0.199971,0.503827,-0.14423,-0.230399,0.763149
28,60,-0.567232,-0.698132,-0.174533,-0.174533,-0.569751,-0.695556,-0.166853,-0.199971,0.503827,-0.14423,-0.230399,0.763149
28,60,-0.567232,-0.698132,-0.174533,-0.174533,-0.569751,-0.695556,-0.166853,-0.199971,0.503827,-0.14423,-0.230399,0.763149
28,60,-0.567232,-0.698132,-0.174533,-0.174533,-0.569751,-0.695556,-0.166853,-0.199971,0.503827,-0.14423,-0.230399,0.763149
28,60,-0.567232,-0.698132,-0.174533,-0.174533,-0.569751,-0.695556,-0.166853,-0.199971,0.503827,-0.14423,-0.230399,0.763149
28,60,-0.567232,-0.698132,-0.174533,-0.174533,-0.569751,-0.695556,-0.166853,-0.199971,0.503827,-0.14423,-0.230399,0.763149
28,60,-0.567232,-0.698132,-0.174533,-0.174533,-0.569751,-0.695556,-0.166853,-0.199971,0.503827,-0.14423,-0.230399,0.763149
28,60,-0.567232,-0.698132,-0.174533,-0.174533,-0.569751,-0.695556,-0.166853,-0.199971,0.503827,-0.14423,-0.230399,0.763149
28,60,-0.567232,-0.698132,-0.174533,-0.174533,-0.569751,-0.695556,-0.166853,-0.199971,0.503827,-0.14423,-0.230399,0.763149
28,60,-0.567232,-0.698132,-0.174533,-0.174533,-0.569751,-0.695556,-0.166853,-0.199971,0.503827,-0.14423,-0.230399,0.763149
28,60,-0.567232,-0.698132,-0.174533,-0.174533,-0.569751,-0.695556,-0.166853,-0.199971,0.503827,-0.14423,-0.230399,0.763149
28,60,-0.567232,-0.698132,-0.174533,-0.174533,-0.569751,-0.695556,-0.166853,-0.199971,0.503827,-0.14423,-0.230399,0.763149
28,60,-0.567232,-0.698132,-0.174533,-0.174533,-0.569751,-0.695556,-0.166853,-0.199971,0.503827,-0.14423,-0.230399,0.763149
28,60,-0.567232,-0.698132,-0.174533,-0.174533,-0.569751,-0.695556,-0.166853,-0.199971,0.503827,-0.14423,-0.230399,0.763149
28,60,-0.567232,-0.698132,-0.174533,-0.174533,-0.569751,-0.695556,-0.166853,-0.199971,0.503827,-0.14423,-0.230399,0.763149
28,60,-0.567232,-0.698132,-0.174533,-0.174533,-0.569751,-0.695556,-0.166853,-0.199971,0.503827,-0.14423,-0.230399,0.763149
28,60,-0.567232,-0.698132,-0.174533,-0.174533,-0.569751,-0.695556,-0.166853,-0.199971,0.503827,-0.14423,-0.230399,0.763149
28,60,-0.567232,-0.698132,-0.174533,-0.174533,-0.569751,-0.695556,-0.166853,-0.199971,0.503827,-0.14423,-0.230399,0.763149
28,60,-0.567232,-0.698132,-0.174533,-0.174533,-0.569751,-0.695556,-0.166853,-0.199971,0.503827,-0.14423,-0.230399,0.763149
28,60,-0.567232,-0.698132,-0.174533,-0.174533,-0.569751,-0.695556,-0.166853,-0.199971,0.503827,-0.14423,-0.230399,0.763149
28,60,-0.567232,-0.698132,-0.174533,-0.174533,-0.569751,-0.695556,-0.166853,-0.199971,0.503827,-0.14423,-0.230399,0.763149
28,60,-0.567232,-0.698132,-0.174533,-0.174533,-0.569751,-0.695556,-0.166853,-0.199971,0.503827,-0.14423,-0.230399,0.763149
28,60,-0.567232,-0.698132,-0.174533,-0.174533,-0.569751,-0.695556,-0.166853,-0.199971,0.503827,-0.14423,-0.230399,0.763149
28,60,-0.567232,-0.698132,-0.174533,-0.174533,-0.569751,-0.695556,-0.166853,-0.199971,0.503827,-0.14423,-0.230399,0.763149
28,60,-0.567232,-0.698132,-0.174533,-0.174533,-0.569751,-0.695556,-0.166853,-0.199971,0.503827,-0.14423,-0.230399,0.763149
28,60,-0.567232,-0.698132,-0.174533,-0.174533,-0.569751,-0.695556,-0.166853,-0.199971,0.503827,-0.14423,-0.230399,0.763149
28,60,-0.567232,-0.698132,-0.174533,-0.174533,-0.569751,-0.695556,-0.166853,-0.199971,0.503827,-0.14423,-0.230399,0.763149
28,60,-0.567232,-0.698132,-0.174533,-0.174533,-0.569751,-0.695556,-0.166853,-0.199971,0.503827,-0.14423,-0.230399,0.763149
28,60,-0.567232,-0.698132,-0.174533,-0.174533,-0.569751,-0.695556,-0.166853,-0.199971,0.503827,-0.14423,-0.230399,0.763149
28,60,-0.567232,-0.698132,-0.174533,-0.174533,-0.569751,-0.695556,-0.166853,-0.199971,0.503827,-0.14423,-0.230399,0.763149
28,60,-0.567232,-0.698132,-0.174533,-0.174533,-0.569751,-0.695556,-0.166853,-0.199971,0.503827,-0.14423,-0.230399,0.763149
28,60,-0.567232,-0.698132,-0.174533,-0.174533,-0.569751,-0.695556,-0.166853,-0.199971,0.503827,-0.14423,-0.230399,0.763149
28,60,-0.567232,-0.698132,-0.174533,-0.174533,-0.569751,-0.695556,-0.166853,-0.199971,0.503827,-0.14423,-0.230399,0.763149
28,60,-0.567232,-0.698132,-0.174533,-0.174533,-0.569751,-0.695556,-0.166853,-0.199971,0.503827,-0.14423,-0.230399,0.763149
28,60,-0.567232,-0.698132,-0.174533,-0.174533,-0.569751,-0.695556,-0.166853,-0.199971,0.503827,-0.14423,-0.230399,0.763149
28,60,-0.567232,-0.698132,-0.174533,-0.174533,-0.569751,-0.695556,-0.166853,-0.199971,0.503827,-0.14423,-0.230399,0.763149
28,60,-0.567232,-0.698132,-0.174533,-0.174533,-0.569751,-0.695556,-0.166853,-0.199971,0.503827,-0.14423,-0.230399,0.763149
28,60,-0.567232,-0.698132,-0.174533,-0.174533,-0.569751,-0.695556,-0.166853,-0.199971,0.503827,-0.14423,-0.230399,0.763149
28,60,-0.567232,-0.698132,-0.174533,-0.174533,-0.569751,-0.695556,-0.166853,-0.199971,0.503827,-0.14423,-0.230399,0.763149
28,60,-0.567232,-0.698132,-0.174533,-0.174533,-0.569751,-0.695556,-0.166853,-0.199971,0.503827,-0.14423,-0.230399,0.763149
28,60,-0.567232,-0.698132,-0.174533,-0.174533,-0.569751,-0.695556,-0.166853,-0.199971,0.503827,-0.14423,-0.230399,0.763149
28,60,-0.567232,-0.698132,-0.174533,-0.174533,-0.569751,-0.695556,-0.166853,-0.199971,0.503827,-0.14423,-0.230399,0.763149
28,60,-0.567232,-0.698132,-0.174533,-0.174533,-0.569751,-0.695556,-0.166853,-0.199971,0.503827,-0.14423,-0.230399,0.763149
28,60,-0.567232,-0.698132,-0.174533,-0.174533,-0.569751,-0.695556,-0.166853,-0.199971,0.503827,-0.14423,-0.230399,0.763149
28,60,-0.567232,-0.698132,-0.174533,-0.174533,-0.569751,-0.695556,-0.166853,-0.199971,0.503827,-0.14423,-0.230399,0.763149
28,60,-0.567232,-0.698132,-0.174533,-0.174533,-0.569751,-0.695556,-0.166853,-0.199971,0.503827,-0.14423,-0.230399,0.763149
28,60,-0.567232,-0.698132,-0.174533,-0.174533,-0.569751,-0.695556,-0.166853,-0.199971,0.503827,-0.14423,-0.230399,0.763149
28,60,-0.567232,-0.698132,-0.174533,-0.174533,-0.569751,-0.695556,-0.166853,-0.199971,0.503827,-0.14423,-0.230399,0.763149
28,60,-0.567232,-0.698132,-0.174533,-0.174533,-0.569751,-0.695556,-0.166853,-0.199971,0.503827,-0.14423,-0.230399,0.763149
28,60,-0.567232,-0.698132,-0.174533,-0.174533,-0.569751,-0.695556,-0.166853,-0.199971,0.503827,-0.14423,-0.230399,0.763149
28,60,-0.567232,-0.698132,-0.174533,-0.174533,-0.569751,-0.695556,-0.166853,-0.199971,0.503827,-0.14423,-0.230399,0.763149
28,60,-0.567232,-0.698132,-0.174533,-0.174533,-0.569751,-0.695556,-0.166853,-0.199971,0.503827,-0.14423,-0.230399,0.763149
28,60,-0.567232,-0.698132,-0.174533,-0.174533,-0.569751,-0.695556,-0.166853,-0.199971,0.503827,-0.14423,-0.230399,0.763149
28,60,-0.567232,-0.698132,-0.174533,-0.174533,-0.569751,-0.695556,-0.166853,-0.199971,0.503827,-0.14423,-0.230399,0.763149
28,60,-0.567232,-0.698132,-0.174533,-0.174533,-0.569751,-0.695556,-0.166853,-0.199971,0.503827,-0.14423,-0.230399,0.763149
28,60,-0.567232,-0.698132,-0.174533,-0.174533,-0.569751,-0.695556,-0.166853,-0.199971,0.503827,-0.14423,-0.230399,0.763149
28,60,-0.567232,-0.698132,-0.174533,-0.174533,-0.569751,-0.695556,-0.166853,-0.199971,0.503827,-0.14423,-0.230399,0.763149
28,60,-0.567232,-0.698132,-0.174533,-0.174533,-0.569751,-0.695556,-0.166853,-0.199971,0.503827,-0.14423,-0.230399,0.763149
28,60,-0.567232,-0.698132,-0.174533,-0.174533,-0.569751,-0.695556,-0.166853,-0.199971,0.503827,-0.14423,-0.230399,0.763149
28,60,-0.567232,-0.698132,-0.174533,-0.174533,-0.569751,-0.695556,-0.166853,-0.199971,0.503827,-0.14423,-0.230399,0.763149
28,60,-0.567232,-0.698132,-0.174533,-0.174533,-0.569751,-0.695556,-0.166853,-0.199971,0.503827,-0.14423,-0.230399,0.763149
28,60,-0.567232,-0.698132,-0.174533,-0.174533,-0.569751,-0.695556,-0.166853,-0.199971,0.503827,-0.14423,-0.230399,0.763149
28,60,-0.567232,-0.698132,-0.174533,-0.174533,-0.569751,-0.695556,-0.166853,-0.199971,0.503827,-0.14423,-0.230399,0.763149
28,60,-0.567232,-0.698132,-0.174533,-0.174533,-0.569751,-0.695556,-0.166853,-0.199971,0.503827,-0.14423,-0.230399,0.763149
28,60,-0.567232,-0.698132,-0.174533,-0.174533,-0.569751,-0.695556,-0.166853,-0.199971,0.503827,-0.14423,-0.230399,0.763149
28,60,-0.567232,-0.698132,-0.174533,-0.174533,-0.569751,-0.695556,-0.166853,-0.199971,0.503827,-0.14423,-0.230399,0.763149
28,60,-0.567232,-0.698132,-0.174533,-0.174533,-0.569751,-0.695556,-0.166853,-0.199971,0.503827,-0.14423,-0.230399,0.763149
28,60,-0.567232,-0.698132,-0.174533,-0.174533,-0.569751,-0.695556,-0.166853,-0.199971,0.503827,-0.14423,-0.230399,0.763149
28,60,-0.567232,-0.698132,-0.174533,-0.174533,-0.569751,-0.695556,-0.166853,-0.199971,0.503827,-0.14423,-0.230399,0.763149
28,60,-0.567232,-0.698132,-0.174533,-0.174533,-0.569751,-0.695556,-0.166853,-0.199971,0.503827,-0.14423,-0.230399,0.763149
28,60,-0.567232,-0.698132,-0.174533,-0.174533,-0.569751,-0.695556,-0.166853,-0.199971,0.503827,-0.14423,-0.230399,0.763149
28,60,-0.567232,-0.698132,-0.174533,-0.174533,-0.569751,-0.695556,-0.166853,-0.199971,0.503827,-0.14423,-0.230399,0.763149
28,60,-0.567232,-0.698132,-0.174533,-0.174533,-0.569751,-0.695556,-0.166853,-0.199971,0.503827,-0.14423,-0.230399,0.763149
28,60,-0.567232,-0.698132,-0.174533,-0.174533,-0.569751,-0.695556,-0.166853,-0.199971,0.503827,-0.14423,-0.230399,0.763149
28,60,-0.567232,-0.698132,-0.174533,-0.174533,-0.569751,-0.695556,-0.166853,-0.199971,0.503827,-0.14423,-0.230399,0.763149
28,60,-0.567232,-0.698132,-0.174533,-0.174533,-0.569751,-0.695556,-0.166853,-0.199971,0.503827,-0.14423,-0.230399,0.763149
28,60,-0.567232,-0.698132,-0.174533,-0.174533,-0.569751,-0.695556,-0.166853,-0.199971,0.503827,-0.14423,-0.230399,0.763149
28,60,-0.567232,-0.698132,-0.174533,-0.174533,-0.569751,-0.695556,-0.166853,-0.199971,0.503827,-0.14423,-0.230399,0.763149
28,60,-0.567232,-0.698132,-0.174533,-0.174533,-0.569751,-0.695556,-0.166853,-0.199971,0.503827,-0.14423,-0.230399,0.763149
28,60,-0.567232,-0.698132,-0.174533,-0.174533,-0.569751,-0.695556,-0.166853,-0.199971,0.503827,-0.14423,-0.230399,0.763149
28,60,-0.567232,-0.698132,-0.174533,-0.174533,-0.569751,-0.695556,-0.166853,-0.199971,0.503827,-0.14423,-0.230399,0.763149
28,60,-0.567232,-0.698132,-0.174533,-0.174533,-0.569751,-0.695556,-0.166853,-0.199971,0.503827,-0.14423,-0.230399,0.763149
28,60,-0.567232,-0.698132,-0.174533,-0.174533,-0.569751,-0.695556,-0.166853,-0.199971,0.503827,-0.14423,-0.230399,0.763149
28,60,-0.567232,-0.698132,-0.174533,-0.174533,-0.569751,-0.695556,-0.166853,-0.199971,0.503827,-0.14423,-0.230399,0.763149
28,60,-0.567232,-0.698132,-0.174533,-0.174533,-0.569751,-0.695556,-0.166853,-0.199971,0.503827,-0.14423,-0.230399,0.763149
28,60,-0.567232,-0.698132,-0.174533,-0.174533,-0.569751,-0.695556,-0.166853,-0.199971,0.503827,-0.14423,-0.230399,0.763149
28,60,-0.567232,-0.698132,-0.174533,-0.174533,-0.569751,-0.695556,-0.166853,-0.199971,0.503827,-0.14423,-0.230399,0.763149
28,60,-0.567232,-0.698132,-0.174533,-0.174533,-0.569751,-0.695556,-0.166853,-0.199971,0.503827,-0.14423,-0.230399,0.763149
28,60,-0.567232,-0.698132,-0.174533,-0.174533,-0.569751,-0.695556,-0.166853,-0.199971,0.503827,-0.14423,-0.230399,0.763149
28,60,-0.567232,-0.698132,-0.174533,-0.174533,-0.569751,-0.695556,-0.166853,-0.199971,0.503827,-0.14423,-0.230399,0.763149
28,60,-0.567232,-0.698132,-0.174533,-0.174533,-0.569751,-0.695556,-0.166853,-0.199971,0.503827,-0.14423,-0.230399,0.763149
28,60,-0.567232,-0.698132,-0.174533,-0.174533,-0.569751,-0.695556,-0.166853,-0.199971,0.503827,-0.14423,-0.230399,0.763149
28,60,-0.567232,-0.698132,-0.174533,-0.174533,-0.569751,-0.695556,-0.166853,-0.199971,0.503827,-0.14423,-0.230399,0.763149
28,60,-0.567232,-0.698132,-0.174533,-0.174533,-0.569751,-0.695556,-0.166853,-0.199971,0.503827,-0.14423,-0.230399,0.763149
28,60,-0.567232,-0.698132,-0.174533,-0.174533,-0.569751,-0.695556,-0.166853,-0.199971,0.503827,-0.14423,-0.230399,0.763149
28,60,-0.567232,-0.698132,-0.174533,-0.174533,-0.569751,-0.695556,-0.166853,-0.199971,0.503827,-0.14423,-0.230399,0.763149
28,60,-0.567232,-0.698132,-0.174533,-0.174533,-0.569751,-0.695556,-0.166853,-0.199971,0.503827,-0.14423,-0.230399,0.763149
28,60,-0.567232,-0.698132,-0.174533,-0.174533,-0.569751,-0.695556,-0.166853,-0.199971,0.503827,-0.14423,-0.230399,0.763149
28,60,-0.567232,-0.698132,-0.174533,-0.174533,-0.569751,-0.695556,-0.166853,-0.199971,0.503827,-0.14423,-0.230399,0.763149
28,60,-0.567232,-0.698132,-0.174533,-0.174533,-0.569751,-0.695556,-0.166853,-0.199971,0.503827,-0.14423,-0.230399,0.763149
28,60,-0.567232,-0.698132,-0.174533,-0.174533,-0.569751,-0.695556,-0.166853,-0.199971,0.503827,-0.14423,-0.230399,0.763149
28,60,-0.567232,-0.698132,-0.174533,-0.174533,-0.569751,-0.695556,-0.166853,-0.199971,0.503827,-0.14423,-0.230399,0.763149
28,60,-0.567232,-0.698132,-0.174533,-0.174533,-0.569751,-0.695556,-0.166853,-0.199971,0.503827,-0.14423,-0.230399,0.763149
28,60,-0.567232,-0.698132,-0.174533,-0.174533,-0.569751,-0.695556,-0.166853,-0.199971,0.503827,-0.14423,-0.230399,0.763149
28,60,-0.567232,-0.698132,-0.174533,-0.174533,-0.569751,-0.695556,-0.166853,-0.199971,0.503827,-0.14423,-0.230399,0.763149
28,60,-0.567232,-0.698132,-0.174533,-0.174533,-0.569751,-0.695556,-0.166853,-0.199971,0.503827,-0.14423,-0.230399,0.763149
28,60,-0.567232,-0.698132,-0.174533,-0.174533,-0.569751,-0.695556,-0.166853,-0.199971,0.503827,-0.14423,-0.230399,0.763149
28,60,-0.567232,-0.698132,-0.174533,-0.174533,-0.569751,-0.695556,-0.166853,-0.199971,0.503827,-0.14423,-0.230399,0.763149
28,60,-0.567232,-0.698132,-0.174533,-0.174533,-0.569751,-0.695556,-0.166853,-0.199971,0.503827,-0.14423,-0.230399,0.763149
28,60,-0.567232,-0.698132,-0.174533,-0.174533,-0.569751,-0.695556,-0.166853,-0.199971,0.503827,-0.14423,-0.230399,0.763149
28,60,-0.567232,-0.698132,-0.174533,-0.174533,-0.569751,-0.695556,-0.166853,-0.199971,0.503827,-0.14423,-0.230399,0.763149
28,60,-0.567232,-0.698132,-0.174533,-0.174533,-0.569751,-0.695556,-0.166853,-0.199971,0.503827,-0.14423,-0.230399,0.763149
28,60,-0.567232,-0.698132,-0.174533,-0.174533,-0.569751,-0.695556,-0.166786,-0.199929,0.503827,-0.14423,-0.232419,0.761867
28,60,-0.567232,-0.698132,-0.174533,-0.174533,-0.569751,-0.695556,-0.166786,-0.199929,0.503827,-0.14423,-0.232419,0.761867
28,60,-0.567232,-0.698132,-0.174533,-0.174533,-0.569751,-0.695556,-0.166786,-0.199929,0.503827,-0.14423,-0.232419,0.761867
28,60,-0.567232,-0.698132,-0.174533,-0.174533,-0.569751,-0.695556,-0.166786,-0.199929,0.503827,-0.14423,-0.232419,0.761867
28,60,-0.567232,-0.698132,-0.174533,-0.174533,-0.569751,-0.695556,-0.166786,-0.199929,0.503827,-0.14423,-0.232419,0.761867
28,60,-0.567232,-0.698132,-0.174533,-0.174533,-0.569751,-0.695556,-0.166786,-0.199929,0.503827,-0.14423,-0.232419,0.761867
28,60,-0.567232,-0.698132,-0.174533,-0.174533,-0.569751,-0.695556,-0.166786,-0.199929,0.503827,-0.14423,-0.232419,0.761867
28,60,-0.567232,-0.698132,-0.174533,-0.174533,-0.569751,-0.695556,-0.166786,-0.199929,0.503827,-0.14423,-0.232419,0.761867
28,60,-0.567232,-0.698132,-0.174533,-0.174533,-0.569751,-0.695556,-0.166786,-0.199929,0.503827,-0.14423,-0.232419,0.761867
28,60,-0.567232,-0.698132,-0.174533,-0.174533,-0.569751,-0.695556,-0.166786,-0.199929,0.503827,-0.14423,-0.232419,0.761867
28,60,-0.567232,-0.698132,-0.174533,-0.174533,-0.569751,-0.695556,-0.166786,-0.199929,0.503827,-0.14423,-0.232419,0.761867
28,60,-0.567232,-0.698132,-0.174533,-0.174533,-0.569751,-0.695556,-0.166786,-0.199929,0.503827,-0.14423,-0.232419,0.761867
28,60,-0.567232,-0.698132,-0.174533,-0.174533,-0.569751,-0.695556,-0.166786,-0.199929,0.503827,-0.14423,-0.232419,0.761867
28,60,-0.567232,-0.698132,-0.174533,-0.174533,-0.569751,-0.695556,-0.166786,-0.199929,0.503827,-0.14423,-0.232419,0.761867
28,60,-0.567232,-0.698132,-0.174533,-0.174533,-0.569751,-0.695556,-0.166786,-0.199929,0.503827,-0.14423,-0.232419,0.761867
28,60,-0.567232,-0.698132,-0.174533,-0.174533,-0.569751,-0.695556,-0.166786,-0.199929,0.503827,-0.14423,-0.232419,0.761867
28,60,-0.567232,-0.698132,-0.174533,-0.174533,-0.569751,-0.695556,-0.166786,-0.199929,0.503827,-0.14423,-0.232419,0.761867
28,60,-0.567232,-0.698132,-0.174533,-0.174533,-0.569751,-0.695556,-0.166786,-0.199929,0.503827,-0.14423,-0.232419,0.761867
28,60,-0.567232,-0.698132,-0.174533,-0.174533,-0.569751,-0.695556,-0.166786,-0.199929,0.503827,-0.14423,-0.232419,0.761867
28,60,-0.567232,-0.698132,-0.174533,-0.174533,-0.569751,-0.695556,-0.166719,-0.199886,0.503827,-0.14423,-0.234436,0.760587
28,60,-0.567232,-0.698132,-0.174533,-0.174533,-0.569751,-0.695556,-0.166719,-0.199886,0.503827,-0.14423,-0.234436,0.760587
28,60,-0.567232,-0.698132,-0.174533,-0.174533,-0.569751,-0.695556,-0.166719,-0.199886,0.503827,-0.14423,-0.234436,0.760587
28,60,-0.567232,-0.698132,-0.174533,-0.174533,-0.569751,-0.695556,-0.166719,-0.199886,0.503827,-0.14423,-0.234436,0.760587
28,60,-0.567232,-0.698132,-0.174533,-0.174533,-0.569751,-0.695556,-0.166719,-0.199886,0.503827,-0.14423,-0.234436,0.760587
28,60,-0.567232,-0.698132,-0.174533,-0.174533,-0.569751,-0.695556,-0.166719,-0.199886,0.503827,-0.14423,-0.234436,0.760587
28,60,-0.567232,-0.698132,-0.174533,-0.174533,-0.569751,-0.695556,-0.166719,-0.199886,0.503827,-0.14423,-0.234436,0.760587
28,60,-0.567232,-0.698132,-0.174533,-0.174533,-0.569751,-0.695556,-0.166719,-0.199886,0.503827,-0.14423,-0.234436,0.760587
28,60,-0.567232,-0.698132,-0.174533,-0.174533,-0.569751,-0.695556,-0.166719,-0.199886,0.503827,-0.14423,-0.234436,0.760587
28,60,-0.567232,-0.698132,-0.174533,-0.174533,-0.569751,-0.695556,-0.166719,-0.199886,0.503827,-0.14423,-0.234436,0.760587
28,60,-0.567232,-0.698132,-0.174533,-0.174533,-0.569751,-0.695556,-0.166719,-0.199886,0.503827,-0.14423,-0.234436,0.760587
28,60,-0.567232,-0.698132,-0.174533,-0.174533,-0.569751,-0.695556,-0.166719,-0.199886,0.503827,-0.14423,-0.234436,0.760587
28,60,-0.567232,-0.698132,-0.174533,-0.174533,-0.569751,-0.695556,-0.166719,-0.199886,0.503827,-0.14423,-0.234436,0.760587
28,60,-0.567232,-0.698132,-0.174533,-0.174533,-0.569751,-0.695556,-0.166719,-0.199886,0.503827,-0.14423,-0.234436,0.760587
28,60,-0.567232,-0.698132,-0.174533,-0.174533,-0.569751,-0.695556,-0.166719,-0.199886,0.503827,-0.14423,-0.234436,0.760587
28,60,-0.567232,-0.698132,-0.174533,-0.174533,-0.569751,-0.695556,-0.166719,-0.199886,0.503827,-0.14423,-0.234436,0.760587
28,60,-0.567232,-0.698132,-0.174533,-0.174533,-0.569751,-0.695556,-0.166719,-0.199886,0.503827,-0.14423,-0.234436,0.760587
28,60,-0.567232,-0.698132,-0.174533,-0.174533,-0.569751,-0.695556,-0.166719,-0.199886,0.503827,-0.14423,-0.234436,0.760587
28,60,-0.567232,-0.698132,-0.174533,-0.174533,-0.569751,-0.695556,-0.166719,-0.199886,0.503827,-0.14423,-0.234436,0.760587
28,60,-0.567232,-0.698132,-0.174533,-0.174533,-0.569751,-0.695556,-0.166719,-0.199886,0.503827,-0.14423,-0.234436,0.760587
28,60,-0.567232,-0.698132,-0.174533,-0.174533,-0.569751,-0.695556,-0.166719,-0.199886,0.503827,-0.14423,-0.234436,0.760587
28,60,-0.567232,-0.698132,-0.174533,-0.174533,-0.569751,-0.695556,-0.166719,-0.199886,0.503827,-0.14423,-0.234436,0.760587
28,60,-0.567232,-0.698132,-0.174533,-0.174533,-0.569751,-0.695556,-0.166719,-0.199886,0.503827,-0.14423,-0.234436,0.760587
28,60,-0.567232,-0.698132,-0.174533,-0.174533,-0.569751,-0.695556,-0.166719,-0.199886,0.503827,-0.14423,-0.234436,0.760587
28,60,-0.567232,-0.698132,-0.174533,-0.174533,-0.569751,-0.695556,-0.166719,-0.199886,0.503827,-0.14423,-0.234436,0.760587
28,60,-0.567232,-0.698132,-0.174533,-0.174533,-0.569751,-0.695556,-0.166719,-0.199886,0.503827,-0.14423,-0.234436,0.760587
28,60,-0.567232,-0.698132,-0.174533,-0.174533,-0.569751,-0.695556,-0.166719,-0.199886,0.503827,-0.14423,-0.234436,0.760587
28,60,-0.567232,-0.698132,-0.174533,-0.174533,-0.569751,-0.695556,-0.166719,-0.199886,0.503827,-0.14423,-0.234436,0.760587
28,60,-0.567232,-0.698132,-0.174533,-0.174533,-0.569751,-0.695556,-0.166719,-0.199886,0.503827,-0.14423,-0.234436,0.760587
28,60,-0.567232,-0.698132,-0.174533,-0.174533,-0.569751,-0.695556,-0.166719,-0.199886,0.503827,-0.14423,-0.234436,0.760587
28,60,-0.567232,-0.698132,-0.174533,-0.174533,-0.569751,-0.695556,-0.166719,-0.199886,0.503827,-0.14423,-0.234436,0.760587
28,60,-0.567232,-0.698132,-0.174533,-0.174533,-0.569751,-0.695556,-0.166719,-0.199886,0.503827,-0.14423,-0.234436,0.760587
28,60,-0.567232,-0.698132,-0.174533,-0.174533,-0.569751,-0.695556,-0.166719,-0.199886,0.503827,-0.14423,-0.234436,0.760587
28,60,-0.567232,-0.698132,-0.174533,-0.174533,-0.569751,-0.695556,-0.166719,-0.199886,0.503827,-0.14423,-0.234436,0.760587
28,60,-0.567232,-0.698132,-0.174533,-0.174533,-0.569751,-0.695556,-0.166719,-0.199886,0.503827,-0.14423,-0.234436,0.760587
28,60,-0.567232,-0.698132,-0.174533,-0.174533,-0.569751,-0.695556,-0.166719,-0.199886,0.503827,-0.14423,-0.234436,0.760587
28,60,-0.567232,-0.698132,-0.174533,-0.174533,-0.569751,-0.695556,-0.166719,-0.199886,0.503827,-0.14423,-0.234436,0.760587
28,60,-0.567232,-0.698132,-0.174533,-0.174533,-0.569751,-0.695556,-0.166719,-0.199886,0.503827,-0.14423,-0.234436,0.760587
28,60,-0.567232,-0.698132,-0.174533,-0.174533,-0.569751,-0.695556,-0.166719,-0.199886,0.503827,-0.14423,-0.234436,0.760587
28,60,-0.567232,-0.698132,-0.174533,-0.174533,-0.569751,-0.695556,-0.166719,-0.199886,0.503827,-0.14423,-0.234436,0.760587
28,60,-0.567232,-0.698132,-0.174533,-0.174533,-0.569751,-0.695556,-0.166719,-0.199886,0.503827,-0.14423,-0.234436,0.760587
28,60,-0.567232,-0.698132,-0.174533,-0.174533,-0.569751,-0.695556,-0.166719,-0.199886,0.503827,-0.14423,-0.234436,0.760587
28,60,-0.567232,-0.698132,-0.174533,-0.174533,-0.569751,-0.695556,-0.166719,-0.199886,0.503827,-0.14423,-0.234436,0.760587
28,60,-0.567232,-0.698132,-0.174533,-0.174533,-0.569751,-0.695556,-0.166719,-0.199886,0.503827,-0.14423,-0.234436,0.760587
28,60,-0.567232,-0.698132,-0.174533,-0.174533,-0.569751,-0.695556,-0.166719,-0.199886,0.503827,-0.14423,-0.234436,0.760587
28,60,-0.567232,-0.698132,-0.174533,-0.174533,-0.569751,-0.695556,-0.166719,-0.199886,0.503827,-0.14423,-0.234436,0.760587
28,60,-0.567232,-0.698132,-0.174533,-0.174533,-0.569751,-0.695556,-0.166719,-0.199886,0.503827,-0.14423,-0.234436,0.760587
28,60,-0.567232,-0.698132,-0.174533,-0.174533,-0.569751,-0.695556,-0.166719,-0.199886,0.503827,-0.14423,-0.234436,0.760587
28,60,-0.567232,-0.698132,-0.174533,-0.174533,-0.569751,-0.695556,-0.166719,-0.199886,0.503827,-0.14423,-0.234436,0.760587
28,60,-0.567232,-0.698132,-0.174533,-0.174533,-0.569751,-0.695556,-0.166719,-0.199886,0.503827,-0.14423,-0.234436,0.760587
28,60,-0.567232,-0.698132,-0.174533,-0.174533,-0.569751,-0.695556,-0.166719,-0.199886,0.503827,-0.14423,-0.234436,0.760587
28,60,-0.567232,-0.698132,-0.174533,-0.174533,-0.569751,-0.695556,-0.166719,-0.199886,0.503827,-0.14423,-0.234436,0.760587
28,60,-0.567232,-0.698132,-0.174533,-0.174533,-0.569751,-0.695556,-0.166719,-0.199886,0.503827,-0.14423,-0.234436,0.760587
28,60,-0.567232,-0.698132,-0.174533,-0.174533,-0.569751,-0.695556,-0.166719,-0.199886,0.503827,-0.14423,-0.234436,0.760587
28,60,-0.567232,-0.698132,-0.174533,-0.174533,-0.569751,-0.695556,-0.166719,-0.199886,0.503827,-0.14423,-0.234436,0.760587
28,60,-0.567232,-0.698132,-0.174533,-0.174533,-0.569751,-0.695556,-0.166719,-0.199886,0.503827,-0.14423,-0.234436,0.760587
28,60,-0.567232,-0.698132,-0.174533,-0.174533,-0.569751,-0.695556,-0.166719,-0.199886,0.503827,-0.14423,-0.234436,0.760587
28,60,-0.567232,-0.698132,-0.174533,-0.174533,-0.569751,-0.695556,-0.166719,-0.199886,0.503827,-0.14423,-0.234436,0.760587
28,60,-0.567232,-0.698132,-0.174533,-0.174533,-0.569751,-0.695556,-0.166719,-0.199886,0.503827,-0.14423,-0.234436,0.760587
28,60,-0.567232,-0.698132,-0.174533,-0.174533,-0.569751,-0.695556,-0.166719,-0.199886,0.503827,-0.14423,-0.234436,0.760587
28,60,-0.567232,-0.698132,-0.174533,-0.174533,-0.569751,-0.695556,-0.166719,-0.199886,0.503827,-0.14423,-0.234436,0.760587
28,60,-0.567232,-0.698132,-0.174533,-0.174533,-0.569751,-0.695556,-0.166719,-0.199886,0.503827,-0.14423,-0.234436,0.760587
28,60,-0.567232,-0.698132,-0.174533,-0.174533,-0.569751,-0.695556,-0.166719,-0.199886,0.503827,-0.14423,-0.234436,0.760587
28,60,-0.567232,-0.698132,-0.174533,-0.174533,-0.569751,-0.695556,-0.166719,-0.199886,0.503827,-0.14423,-0.234436,0.760587
28,60,-0.567232,-0.698132,-0.174533,-0.174533,-0.569751,-0.695556,-0.166719,-0.199886,0.503827,-0.14423,-0.234436,0.760587
28,60,-0.567232,-0.698132,-0.174533,-0.174533,-0.569751,-0.695556,-0.166719,-0.199886,0.503827,-0.14423,-0.234436,0.760587
28,60,-0.567232,-0.698132,-0.174533,-0.174533,-0.569751,-0.695556,-0.166719,-0.199886,0.503827,-0.14423,-0.234436,0.760587
28,60,-0.567232,-0.698132,-0.174533,-0.174533,-0.569751,-0.695556,-0.166719,-0.199886,0.503827,-0.14423,-0.234436,0.760587
28,60,-0.567232,-0.698132,-0.174533,-0.174533,-0.569751,-0.695556,-0.166719,-0.199886,0.503827,-0.14423,-0.234436,0.760587
28,60,-0.567232,-0.698132,-0.174533,-0.174533,-0.569751,-0.695556,-0.166719,-0.199886,0.503827,-0.14423,-0.234436,0.760587
28,60,-0.567232,-0.698132,-0.174533,-0.174533,-0.569751,-0.695556,-0.166719,-0.199886,0.503827,-0.14423,-0.234436,0.760587
28,60,-0.567232,-0.698132,-0.174533,-0.174533,-0.569751,-0.695556,-0.166719,-0.199886,0.503827,-0.14423,-0.234436,0.760587
28,60,-0.567232,-0.698132,-0.174533,-0.174533,-0.569751,-0.695556,-0.166719,-0.199886,0.503827,-0.14423,-0.234436,0.760587
28,60,-0.567232,-0.698132,-0.174533,-0.174533,-0.569751,-0.695556,-0.166719,-0.199886,0.503827,-0.14423,-0.234436,0.760587
28,60,-0.567232,-0.698132,-0.174533,-0.174533,-0.569751,-0.695556,-0.166719,-0.199886,0.503827,-0.14423,-0.234436,0.760587
28,60,-0.567232,-0.698132,-0.174533,-0.174533,-0.569751,-0.695556,-0.166719,-0.199886,0.503827,-0.14423,-0.234436,0.760587
28,60,-0.567232,-0.698132,-0.174533,-0.174533,-0.569751,-0.695556,-0.166719,-0.199886,0.503827,-0.14423,-0.234436,0.760587
28,60,-0.567232,-0.698132,-0.174533,-0.174533,-0.569751,-0.695556,-0.166719,-0.199886,0.503827,-0.14423,-0.234436,0.760587
28,60,-0.567232,-0.698132,-0.174533,-0.174533,-0.569751,-0.695556,-0.166719,-0.199886,0.503827,-0.14423,-0.234436,0.760587
28,60,-0.567232,-0.698132,-0.174533,-0.174533,-0.569751,-0.695556,-0.166719,-0.199886,0.503827,-0.14423,-0.234436,0.760587
28,60,-0.567232,-0.698132,-0.174533,-0.174533,-0.569751,-0.695556,-0.166719,-0.199886,0.503827,-0.14423,-0.234436,0.760587
28,60,-0.567232,-0.698132,-0.174533,-0.174533,-0.569751,-0.695556,-0.166719,-0.199886,0.503827,-0.14423,-0.234436,0.760587
28,60,-0.567232,-0.698132,-0.174533,-0.174533,-0.569751,-0.695556,-0.166719,-0.199886,0.503827,-0.14423,-0.234436,0.760587
28,60,-0.567232,-0.698132,-0.174533,-0.174533,-0.569751,-0.695556,-0.166719,-0.199886,0.503827,-0.14423,-0.234436,0.760587
28,60,-0.567232,-0.698132,-0.174533,-0.174533,-0.569751,-0.695556,-0.166719,-0.199886,0.503827,-0.14423,-0.234436,0.760587
28,60,-0.567232,-0.698132,-0.174533,-0.174533,-0.569751,-0.695556,-0.166719,-0.199886,0.503827,-0.14423,-0.234436,0.760587
28,60,-0.567232,-0.698132,-0.174533,-0.174533,-0.569751,-0.695556,-0.166719,-0.199886,0.503827,-0.14423,-0.234436,0.760587
28,60,-0.567232,-0.698132,-0.174533,-0.174533,-0.569751,-0.695556,-0.166719,-0.199886,0.503827,-0.14423,-0.234436,0.760587
28,60,-0.567232,-0.698132,-0.174533,-0.174533,-0.569751,-0.695556,-0.166719,-0.199886,0.503827,-0.14423,-0.234436,0.760587
28,60,-0.567232,-0.698132,-0.174533,-0.174533,-0.569751,-0.695556,-0.166719,-0.199886,0.503827,-0.14423,-0.234436,0.760587
28,60,-0.567232,-0.698132,-0.174533,-0.174533,-0.569751,-0.695556,-0.166719,-0.199886,0.503827,-0.14423,-0.234436,0.760587
28,60,-0.567232,-0.698132,-0.174533,-0.174533,-0.569751,-0.695556,-0.166719,-0.199886,0.503827,-0.14423,-0.234436,0.760587
28,60,-0.567232,-0.698132,-0.174533,-0.174533,-0.569751,-0.695556,-0.166719,-0.199886,0.503827,-0.14423,-0.234436,0.760587
28,60,-0.567232,-0.698132,-0.174533,-0.174533,-0.569751,-0.695556,-0.166719,-0.199886,0.503827,-0.14423,-0.234436,0.760587
28,60,-0.567232,-0.698132,-0.174533,-0.174533,-0.569751,-0.695556,-0.166719,-0.199886,0.503827,-0.14423,-0.234436,0.760587
28,60,-0.567232,-0.698132,-0.174533,-0.174533,-0.569751,-0.695556,-0.166719,-0.199886,0.503827,-0.14423,-0.234436,0.760587
28,60,-0.567232,-0.698132,-0.174533,-0.174533,-0.569751,-0.695556,-0.166719,-0.199886,0.503827,-0.14423,-0.234436,0.760587
28,60,-0.567232,-0.698132,-0.174533,-0.174533,-0.569751,-0.695556,-0.166719,-0.199886,0.503827,-0.14423,-0.234436,0.760587
28,60,-0.567232,-0.698132,-0.174533,-0.174533,-0.569751,-0.695556,-0.166719,-0.199886,0.503827,-0.14423,-0.234436,0.760587
28,60,-0.567232,-0.698132,-0.174533,-0.174533,-0.569751,-0.695556,-0.166719,-0.199886,0.503827,-0.14423,-0.234436,0.760587
28,60,-0.567232,-0.698132,-0.174533,-0.174533,-0.569751,-0.695556,-0.166719,-0.199886,0.503827,-0.14423,-0.234436,0.760587
28,60,-0.567232,-0.698132,-0.174533,-0.174533,-0.569751,-0.695556,-0.166719,-0.199886,0.503827,-0.14423,-0.234436,0.760587
28,60,-0.567232,-0.698132,-0.174533,-0.174533,-0.569751,-0.695556,-0.166719,-0.199886,0.503827,-0.14423,-0.234436,0.760587
28,60,-0.567232,-0.698132,-0.174533,-0.174533,-0.569751,-0.695556,-0.166719,-0.199886,0.503827,-0.14423,-0.234436,0.760587
28,60,-0.567232,-0.698132,-0.174533,-0.174533,-0.569751,-0.695556,-0.166719,-0.199886,0.503827,-0.14423,-0.234436,0.760587
28,60,-0.567232,-0.698132,-0.174533,-0.174533,-0.569751,-0.695556,-0.166719,-0.199886,0.503827,-0.14423,-0.234436,0.760587
28,60,-0.567232,-0.698132,-0.174533,-0.174533,-0.569751,-0.695556,-0.166719,-0.199886,0.503827,-0.14423,-0.234436,0.760587
28,60,-0.567232,-0.698132,-0.174533,-0.174533,-0.569751,-0.695556,-0.166719,-0.199886,0.503827,-0.14423,-0.234436,0.760587
28,60,-0.567232,-0.698132,-0.174533,-0.174533,-0.569751,-0.695556,-0.166719,-0.199886,0.503827,-0.14423,-0.234436,0.760587
28,60,-0.567232,-0.698132,-0.174533,-0.174533,-0.569751,-0.695556,-0.166719,-0.199886,0.503827,-0.14423,-0.234436,0.760587
