stim_pw [us],stim_amp [mA],com_elbow_fe [rad],com_forearm_ps [rad],com_wrist_fe [rad],com_wrist_ru [rad],act_elbow_fe [rad],act_forearm_ps [rad],act_wrist_fe [rad],act_wrist_ru [rad],elbow_fe_trq [Nm],forearm_ps_trq [Nm],wrist_fe_trq [Nm],wrist_ru_trq [Nm]
28,60,-0.567232,-0.698132,-0.174533,-0.174533,-0.572257,-0.693319,-0.168475,-0.201019,1.00681,-0.269055,-0.181724,0.794594
28,60,-0.567232,-0.698132,-0.174533,-0.174533,-0.572257,-0.693319,-0.168475,-0.201019,1.00681,-0.269059,-0.181724,0.794594
28,60,-0.567232,-0.698132,-0.174533,-0.174533,-0.572257,-0.693319,-0.168475,-0.201019,1.00681,-0.269063,-0.181724,0.794594
28,60,-0.567232,-0.698132,-0.174533,-0.174533,-0.572257,-0.693319,-0.168475,-0.201019,1.00681,-0.269068,-0.181724,0.794594
28,60,-0.567232,-0.698132,-0.174533,-0.174533,-0.572257,-0.693319,-0.168475,-0.201019,1.00681,-0.269072,-0.181724,0.794594
28,60,-0.567232,-0.698132,-0.174533,-0.174533,-0.572257,-0.693319,-0.168475,-0.201019,1.00681,-0.269076,-0.181724,0.794594
28,60,-0.567232,-0.698132,-0.174533,-0.174533,-0.572257,-0.693319,-0.168475,-0.201019,1.00681,-0.26908,-0.181724,0.794594
28,60,-0.567232,-0.698132,-0.174533,-0.174533,-0.572257,-0.693319,-0.168475,-0.201019,1.00681,-0.269084,-0.181724,0.794594
28,60,-0.567232,-0.698132,-0.174533,-0.174533,-0.572257,-0.693319,-0.168475,-0.201019,1.00681,-0.269088,-0.181724,0.794594
28,60,-0.567232,-0.698132,-0.174533,-0.174533,-0.572257,-0.693319,-0.168475,-0.201019,1.00681,-0.269092,-0.181724,0.794594
28,60,-0.567232,-0.698132,-0.174533,-0.174533,-0.572257,-0.693319,-0.168475,-0.201019,1.00681,-0.269095,-0.181724,0.794594
28,60,-0.567232,-0.698132,-0.174533,-0.174533,-0.572257,-0.693319,-0.168475,-0.201019,1.00681,-0.269099,-0.181724,0.794594
28,60,-0.567232,-0.698132,-0.174533,-0.174533,-0.572257,-0.693319,-0.168475,-0.201019,1.00681,-0.269103,-0.181724,0.794594
28,60,-0.567232,-0.698132,-0.174533,-0.174533,-0.572257,-0.693319,-0.168475,-0.201019,1.00681,-0.269106,-0.181724,0.794594
28,60,-0.567232,-0.698132,-0.174533,-0.174533,-0.572257,-0.693319,-0.168475,-0.201019,1.00681,-0.26911,-0.181724,0.794594
28,60,-0.567232,-0.698132,-0.174533,-0.174533,-0.572257,-0.693319,-0.168475,-0.201019,1.00681,-0.269113,-0.181724,0.794594
28,60,-0.567232,-0.698132,-0.174533,-0.174533,-0.572257,-0.693319,-0.168475,-0.201019,1.00681,-0.269116,-0.181724,0.794594
28,60,-0.567232,-0.698132,-0.174533,-0.174533,-0.572257,-0.693319,-0.168475,-0.201019,1.00681,-0.26912,-0.181724,0.794594
28,60,-0.567232,-0.698132,-0.174533,-0.174533,-0.572257,-0.693319,-0.168475,-0.201019,1.00681,-0.269123,-0.181724,0.794594
28,60,-0.567232,-0.698132,-0.174533,-0.174533,-0.572257,-0.693319,-0.168475,-0.201019,1.00681,-0.269126,-0.181724,0.794594
28,60,-0.567232,-0.698132,-0.174533,-0.174533,-0.572257,-0.693319,-0.168475,-0.201019,1.00681,-0.269129,-0.181724,0.794594
28,60,-0.567232,-0.698132,-0.174533,-0.174533,-0.572257,-0.693319,-0.168475,-0.201019,1.00681,-0.269132,-0.181724,0.794594
28,60,-0.567232,-0.698132,-0.174533,-0.174533,-0.572257,-0.693319,-0.168475,-0.201019,1.00681,-0.269135,-0.181724,0.794594
28,60,-0.567232,-0.698132,-0.174533,-0.174533,-0.572257,-0.693319,-0.168475,-0.201019,1.00681,-0.269138,-0.181724,0.794594
28,60,-0.567232,-0.698132,-0.174533,-0.174533,-0.572257,-0.693319,-0.168475,-0.201019,1.00681,-0.269141,-0.181724,0.794594
28,60,-0.567232,-0.698132,-0.174533,-0.174533,-0.572257,-0.693319,-0.168475,-0.201019,1.00681,-0.269144,-0.181724,0.794594
28,60,-0.567232,-0.698132,-0.174533,-0.174533,-0.572257,-0.693319,-0.168475,-0.201019,1.00681,-0.269147,-0.181724,0.794594
28,60,-0.567232,-0.698132,-0.174533,-0.174533,-0.572257,-0.693319,-0.168475,-0.201019,1.00681,-0.26915,-0.181724,0.794594
28,60,-0.567232,-0.698132,-0.174533,-0.174533,-0.572257,-0.693319,-0.168475,-0.201019,1.00681,-0.269152,-0.181724,0.794594
28,60,-0.567232,-0.698132,-0.174533,-0.174533,-0.572257,-0.693319,-0.168475,-0.201019,1.00681,-0.269155,-0.181724,0.794594
28,60,-0.567232,-0.698132,-0.174533,-0.174533,-0.572257,-0.693319,-0.168475,-0.201019,1.00681,-0.269158,-0.181724,0.794594
28,60,-0.567232,-0.698132,-0.174533,-0.174533,-0.572257,-0.693319,-0.168475,-0.201019,1.00681,-0.26916,-0.181724,0.794594
28,60,-0.567232,-0.698132,-0.174533,-0.174533,-0.572257,-0.693319,-0.168475,-0.201019,1.00681,-0.269163,-0.181724,0.794594
28,60,-0.567232,-0.698132,-0.174533,-0.174533,-0.572257,-0.693319,-0.168475,-0.201019,1.00681,-0.269166,-0.181724,0.794594
28,60,-0.567232,-0.698132,-0.174533,-0.174533,-0.572257,-0.693319,-0.168475,-0.201019,1.00681,-0.269168,-0.181724,0.794594
28,60,-0.567232,-0.698132,-0.174533,-0.174533,-0.572257,-0.693319,-0.168475,-0.201019,1.00681,-0.269171,-0.181724,0.794594
28,60,-0.567232,-0.698132,-0.174533,-0.174533,-0.572257,-0.693319,-0.168475,-0.201019,1.00681,-0.269173,-0.181724,0.794594
28,60,-0.567232,-0.698132,-0.174533,-0.174533,-0.572257,-0.693319,-0.168475,-0.201019,1.00681,-0.269175,-0.181724,0.794594
28,60,-0.567232,-0.698132,-0.174533,-0.174533,-0.572257,-0.693319,-0.168475,-0.201019,1.00681,-0.269178,-0.181724,0.794594
28,60,-0.567232,-0.698132,-0.174533,-0.174533,-0.572257,-0.693319,-0.168475,-0.201019,1.00681,-0.26918,-0.181724,0.794594
28,60,-0.567232,-0.698132,-0.174533,-0.174533,-0.572257,-0.693319,-0.168475,-0.201019,1.00681,-0.269182,-0.181724,0.794594
28,60,-0.567232,-0.698132,-0.174533,-0.174533,-0.572257,-0.693319,-0.168475,-0.201019,1.00681,-0.269185,-0.181724,0.794594
28,60,-0.567232,-0.698132,-0.174533,-0.174533,-0.572257,-0.693319,-0.168475,-0.201019,1.00681,-0.269187,-0.181724,0.794594
28,60,-0.567232,-0.698132,-0.174533,-0.174533,-0.572257,-0.693319,-0.168475,-0.201019,1.00681,-0.269189,-0.181724,0.794594
28,60,-0.567232,-0.698132,-0.174533,-0.174533,-0.572257,-0.693319,-0.168475,-0.201019,1.00681,-0.269191,-0.181724,0.794594
28,60,-0.567232,-0.698132,-0.174533,-0.174533,-0.572257,-0.693319,-0.168475,-0.201019,1.00681,-0.269193,-0.181724,0.794594
28,60,-0.567232,-0.698132,-0.174533,-0.174533,-0.572257,-0.693319,-0.168475,-0.201019,1.00681,-0.269196,-0.181724,0.794594
28,60,-0.567232,-0.698132,-0.174533,-0.174533,-0.572257,-0.693319,-0.168475,-0.201019,1.00681,-0.269198,-0.181724,0.794594
28,60,-0.567232,-0.698132,-0.174533,-0.174533,-0.572257,-0.693319,-0.168475,-0.201019,1.00681,-0.2692,-0.181724,0.794594
28,60,-0.567232,-0.698132,-0.174533,-0.174533,-0.572257,-0.693319,-0.168475,-0.201019,1.00681,-0.269202,-0.181724,0.794594
28,60,-0.567232,-0.698132,-0.174533,-0.174533,-0.572257,-0.693319,-0.168475,-0.201019,1.00681,-0.269204,-0.181724,0.794594
28,60,-0.567232,-0.698132,-0.174533,-0.174533,-0.572257,-0.693319,-0.168475,-0.201019,1.00681,-0.269206,-0.181724,0.794594
28,60,-0.567232,-0.698132,-0.174533,-0.174533,-0.572257,-0.693319,-0.168475,-0.201019,1.00681,-0.269208,-0.181724,0.794594
28,60,-0.567232,-0.698132,-0.174533,-0.174533,-0.572257,-0.693319,-0.168475,-0.201019,1.00681,-0.26921,-0.181724,0.794594
28,60,-0.567232,-0.698132,-0.174533,-0.174533,-0.572257,-0.693319,-0.168475,-0.201019,1.00681,-0.269211,-0.181724,0.794594
28,60,-0.567232,-0.698132,-0.174533,-0.174533,-0.572257,-0.693319,-0.168475,-0.201019,1.00681,-0.269213,-0.181724,0.794594
28,60,-0.567232,-0.698132,-0.174533,-0.174533,-0.572257,-0.693319,-0.168475,-0.201019,1.00681,-0.269215,-0.181724,0.794594
28,60,-0.567232,-0.698132,-0.174533,-0.174533,-0.572257,-0.693319,-0.168475,-0.201019,1.00681,-0.269217,-0.181724,0.794594
28,60,-0.567232,-0.698132,-0.174533,-0.174533,-0.572257,-0.693319,-0.168475,-0.201019,1.00681,-0.269219,-0.181724,0.794594
28,60,-0.567232,-0.698132,-0.174533,-0.174533,-0.572257,-0.693319,-0.168475,-0.201019,1.00681,-0.269221,-0.181724,0.794594
28,60,-0.567232,-0.698132,-0.174533,-0.174533,-0.572257,-0.693319,-0.168475,-0.201019,1.00681,-0.269222,-0.181724,0.794594
28,60,-0.567232,-0.698132,-0.174533,-0.174533,-0.572257,-0.693319,-0.168475,-0.201019,1.00681,-0.269224,-0.181724,0.794594
28,60,-0.567232,-0.698132,-0.174533,-0.174533,-0.572257,-0.693319,-0.168475,-0.201019,1.00681,-0.269226,-0.181724,0.794594
28,60,-0.567232,-0.698132,-0.174533,-0.174533,-0.572257,-0.693319,-0.168475,-0.201019,1.00681,-0.269227,-0.181724,0.794594
28,60,-0.567232,-0.698132,-0.174533,-0.174533,-0.572257,-0.693319,-0.168475,-0.201019,1.00681,-0.269229,-0.181724,0.794594
28,60,-0.567232,-0.698132,-0.174533,-0.174533,-0.572257,-0.693319,-0.168475,-0.201019,1.00681,-0.269231,-0.181724,0.794594
28,60,-0.567232,-0.698132,-0.174533,-0.174533,-0.572257,-0.693319,-0.168475,-0.201019,1.00681,-0.269232,-0.181724,0.794594
28,60,-0.567232,-0.698132,-0.174533,-0.174533,-0.572257,-0.693319,-0.168475,-0.201019,1.00681,-0.269234,-0.181724,0.794594
28,60,-0.567232,-0.698132,-0.174533,-0.174533,-0.572257,-0.693319,-0.168475,-0.201019,1.00681,-0.269236,-0.181724,0.794594
28,60,-0.567232,-0.698132,-0.174533,-0.174533,-0.572257,-0.693319,-0.168475,-0.201019,1.00681,-0.269237,-0.181724,0.794594
28,60,-0.567232,-0.698132,-0.174533,-0.174533,-0.572257,-0.693319,-0.168475,-0.201019,1.00681,-0.269239,-0.181724,0.794594
28,60,-0.567232,-0.698132,-0.174533,-0.174533,-0.572257,-0.693319,-0.168475,-0.201019,1.00681,-0.26924,-0.181724,0.794594
28,60,-0.567232,-0.698132,-0.174533,-0.174533,-0.572257,-0.693319,-0.168475,-0.201019,1.00681,-0.269242,-0.181724,0.794594
28,60,-0.567232,-0.698132,-0.174533,-0.174533,-0.572257,-0.693319,-0.168475,-0.201019,1.00681,-0.269243,-0.181724,0.794594
28,60,-0.567232,-0.698132,-0.174533,-0.174533,-0.572257,-0.693319,-0.168475,-0.201019,1.00681,-0.269245,-0.181724,0.794594
28,60,-0.567232,-0.698132,-0.174533,-0.174533,-0.572257,-0.693319,-0.168475,-0.201019,1.00681,-0.269246,-0.181724,0.794594
28,60,-0.567232,-0.698132,-0.174533,-0.174533,-0.572257,-0.693319,-0.168475,-0.201019,1.00681,-0.269248,-0.181724,0.794594
28,60,-0.567232,-0.698132,-0.174533,-0.174533,-0.572257,-0.693319,-0.168475,-0.201019,1.00681,-0.269249,-0.181724,0.794594
28,60,-0.567232,-0.698132,-0.174533,-0.174533,-0.572257,-0.693319,-0.168475,-0.201019,1.00681,-0.269251,-0.181724,0.794594
28,60,-0.567232,-0.698132,-0.174533,-0.174533,-0.572257,-0.693319,-0.168475,-0.201019,1.00681,-0.269252,-0.181724,0.794594
28,60,-0.567232,-0.698132,-0.174533,-0.174533,-0.572257,-0.693319,-0.168475,-0.201019,1.00681,-0.269253,-0.181724,0.794594
28,60,-0.567232,-0.698132,-0.174533,-0.174533,-0.572257,-0.693319,-0.168475,-0.201019,1.00681,-0.269255,-0.181724,0.794594
28,60,-0.567232,-0.698132,-0.174533,-0.174533,-0.572257,-0.693319,-0.168475,-0.201019,1.00681,-0.269256,-0.181724,0.794594
28,60,-0.567232,-0.698132,-0.174533,-0.174533,-0.572257,-0.693319,-0.168475,-0.201019,1.00681,-0.269257,-0.181724,0.794594
28,60,-0.567232,-0.698132,-0.174533,-0.174533,-0.572257,-0.693319,-0.168475,-0.201019,1.00681,-0.269259,-0.181724,0.794594
28,60,-0.567232,-0.698132,-0.174533,-0.174533,-0.572257,-0.693319,-0.168475,-0.201019,1.00681,-0.26926,-0.181724,0.794594
28,60,-0.567232,-0.698132,-0.174533,-0.174533,-0.572257,-0.693319,-0.168475,-0.201019,1.00681,-0.269261,-0.181724,0.794594
28,60,-0.567232,-0.698132,-0.174533,-0.174533,-0.572257,-0.693319,-0.168475,-0.201019,1.00681,-0.269263,-0.181724,0.794594
28,60,-0.567232,-0.698132,-0.174533,-0.174533,-0.572257,-0.693319,-0.168475,-0.201019,1.00681,-0.269264,-0.181724,0.794594
28,60,-0.567232,-0.698132,-0.174533,-0.174533,-0.572257,-0.693319,-0.168475,-0.201019,1.00681,-0.269265,-0.181724,0.794594
28,60,-0.567232,-0.698132,-0.174533,-0.174533,-0.572257,-0.693319,-0.168475,-0.201019,1.00681,-0.269266,-0.181724,0.794594
28,60,-0.567232,-0.698132,-0.174533,-0.174533,-0.572257,-0.693319,-0.168475,-0.201019,1.00681,-0.269268,-0.181724,0.794594
28,60,-0.567232,-0.698132,-0.174533,-0.174533,-0.572257,-0.693319,-0.168475,-0.201019,1.00681,-0.269269,-0.181724,0.794594
28,60,-0.567232,-0.698132,-0.174533,-0.174533,-0.572257,-0.693319,-0.168475,-0.201019,1.00681,-0.26927,-0.181724,0.794594
28,60,-0.567232,-0.698132,-0.174533,-0.174533,-0.572257,-0.693319,-0.168475,-0.201019,1.00681,-0.269271,-0.181724,0.794594
28,60,-0.567232,-0.698132,-0.174533,-0.174533,-0.572257,-0.693319,-0.168475,-0.201019,1.00681,-0.269273,-0.181724,0.794594
28,60,-0.567232,-0.698132,-0.174533,-0.174533,-0.572257,-0.693319,-0.168475,-0.201019,1.00681,-0.269274,-0.181724,0.794594
28,60,-0.567232,-0.698132,-0.174533,-0.174533,-0.572257,-0.693319,-0.168475,-0.201019,1.00681,-0.269275,-0.181724,0.794594
28,60,-0.567232,-0.698132,-0.174533,-0.174533,-0.572257,-0.693319,-0.168475,-0.201019,1.00681,-0.269276,-0.181724,0.794594
28,60,-0.567232,-0.698132,-0.174533,-0.174533,-0.572257,-0.693319,-0.168475,-0.201019,1.00681,-0.269277,-0.181724,0.794594
28,60,-0.567232,-0.698132,-0.174533,-0.174533,-0.572257,-0.693319,-0.168475,-0.201019,1.00681,-0.269278,-0.181724,0.794594
28,60,-0.567232,-0.698132,-0.174533,-0.174533,-0.572257,-0.693319,-0.168475,-0.201019,1.00681,-0.269279,-0.181724,0.794594
28,60,-0.567232,-0.698132,-0.174533,-0.174533,-0.572257,-0.693319,-0.168475,-0.201019,1.00681,-0.26928,-0.181724,0.794594
28,60,-0.567232,-0.698132,-0.174533,-0.174533,-0.572257,-0.693319,-0.168475,-0.201019,1.00681,-0.269282,-0.181724,0.794594
28,60,-0.567232,-0.698132,-0.174533,-0.174533,-0.572257,-0.693319,-0.168475,-0.201019,1.00681,-0.269283,-0.181724,0.794594
28,60,-0.567232,-0.698132,-0.174533,-0.174533,-0.572257,-0.693319,-0.168475,-0.201019,1.00681,-0.269284,-0.181724,0.794594
28,60,-0.567232,-0.698132,-0.174533,-0.174533,-0.572257,-0.693319,-0.168475,-0.201019,1.00681,-0.269285,-0.181724,0.794594
28,60,-0.567232,-0.698132,-0.174533,-0.174533,-0.572257,-0.693319,-0.168475,-0.201019,1.00681,-0.269286,-0.181724,0.794594
28,60,-0.567232,-0.698132,-0.174533,-0.174533,-0.572257,-0.693319,-0.168475,-0.201019,1.00681,-0.269287,-0.181724,0.794594
28,60,-0.567232,-0.698132,-0.174533,-0.174533,-0.572257,-0.693319,-0.168475,-0.201019,1.00681,-0.269288,-0.181724,0.794594
28,60,-0.567232,-0.698132,-0.174533,-0.174533,-0.572257,-0.693319,-0.168475,-0.201019,1.00681,-0.269503,-0.181724,0.794594
28,60,-0.567232,-0.698132,-0.174533,-0.174533,-0.572257,-0.693319,-0.168475,-0.201019,1.00681,-0.269503,-0.181724,0.794594
28,60,-0.567232,-0.698132,-0.174533,-0.174533,-0.572257,-0.693319,-0.168475,-0.201019,1.00681,-0.269503,-0.181724,0.794594
28,60,-0.567232,-0.698132,-0.174533,-0.174533,-0.572257,-0.693319,-0.168475,-0.201019,1.00681,-0.269503,-0.181724,0.794594
28,60,-0.567232,-0.698132,-0.174533,-0.174533,-0.572257,-0.693319,-0.168475,-0.201019,1.00681,-0.269503,-0.181724,0.794594
28,60,-0.567232,-0.698132,-0.174533,-0.174533,-0.572257,-0.693319,-0.168475,-0.201019,1.00681,-0.269503,-0.181724,0.794594
28,60,-0.567232,-0.698132,-0.174533,-0.174533,-0.572257,-0.693319,-0.168475,-0.201019,1.00681,-0.269503,-0.181724,0.794594
28,60,-0.567232,-0.698132,-0.174533,-0.174533,-0.572257,-0.693319,-0.168475,-0.201019,1.00681,-0.269503,-0.181724,0.794594
28,60,-0.567232,-0.698132,-0.174533,-0.174533,-0.572257,-0.693319,-0.168475,-0.201019,1.00681,-0.269503,-0.181724,0.794594
28,60,-0.567232,-0.698132,-0.174533,-0.174533,-0.572257,-0.693319,-0.168475,-0.201019,1.00681,-0.269503,-0.181724,0.794594
28,60,-0.567232,-0.698132,-0.174533,-0.174533,-0.572257,-0.693319,-0.168475,-0.201019,1.00681,-0.269503,-0.181724,0.794594
28,60,-0.567232,-0.698132,-0.174533,-0.174533,-0.572257,-0.693319,-0.168475,-0.201019,1.00681,-0.269503,-0.181724,0.794594
28,60,-0.567232,-0.698132,-0.174533,-0.174533,-0.572257,-0.693319,-0.168475,-0.201019,1.00681,-0.269503,-0.181724,0.794594
28,60,-0.567232,-0.698132,-0.174533,-0.174533,-0.572257,-0.693319,-0.168475,-0.201019,1.00681,-0.269503,-0.181724,0.794594
28,60,-0.567232,-0.698132,-0.174533,-0.174533,-0.572257,-0.693319,-0.168475,-0.201019,1.00681,-0.269503,-0.181724,0.794594
28,60,-0.567232,-0.698132,-0.174533,-0.174533,-0.572257,-0.693319,-0.168475,-0.201019,1.00681,-0.269503,-0.181724,0.794594
28,60,-0.567232,-0.698132,-0.174533,-0.174533,-0.572257,-0.693319,-0.168475,-0.201019,1.00681,-0.269503,-0.181724,0.794594
28,60,-0.567232,-0.698132,-0.174533,-0.174533,-0.572257,-0.693319,-0.168475,-0.201019,1.00681,-0.269503,-0.181724,0.794594
28,60,-0.567232,-0.698132,-0.174533,-0.174533,-0.572257,-0.693319,-0.168475,-0.201019,1.00681,-0.269503,-0.181724,0.794594
28,60,-0.567232,-0.698132,-0.174533,-0.174533,-0.572257,-0.693319,-0.168475,-0.201019,1.00681,-0.269503,-0.181724,0.794594
28,60,-0.567232,-0.698132,-0.174533,-0.174533,-0.572257,-0.693319,-0.168475,-0.201019,1.00681,-0.269503,-0.181724,0.794594
28,60,-0.567232,-0.698132,-0.174533,-0.174533,-0.572257,-0.693319,-0.168475,-0.201019,1.00681,-0.269503,-0.181724,0.794594
28,60,-0.567232,-0.698132,-0.174533,-0.174533,-0.572257,-0.693319,-0.168475,-0.201019,1.00681,-0.269503,-0.181724,0.794594
28,60,-0.567232,-0.698132,-0.174533,-0.174533,-0.572257,-0.693319,-0.168475,-0.201019,1.00681,-0.269503,-0.181724,0.794594
28,60,-0.567232,-0.698132,-0.174533,-0.174533,-0.572257,-0.693319,-0.168475,-0.201019,1.00681,-0.269503,-0.181724,0.794594
28,60,-0.567232,-0.698132,-0.174533,-0.174533,-0.572257,-0.693319,-0.168475,-0.201019,1.00681,-0.269503,-0.181724,0.794594
28,60,-0.567232,-0.698132,-0.174533,-0.174533,-0.572257,-0.693319,-0.168475,-0.201019,1.00681,-0.269503,-0.181724,0.794594
28,60,-0.567232,-0.698132,-0.174533,-0.174533,-0.572257,-0.693319,-0.168475,-0.201019,1.00681,-0.269503,-0.181724,0.794594
28,60,-0.567232,-0.698132,-0.174533,-0.174533,-0.572257,-0.693319,-0.168475,-0.201019,1.00681,-0.269503,-0.181724,0.794594
28,60,-0.567232,-0.698132,-0.174533,-0.174533,-0.572257,-0.693319,-0.168475,-0.201019,1.00493,-0.269503,-0.181724,0.794594
28,60,-0.567232,-0.698132,-0.174533,-0.174533,-0.572257,-0.693319,-0.168475,-0.201019,1.00493,-0.269503,-0.181724,0.794594
28,60,-0.567232,-0.698132,-0.174533,-0.174533,-0.572257,-0.693319,-0.168475,-0.201019,1.00493,-0.269503,-0.181724,0.794594
28,60,-0.567232,-0.698132,-0.174533,-0.174533,-0.572257,-0.693319,-0.168475,-0.201019,1.00493,-0.269503,-0.181724,0.794594
28,60,-0.567232,-0.698132,-0.174533,-0.174533,-0.572257,-0.693319,-0.168475,-0.201019,1.00493,-0.269503,-0.181724,0.794594
28,60,-0.567232,-0.698132,-0.174533,-0.174533,-0.572257,-0.693319,-0.168475,-0.201019,1.00493,-0.269503,-0.181724,0.794594
28,60,-0.567232,-0.698132,-0.174533,-0.174533,-0.572257,-0.693319,-0.168475,-0.201019,1.00493,-0.269503,-0.181724,0.794594
28,60,-0.567232,-0.698132,-0.174533,-0.174533,-0.572257,-0.693319,-0.168475,-0.201019,1.00493,-0.269503,-0.181724,0.794594
28,60,-0.567232,-0.698132,-0.174533,-0.174533,-0.572257,-0.693319,-0.168475,-0.201019,1.00493,-0.269503,-0.181724,0.794594
28,60,-0.567232,-0.698132,-0.174533,-0.174533,-0.572257,-0.693319,-0.168475,-0.201019,1.00493,-0.269503,-0.181724,0.794594
28,60,-0.567232,-0.698132,-0.174533,-0.174533,-0.572257,-0.693319,-0.168475,-0.201019,1.00493,-0.269503,-0.181724,0.794594
28,60,-0.567232,-0.698132,-0.174533,-0.174533,-0.572257,-0.693319,-0.168475,-0.201019,1.00493,-0.269503,-0.181724,0.794594
28,60,-0.567232,-0.698132,-0.174533,-0.174533,-0.572257,-0.69337,-0.168475,-0.201019,1.00493,-0.266603,-0.181724,0.794594
28,60,-0.567232,-0.698132,-0.174533,-0.174533,-0.572257,-0.69337,-0.168475,-0.201019,1.00493,-0.266603,-0.181724,0.794594
28,60,-0.567232,-0.698132,-0.174533,-0.174533,-0.572257,-0.69337,-0.168475,-0.201019,1.00493,-0.266603,-0.181724,0.794594
28,60,-0.567232,-0.698132,-0.174533,-0.174533,-0.572257,-0.69337,-0.168475,-0.201019,1.00493,-0.266603,-0.181724,0.794594
28,60,-0.567232,-0.698132,-0.174533,-0.174533,-0.572257,-0.69337,-0.168475,-0.201019,1.00493,-0.266603,-0.181724,0.794594
28,60,-0.567232,-0.698132,-0.174533,-0.174533,-0.572257,-0.69337,-0.168475,-0.201019,1.00493,-0.266603,-0.181724,0.794594
28,60,-0.567232,-0.698132,-0.174533,-0.174533,-0.572257,-0.69337,-0.168475,-0.201019,1.00493,-0.266603,-0.181724,0.794594
28,60,-0.567232,-0.698132,-0.174533,-0.174533,-0.572257,-0.69337,-0.168475,-0.201019,1.00493,-0.266603,-0.181724,0.794594
28,60,-0.567232,-0.698132,-0.174533,-0.174533,-0.572257,-0.69337,-0.168475,-0.201019,1.00493,-0.266603,-0.181724,0.794594
28,60,-0.567232,-0.698132,-0.174533,-0.174533,-0.572257,-0.69337,-0.168475,-0.201019,1.00493,-0.266603,-0.181724,0.794594
28,60,-0.567232,-0.698132,-0.174533,-0.174533,-0.572257,-0.69337,-0.168475,-0.201019,1.00493,-0.266603,-0.181724,0.794594
28,60,-0.567232,-0.698132,-0.174533,-0.174533,-0.572257,-0.69337,-0.168475,-0.201019,1.00493,-0.266603,-0.181724,0.794594
28,60,-0.567232,-0.698132,-0.174533,-0.174533,-0.572257,-0.69337,-0.168475,-0.201019,1.00493,-0.266603,-0.181724,0.794594
28,60,-0.567232,-0.698132,-0.174533,-0.174533,-0.572257,-0.69337,-0.168475,-0.201019,1.00493,-0.266603,-0.181724,0.794594
28,60,-0.567232,-0.698132,-0.174533,-0.174533,-0.572257,-0.69337,-0.168475,-0.201019,1.00493,-0.266603,-0.181724,0.794594
28,60,-0.567232,-0.698132,-0.174533,-0.174533,-0.572257,-0.69337,-0.168475,-0.201019,1.00493,-0.266603,-0.181724,0.794594
28,60,-0.567232,-0.698132,-0.174533,-0.174533,-0.572257,-0.69337,-0.168475,-0.201019,1.00493,-0.266603,-0.181724,0.794594
28,60,-0.567232,-0.698132,-0.174533,-0.174533,-0.572257,-0.69337,-0.168475,-0.201019,1.00493,-0.266603,-0.181724,0.794594
28,60,-0.567232,-0.698132,-0.174533,-0.174533,-0.572257,-0.69337,-0.168475,-0.201019,1.00493,-0.266603,-0.181724,0.794594
28,60,-0.567232,-0.698132,-0.174533,-0.174533,-0.572257,-0.69337,-0.168475,-0.201019,1.00493,-0.266603,-0.181724,0.794594
28,60,-0.567232,-0.698132,-0.174533,-0.174533,-0.572257,-0.69337,-0.168475,-0.201019,1.00493,-0.266603,-0.181724,0.794594
28,60,-0.567232,-0.698132,-0.174533,-0.174533,-0.572257,-0.69337,-0.168475,-0.201019,1.00493,-0.266603,-0.181724,0.794594
28,60,-0.567232,-0.698132,-0.174533,-0.174533,-0.572257,-0.69337,-0.168475,-0.201019,1.00493,-0.266603,-0.181724,0.794594
28,60,-0.567232,-0.698132,-0.174533,-0.174533,-0.572257,-0.69337,-0.168475,-0.201019,1.00493,-0.266603,-0.181724,0.794594
28,60,-0.567232,-0.698132,-0.174533,-0.174533,-0.572257,-0.69337,-0.168475,-0.201019,1.00493,-0.266603,-0.181724,0.794594
28,60,-0.567232,-0.698132,-0.174533,-0.174533,-0.572257,-0.69337,-0.168475,-0.201019,1.00493,-0.266603,-0.181724,0.794594
28,60,-0.567232,-0.698132,-0.174533,-0.174533,-0.572257,-0.69337,-0.168475,-0.201019,1.00493,-0.266603,-0.181724,0.794594
28,60,-0.567232,-0.698132,-0.174533,-0.174533,-0.572257,-0.69337,-0.168475,-0.201019,1.00493,-0.266603,-0.181724,0.794594
28,60,-0.567232,-0.698132,-0.174533,-0.174533,-0.572257,-0.69337,-0.168475,-0.201019,1.00493,-0.266603,-0.181724,0.794594
28,60,-0.567232,-0.698132,-0.174533,-0.174533,-0.572257,-0.69337,-0.168475,-0.201019,1.00493,-0.266603,-0.181724,0.794594
28,60,-0.567232,-0.698132,-0.174533,-0.174533,-0.572257,-0.69337,-0.168475,-0.201019,1.00493,-0.266603,-0.181724,0.794594
28,60,-0.567232,-0.698132,-0.174533,-0.174533,-0.572257,-0.69337,-0.168475,-0.201019,1.00493,-0.266603,-0.181724,0.794594
28,60,-0.567232,-0.698132,-0.174533,-0.174533,-0.572257,-0.69337,-0.168475,-0.201019,1.00493,-0.266603,-0.181724,0.794594
28,60,-0.567232,-0.698132,-0.174533,-0.174533,-0.572257,-0.69337,-0.168475,-0.201019,1.00493,-0.266603,-0.181724,0.794594
28,60,-0.567232,-0.698132,-0.174533,-0.174533,-0.572257,-0.69337,-0.168475,-0.201019,1.00493,-0.266603,-0.181724,0.794594
28,60,-0.567232,-0.698132,-0.174533,-0.174533,-0.572257,-0.69337,-0.168475,-0.201019,1.00493,-0.266603,-0.181724,0.794594
28,60,-0.567232,-0.698132,-0.174533,-0.174533,-0.572257,-0.69337,-0.168475,-0.201019,1.00493,-0.266603,-0.181724,0.794594
28,60,-0.567232,-0.698132,-0.174533,-0.174533,-0.572257,-0.69337,-0.168475,-0.201019,1.00493,-0.266603,-0.181724,0.794594
28,60,-0.567232,-0.698132,-0.174533,-0.174533,-0.572257,-0.69337,-0.168475,-0.201019,1.00493,-0.266603,-0.181724,0.794594
28,60,-0.567232,-0.698132,-0.174533,-0.174533,-0.572257,-0.69337,-0.168475,-0.201019,1.00493,-0.266603,-0.181724,0.794594
28,60,-0.567232,-0.698132,-0.174533,-0.174533,-0.572257,-0.69337,-0.168475,-0.201019,1.00493,-0.266603,-0.181724,0.794594
28,60,-0.567232,-0.698132,-0.174533,-0.174533,-0.572257,-0.69337,-0.168475,-0.201019,1.00493,-0.266603,-0.181724,0.794594
28,60,-0.567232,-0.698132,-0.174533,-0.174533,-0.572257,-0.69337,-0.168475,-0.201019,1.00493,-0.266603,-0.181724,0.794594
28,60,-0.567232,-0.698132,-0.174533,-0.174533,-0.572257,-0.69337,-0.168475,-0.201019,1.00493,-0.266603,-0.181724,0.794594
28,60,-0.567232,-0.698132,-0.174533,-0.174533,-0.572257,-0.69337,-0.168475,-0.201019,1.00493,-0.266603,-0.181724,0.794594
28,60,-0.567232,-0.698132,-0.174533,-0.174533,-0.572257,-0.69337,-0.168475,-0.201019,1.00493,-0.266603,-0.181724,0.794594
28,60,-0.567232,-0.698132,-0.174533,-0.174533,-0.572257,-0.69337,-0.168475,-0.201019,1.00493,-0.266603,-0.181724,0.794594
28,60,-0.567232,-0.698132,-0.174533,-0.174533,-0.572257,-0.69337,-0.168475,-0.201019,1.00493,-0.266603,-0.181724,0.794594
28,60,-0.567232,-0.698132,-0.174533,-0.174533,-0.572257,-0.69337,-0.168475,-0.201019,1.00493,-0.266603,-0.181724,0.794594
28,60,-0.567232,-0.698132,-0.174533,-0.174533,-0.572257,-0.69337,-0.168475,-0.201019,1.00493,-0.266603,-0.181724,0.794594
28,60,-0.567232,-0.698132,-0.174533,-0.174533,-0.572257,-0.69337,-0.168475,-0.201019,1.00493,-0.266603,-0.181724,0.794594
28,60,-0.567232,-0.698132,-0.174533,-0.174533,-0.572257,-0.69337,-0.168475,-0.201019,1.00493,-0.266603,-0.181724,0.794594
28,60,-0.567232,-0.698132,-0.174533,-0.174533,-0.572257,-0.69337,-0.168475,-0.201019,1.00493,-0.266603,-0.181724,0.794594
28,60,-0.567232,-0.698132,-0.174533,-0.174533,-0.572257,-0.69337,-0.168475,-0.201019,1.00493,-0.266603,-0.181724,0.794594
28,60,-0.567232,-0.698132,-0.174533,-0.174533,-0.572257,-0.69337,-0.168475,-0.201019,1.00493,-0.266603,-0.181724,0.794594
28,60,-0.567232,-0.698132,-0.174533,-0.174533,-0.572257,-0.69337,-0.168475,-0.201019,1.00493,-0.266603,-0.181724,0.794594
28,60,-0.567232,-0.698132,-0.174533,-0.174533,-0.572257,-0.69337,-0.168475,-0.201019,1.00493,-0.266603,-0.181724,0.794594
28,60,-0.567232,-0.698132,-0.174533,-0.174533,-0.572257,-0.69337,-0.168475,-0.201019,1.00493,-0.266603,-0.181724,0.794594
28,60,-0.567232,-0.698132,-0.174533,-0.174533,-0.572257,-0.69337,-0.168475,-0.201019,1.00493,-0.266603,-0.181724,0.794594
28,60,-0.567232,-0.698132,-0.174533,-0.174533,-0.572257,-0.69337,-0.168475,-0.201019,1.00493,-0.266603,-0.181724,0.794594
28,60,-0.567232,-0.698132,-0.174533,-0.174533,-0.572257,-0.69337,-0.168475,-0.201019,1.00493,-0.266603,-0.181724,0.794594
28,60,-0.567232,-0.698132,-0.174533,-0.174533,-0.572257,-0.69337,-0.168475,-0.201019,1.00493,-0.266603,-0.181724,0.794594
28,60,-0.567232,-0.698132,-0.174533,-0.174533,-0.572257,-0.69337,-0.168475,-0.201019,1.00493,-0.266603,-0.181724,0.794594
28,60,-0.567232,-0.698132,-0.174533,-0.174533,-0.572257,-0.69337,-0.168475,-0.201019,1.00493,-0.266603,-0.181724,0.794594
28,60,-0.567232,-0.698132,-0.174533,-0.174533,-0.572257,-0.69337,-0.168475,-0.201019,1.00493,-0.266603,-0.181724,0.794594
28,60,-0.567232,-0.698132,-0.174533,-0.174533,-0.572257,-0.69337,-0.168475,-0.201019,1.00493,-0.266603,-0.181724,0.794594
28,60,-0.567232,-0.698132,-0.174533,-0.174533,-0.572257,-0.69337,-0.168475,-0.201019,1.00493,-0.266603,-0.181724,0.794594
28,60,-0.567232,-0.698132,-0.174533,-0.174533,-0.572257,-0.69337,-0.168475,-0.201019,1.00493,-0.266603,-0.181724,0.794594
28,60,-0.567232,-0.698132,-0.174533,-0.174533,-0.572257,-0.69337,-0.168475,-0.201019,1.00493,-0.266603,-0.181724,0.794594
28,60,-0.567232,-0.698132,-0.174533,-0.174533,-0.572257,-0.69337,-0.168475,-0.201019,1.00493,-0.266603,-0.181724,0.794594
28,60,-0.567232,-0.698132,-0.174533,-0.174533,-0.572257,-0.69337,-0.168475,-0.201019,1.00493,-0.266603,-0.181724,0.794594
28,60,-0.567232,-0.698132,-0.174533,-0.174533,-0.572257,-0.69337,-0.168475,-0.201019,1.00493,-0.266603,-0.181724,0.794594
28,60,-0.567232,-0.698132,-0.174533,-0.174533,-0.572257,-0.69337,-0.168475,-0.201019,1.00493,-0.266603,-0.181724,0.794594
28,60,-0.567232,-0.698132,-0.174533,-0.174533,-0.572257,-0.69337,-0.168475,-0.201019,1.00493,-0.266603,-0.181724,0.794594
28,60,-0.567232,-0.698132,-0.174533,-0.174533,-0.572257,-0.69337,-0.168475,-0.201019,1.00493,-0.266603,-0.181724,0.794594
28,60,-0.567232,-0.698132,-0.174533,-0.174533,-0.572257,-0.69337,-0.168475,-0.201019,1.00493,-0.266603,-0.181724,0.794594
28,60,-0.567232,-0.698132,-0.174533,-0.174533,-0.572257,-0.69337,-0.168475,-0.201019,1.00493,-0.266603,-0.181724,0.794594
28,60,-0.567232,-0.698132,-0.174533,-0.174533,-0.572257,-0.69337,-0.168475,-0.201019,1.00493,-0.266603,-0.181724,0.794594
28,60,-0.567232,-0.698132,-0.174533,-0.174533,-0.572257,-0.69337,-0.168475,-0.201019,1.00493,-0.266603,-0.181724,0.794594
28,60,-0.567232,-0.698132,-0.174533,-0.174533,-0.572257,-0.69337,-0.168475,-0.201019,1.00493,-0.266603,-0.181724,0.794594
28,60,-0.567232,-0.698132,-0.174533,-0.174533,-0.572257,-0.69337,-0.168475,-0.201019,1.00493,-0.266603,-0.181724,0.794594
28,60,-0.567232,-0.698132,-0.174533,-0.174533,-0.572257,-0.69337,-0.168475,-0.201019,1.00493,-0.266603,-0.181724,0.794594
28,60,-0.567232,-0.698132,-0.174533,-0.174533,-0.572257,-0.69337,-0.168475,-0.201019,1.00493,-0.266603,-0.181724,0.794594
28,60,-0.567232,-0.698132,-0.174533,-0.174533,-0.572257,-0.69337,-0.168475,-0.201019,1.00493,-0.266603,-0.181724,0.794594
28,60,-0.567232,-0.698132,-0.174533,-0.174533,-0.572257,-0.69337,-0.168475,-0.201019,1.00493,-0.266603,-0.181724,0.794594
28,60,-0.567232,-0.698132,-0.174533,-0.174533,-0.572257,-0.69337,-0.168475,-0.201019,1.00493,-0.266603,-0.181724,0.794594
28,60,-0.567232,-0.698132,-0.174533,-0.174533,-0.572257,-0.69337,-0.168475,-0.201019,1.00493,-0.266603,-0.181724,0.794594
28,60,-0.567232,-0.698132,-0.174533,-0.174533,-0.572257,-0.69337,-0.168475,-0.201019,1.00493,-0.266603,-0.181724,0.794594
28,60,-0.567232,-0.698132,-0.174533,-0.174533,-0.572257,-0.69337,-0.168475,-0.201019,1.00493,-0.266603,-0.181724,0.794594
28,60,-0.567232,-0.698132,-0.174533,-0.174533,-0.572257,-0.69337,-0.168475,-0.201019,1.00493,-0.266603,-0.181724,0.794594
28,60,-0.567232,-0.698132,-0.174533,-0.174533,-0.572257,-0.69337,-0.168475,-0.201019,1.00493,-0.266603,-0.181724,0.794594
28,60,-0.567232,-0.698132,-0.174533,-0.174533,-0.572257,-0.69337,-0.168475,-0.201019,1.00493,-0.266603,-0.181724,0.794594
28,60,-0.567232,-0.698132,-0.174533,-0.174533,-0.572257,-0.69337,-0.168475,-0.201019,1.00493,-0.266603,-0.181724,0.794594
28,60,-0.567232,-0.698132,-0.174533,-0.174533,-0.572257,-0.69337,-0.168475,-0.201019,1.00493,-0.266603,-0.181724,0.794594
28,60,-0.567232,-0.698132,-0.174533,-0.174533,-0.572257,-0.69337,-0.168475,-0.201019,1.00493,-0.266603,-0.181724,0.794594
28,60,-0.567232,-0.698132,-0.174533,-0.174533,-0.572257,-0.69337,-0.168475,-0.201019,1.00493,-0.266603,-0.181724,0.794594
28,60,-0.567232,-0.698132,-0.174533,-0.174533,-0.572257,-0.69337,-0.168475,-0.201019,1.00493,-0.266603,-0.181724,0.794594
28,60,-0.567232,-0.698132,-0.174533,-0.174533,-0.572257,-0.69337,-0.168475,-0.201019,1.00493,-0.266603,-0.181724,0.794594
28,60,-0.567232,-0.698132,-0.174533,-0.174533,-0.572257,-0.69337,-0.168475,-0.201019,1.00493,-0.266603,-0.181724,0.794594
28,60,-0.567232,-0.698132,-0.174533,-0.174533,-0.572257,-0.69337,-0.168475,-0.201019,1.00493,-0.266603,-0.181724,0.794594
28,60,-0.567232,-0.698132,-0.174533,-0.174533,-0.572257,-0.69337,-0.168475,-0.201019,1.00493,-0.266603,-0.181724,0.794594
28,60,-0.567232,-0.698132,-0.174533,-0.174533,-0.572257,-0.69337,-0.168475,-0.201019,1.00493,-0.266603,-0.181724,0.794594
28,60,-0.567232,-0.698132,-0.174533,-0.174533,-0.572257,-0.69337,-0.168475,-0.201019,1.00493,-0.266603,-0.181724,0.794594
28,60,-0.567232,-0.698132,-0.174533,-0.174533,-0.572257,-0.69337,-0.168475,-0.201019,1.00493,-0.266603,-0.181724,0.794594
28,60,-0.567232,-0.698132,-0.174533,-0.174533,-0.572257,-0.69337,-0.168475,-0.201019,1.00493,-0.266603,-0.181724,0.794594
28,60,-0.567232,-0.698132,-0.174533,-0.174533,-0.572257,-0.69337,-0.168475,-0.201019,1.00493,-0.266603,-0.181724,0.794594
28,60,-0.567232,-0.698132,-0.174533,-0.174533,-0.572257,-0.69337,-0.168475,-0.201019,1.00493,-0.266603,-0.181724,0.794594
28,60,-0.567232,-0.698132,-0.174533,-0.174533,-0.572257,-0.69337,-0.168475,-0.201019,1.00493,-0.266603,-0.181724,0.794594
28,60,-0.567232,-0.698132,-0.174533,-0.174533,-0.572257,-0.69337,-0.168475,-0.201019,1.00493,-0.266603,-0.181724,0.794594
28,60,-0.567232,-0.698132,-0.174533,-0.174533,-0.572257,-0.69337,-0.168475,-0.201019,1.00493,-0.266603,-0.181724,0.794594
28,60,-0.567232,-0.698132,-0.174533,-0.174533,-0.572257,-0.69337,-0.168475,-0.201019,1.00493,-0.266603,-0.181724,0.794594
28,60,-0.567232,-0.698132,-0.174533,-0.174533,-0.572257,-0.69337,-0.168475,-0.201019,1.00493,-0.266603,-0.181724,0.794594
28,60,-0.567232,-0.698132,-0.174533,-0.174533,-0.572257,-0.69337,-0.168475,-0.201019,1.00493,-0.266603,-0.181724,0.794594
28,60,-0.567232,-0.698132,-0.174533,-0.174533,-0.572257,-0.69337,-0.168475,-0.201019,1.00493,-0.266603,-0.181724,0.794594
28,60,-0.567232,-0.698132,-0.174533,-0.174533,-0.572257,-0.69337,-0.168475,-0.201019,1.00493,-0.266603,-0.181724,0.794594
28,60,-0.567232,-0.698132,-0.174533,-0.174533,-0.572257,-0.69337,-0.168475,-0.201019,1.00493,-0.266603,-0.181724,0.794594
28,60,-0.567232,-0.698132,-0.174533,-0.174533,-0.572257,-0.69337,-0.168475,-0.201019,1.00493,-0.266603,-0.181724,0.794594
28,60,-0.567232,-0.698132,-0.174533,-0.174533,-0.572257,-0.69337,-0.168475,-0.201019,1.00493,-0.266603,-0.181724,0.794594
28,60,-0.567232,-0.698132,-0.174533,-0.174533,-0.572257,-0.69337,-0.168475,-0.201019,1.00493,-0.266603,-0.181724,0.794594
28,60,-0.567232,-0.698132,-0.174533,-0.174533,-0.572257,-0.69337,-0.168475,-0.201019,1.00493,-0.266603,-0.181724,0.794594
28,60,-0.567232,-0.698132,-0.174533,-0.174533,-0.572257,-0.69337,-0.168475,-0.201019,1.00493,-0.266603,-0.181724,0.794594
28,60,-0.567232,-0.698132,-0.174533,-0.174533,-0.572257,-0.69337,-0.168475,-0.201019,1.00493,-0.266603,-0.181724,0.794594
28,60,-0.567232,-0.698132,-0.174533,-0.174533,-0.572257,-0.69337,-0.168475,-0.201019,1.00493,-0.266603,-0.181724,0.794594
28,60,-0.567232,-0.698132,-0.174533,-0.174533,-0.572257,-0.69337,-0.168475,-0.201019,1.00493,-0.266603,-0.181724,0.794594
28,60,-0.567232,-0.698132,-0.174533,-0.174533,-0.572257,-0.69337,-0.168475,-0.201019,1.00493,-0.266603,-0.181724,0.794594
28,60,-0.567232,-0.698132,-0.174533,-0.174533,-0.572257,-0.69337,-0.168475,-0.201019,1.00493,-0.266603,-0.181724,0.794594
28,60,-0.567232,-0.698132,-0.174533,-0.174533,-0.572257,-0.69337,-0.168475,-0.201019,1.00493,-0.266603,-0.181724,0.794594
28,60,-0.567232,-0.698132,-0.174533,-0.174533,-0.572257,-0.69337,-0.168475,-0.201019,1.00493,-0.266603,-0.181724,0.794594
28,60,-0.567232,-0.698132,-0.174533,-0.174533,-0.572257,-0.69337,-0.168475,-0.201019,1.00493,-0.266603,-0.181724,0.794594
28,60,-0.567232,-0.698132,-0.174533,-0.174533,-0.572257,-0.69337,-0.168475,-0.201019,1.00493,-0.266603,-0.181724,0.794594
28,60,-0.567232,-0.698132,-0.174533,-0.174533,-0.572257,-0.69337,-0.168475,-0.201019,1.00493,-0.266603,-0.181724,0.794594
28,60,-0.567232,-0.698132,-0.174533,-0.174533,-0.572257,-0.69337,-0.168475,-0.201019,1.00493,-0.266603,-0.181724,0.794594
28,60,-0.567232,-0.698132,-0.174533,-0.174533,-0.572257,-0.69337,-0.168475,-0.201019,1.00493,-0.266603,-0.181724,0.794594
28,60,-0.567232,-0.698132,-0.174533,-0.174533,-0.572257,-0.69337,-0.168408,-0.200976,1.00493,-0.266603,-0.183765,0.7933
28,60,-0.567232,-0.698132,-0.174533,-0.174533,-0.572257,-0.69337,-0.168408,-0.200976,1.00493,-0.266603,-0.183765,0.7933
28,60,-0.567232,-0.698132,-0.174533,-0.174533,-0.572257,-0.69337,-0.168408,-0.200976,1.00493,-0.266603,-0.183765,0.7933
28,60,-0.567232,-0.698132,-0.174533,-0.174533,-0.572257,-0.69337,-0.168408,-0.200976,1.00493,-0.266603,-0.183765,0.7933
28,60,-0.567232,-0.698132,-0.174533,-0.174533,-0.572257,-0.69337,-0.168408,-0.200976,1.00493,-0.266603,-0.183765,0.7933
28,60,-0.567232,-0.698132,-0.174533,-0.174533,-0.572257,-0.69337,-0.168408,-0.200976,1.00493,-0.266603,-0.183765,0.7933
28,60,-0.567232,-0.698132,-0.174533,-0.174533,-0.572257,-0.69337,-0.168408,-0.200976,1.00493,-0.266603,-0.183765,0.7933
28,60,-0.567232,-0.698132,-0.174533,-0.174533,-0.572257,-0.69337,-0.168408,-0.200976,1.00493,-0.266603,-0.183765,0.7933
28,60,-0.567232,-0.698132,-0.174533,-0.174533,-0.572257,-0.69337,-0.168408,-0.200976,1.00493,-0.266603,-0.183765,0.7933
28,60,-0.567232,-0.698132,-0.174533,-0.174533,-0.572257,-0.69337,-0.168408,-0.200976,1.00493,-0.266603,-0.183765,0.7933
28,60,-0.567232,-0.698132,-0.174533,-0.174533,-0.572257,-0.69337,-0.168408,-0.200976,1.00493,-0.266603,-0.183765,0.7933
28,60,-0.567232,-0.698132,-0.174533,-0.174533,-0.572257,-0.69337,-0.168469,-0.200958,1.00493,-0.266603,-0.181919,0.792734
28,60,-0.567232,-0.698132,-0.174533,-0.174533,-0.572257,-0.69337,-0.168469,-0.200958,1.00493,-0.266603,-0.181919,0.792734
28,60,-0.567232,-0.698132,-0.174533,-0.174533,-0.572257,-0.69337,-0.168469,-0.200958,1.00493,-0.266603,-0.181919,0.792734
28,60,-0.567232,-0.698132,-0.174533,-0.174533,-0.572257,-0.69337,-0.168469,-0.200958,1.00493,-0.266603,-0.181919,0.792734
28,60,-0.567232,-0.698132,-0.174533,-0.174533,-0.572257,-0.69337,-0.168469,-0.200958,1.00493,-0.266603,-0.181919,0.792734
28,60,-0.567232,-0.698132,-0.174533,-0.174533,-0.572257,-0.69337,-0.168469,-0.200958,1.00493,-0.266603,-0.181919,0.792734
28,60,-0.567232,-0.698132,-0.174533,-0.174533,-0.572257,-0.69337,-0.168469,-0.200958,1.00493,-0.266603,-0.181919,0.792734
28,60,-0.567232,-0.698132,-0.174533,-0.174533,-0.572257,-0.69337,-0.168469,-0.200958,1.00493,-0.266603,-0.181919,0.792734
28,60,-0.567232,-0.698132,-0.174533,-0.174533,-0.572257,-0.69337,-0.168469,-0.200958,1.00493,-0.266603,-0.181919,0.792734
28,60,-0.567232,-0.698132,-0.174533,-0.174533,-0.572257,-0.69337,-0.168469,-0.200958,1.00493,-0.266603,-0.181919,0.792734
28,60,-0.567232,-0.698132,-0.174533,-0.174533,-0.572257,-0.69337,-0.168469,-0.200958,1.00493,-0.266603,-0.181919,0.792734
28,60,-0.567232,-0.698132,-0.174533,-0.174533,-0.572257,-0.69337,-0.168469,-0.200958,1.00493,-0.266603,-0.181919,0.792734
28,60,-0.567232,-0.698132,-0.174533,-0.174533,-0.572257,-0.69337,-0.168469,-0.200958,1.00493,-0.266603,-0.181919,0.792734
28,60,-0.567232,-0.698132,-0.174533,-0.174533,-0.572257,-0.69337,-0.168469,-0.200958,1.00493,-0.266603,-0.181919,0.792734
28,60,-0.567232,-0.698132,-0.174533,-0.174533,-0.572257,-0.69337,-0.168469,-0.200958,1.00493,-0.266603,-0.181919,0.792734
28,60,-0.567232,-0.698132,-0.174533,-0.174533,-0.572257,-0.69337,-0.168469,-0.200958,1.00493,-0.266603,-0.181919,0.792734
28,60,-0.567232,-0.698132,-0.174533,-0.174533,-0.572257,-0.69337,-0.168469,-0.200958,1.00493,-0.266603,-0.181919,0.792734
28,60,-0.567232,-0.698132,-0.174533,-0.174533,-0.572257,-0.69337,-0.168469,-0.200958,1.00493,-0.266603,-0.181919,0.792734
28,60,-0.567232,-0.698132,-0.174533,-0.174533,-0.572257,-0.69337,-0.168469,-0.200958,1.00493,-0.266603,-0.181919,0.792734
28,60,-0.567232,-0.698132,-0.174533,-0.174533,-0.572257,-0.69337,-0.168469,-0.200958,1.00493,-0.266603,-0.181919,0.792734
28,60,-0.567232,-0.698132,-0.174533,-0.174533,-0.572257,-0.69337,-0.168469,-0.200958,1.00493,-0.266603,-0.181919,0.792734
28,60,-0.567232,-0.698132,-0.174533,-0.174533,-0.572257,-0.69337,-0.168469,-0.200958,1.00493,-0.266603,-0.181919,0.792734
28,60,-0.567232,-0.698132,-0.174533,-0.174533,-0.572257,-0.69337,-0.168469,-0.200958,1.00493,-0.266603,-0.181919,0.792734
28,60,-0.567232,-0.698132,-0.174533,-0.174533,-0.572257,-0.69337,-0.168469,-0.200958,1.00493,-0.266603,-0.181919,0.792734
28,60,-0.567232,-0.698132,-0.174533,-0.174533,-0.572257,-0.69337,-0.168469,-0.200958,1.00493,-0.266603,-0.181919,0.792734
28,60,-0.567232,-0.698132,-0.174533,-0.174533,-0.572257,-0.69337,-0.168469,-0.200958,1.00493,-0.266603,-0.181919,0.792734
28,60,-0.567232,-0.698132,-0.174533,-0.174533,-0.572257,-0.69337,-0.168469,-0.200958,1.00493,-0.266603,-0.181919,0.792734
28,60,-0.567232,-0.698132,-0.174533,-0.174533,-0.572257,-0.69337,-0.168469,-0.200958,1.00493,-0.266603,-0.181919,0.792734
28,60,-0.567232,-0.698132,-0.174533,-0.174533,-0.572257,-0.69337,-0.168469,-0.200958,1.00493,-0.266603,-0.181919,0.792734
28,60,-0.567232,-0.698132,-0.174533,-0.174533,-0.572257,-0.69337,-0.168469,-0.200958,1.00493,-0.266603,-0.181919,0.792734
28,60,-0.567232,-0.698132,-0.174533,-0.174533,-0.572257,-0.69337,-0.168469,-0.200958,1.00493,-0.266603,-0.181919,0.792734
28,60,-0.567232,-0.698132,-0.174533,-0.174533,-0.572257,-0.69337,-0.168469,-0.200958,1.00493,-0.266603,-0.181919,0.792734
28,60,-0.567232,-0.698132,-0.174533,-0.174533,-0.572257,-0.69337,-0.168469,-0.200958,1.00493,-0.266603,-0.181919,0.792734
28,60,-0.567232,-0.698132,-0.174533,-0.174533,-0.572257,-0.69337,-0.168469,-0.200958,1.00493,-0.266603,-0.181919,0.792734
28,60,-0.567232,-0.698132,-0.174533,-0.174533,-0.572257,-0.69337,-0.168469,-0.200958,1.00493,-0.266603,-0.181919,0.792734
28,60,-0.567232,-0.698132,-0.174533,-0.174533,-0.572257,-0.69337,-0.168469,-0.200958,1.00493,-0.266603,-0.181919,0.792734
28,60,-0.567232,-0.698132,-0.174533,-0.174533,-0.572257,-0.69337,-0.168469,-0.200958,1.00493,-0.266603,-0.181919,0.792734
28,60,-0.567232,-0.698132,-0.174533,-0.174533,-0.572257,-0.69337,-0.168469,-0.200958,1.00493,-0.266603,-0.181919,0.792734
28,60,-0.567232,-0.698132,-0.174533,-0.174533,-0.572257,-0.69337,-0.168469,-0.200958,1.00493,-0.266603,-0.181919,0.792734
28,60,-0.567232,-0.698132,-0.174533,-0.174533,-0.572257,-0.69337,-0.168469,-0.200958,1.00493,-0.266603,-0.181919,0.792734
28,60,-0.567232,-0.698132,-0.174533,-0.174533,-0.572257,-0.69337,-0.168469,-0.200958,1.00493,-0.266603,-0.181919,0.792734
28,60,-0.567232,-0.698132,-0.174533,-0.174533,-0.572257,-0.69337,-0.168469,-0.200958,1.00493,-0.266603,-0.181919,0.792734
28,60,-0.567232,-0.698132,-0.174533,-0.174533,-0.572257,-0.69337,-0.168469,-0.200958,1.00493,-0.266603,-0.181919,0.792734
28,60,-0.567232,-0.698132,-0.174533,-0.174533,-0.572257,-0.69337,-0.168469,-0.200958,1.00493,-0.266603,-0.181919,0.792734
28,60,-0.567232,-0.698132,-0.174533,-0.174533,-0.572257,-0.69337,-0.168469,-0.200958,1.00493,-0.266603,-0.181919,0.792734
28,60,-0.567232,-0.698132,-0.174533,-0.174533,-0.572257,-0.69337,-0.168469,-0.200958,1.00493,-0.266603,-0.181919,0.792734
28,60,-0.567232,-0.698132,-0.174533,-0.174533,-0.572257,-0.69337,-0.168469,-0.200958,1.00493,-0.266603,-0.181919,0.792734
28,60,-0.567232,-0.698132,-0.174533,-0.174533,-0.572257,-0.69337,-0.168469,-0.200958,1.00493,-0.266603,-0.181919,0.792734
28,60,-0.567232,-0.698132,-0.174533,-0.174533,-0.572257,-0.69337,-0.168469,-0.200958,1.00493,-0.266603,-0.181919,0.792734
28,60,-0.567232,-0.698132,-0.174533,-0.174533,-0.572257,-0.69337,-0.168469,-0.200958,1.00493,-0.266603,-0.181919,0.792734
28,60,-0.567232,-0.698132,-0.174533,-0.174533,-0.572257,-0.69337,-0.168469,-0.200958,1.00493,-0.266603,-0.181919,0.792734
28,60,-0.567232,-0.698132,-0.174533,-0.174533,-0.572257,-0.69337,-0.168469,-0.200958,1.00493,-0.266603,-0.181919,0.792734
28,60,-0.567232,-0.698132,-0.174533,-0.174533,-0.572257,-0.69337,-0.168469,-0.200958,1.00493,-0.266603,-0.181919,0.792734
28,60,-0.567232,-0.698132,-0.174533,-0.174533,-0.572257,-0.69337,-0.168469,-0.200958,1.00493,-0.266603,-0.181919,0.792734
28,60,-0.567232,-0.698132,-0.174533,-0.174533,-0.572257,-0.69337,-0.168469,-0.200958,1.00493,-0.266603,-0.181919,0.792734
28,60,-0.567232,-0.698132,-0.174533,-0.174533,-0.572257,-0.69337,-0.168469,-0.200958,1.00493,-0.266603,-0.181919,0.792734
28,60,-0.567232,-0.698132,-0.174533,-0.174533,-0.572257,-0.69337,-0.168469,-0.200958,1.00493,-0.266603,-0.181919,0.792734
28,60,-0.567232,-0.698132,-0.174533,-0.174533,-0.572257,-0.69337,-0.168469,-0.200958,1.00493,-0.266603,-0.181919,0.792734
28,60,-0.567232,-0.698132,-0.174533,-0.174533,-0.572257,-0.69337,-0.168469,-0.200958,1.00493,-0.266603,-0.181919,0.792734
28,60,-0.567232,-0.698132,-0.174533,-0.174533,-0.572257,-0.69337,-0.168469,-0.200958,1.00493,-0.266603,-0.181919,0.792734
28,60,-0.567232,-0.698132,-0.174533,-0.174533,-0.572257,-0.69337,-0.168469,-0.200958,1.00493,-0.266603,-0.181919,0.792734
28,60,-0.567232,-0.698132,-0.174533,-0.174533,-0.572257,-0.69337,-0.168469,-0.200958,1.00493,-0.266603,-0.181919,0.792734
28,60,-0.567232,-0.698132,-0.174533,-0.174533,-0.572257,-0.69337,-0.168469,-0.200958,1.00493,-0.266603,-0.181919,0.792734
28,60,-0.567232,-0.698132,-0.174533,-0.174533,-0.572257,-0.69337,-0.168469,-0.200958,1.00493,-0.266603,-0.181919,0.792734
28,60,-0.567232,-0.698132,-0.174533,-0.174533,-0.572257,-0.69337,-0.168469,-0.200958,1.00493,-0.266603,-0.181919,0.792734
28,60,-0.567232,-0.698132,-0.174533,-0.174533,-0.572257,-0.69337,-0.168469,-0.200958,1.00493,-0.266656,-0.181919,0.792734
28,60,-0.567232,-0.698132,-0.174533,-0.174533,-0.572257,-0.69337,-0.168469,-0.200958,1.00493,-0.266656,-0.181919,0.792734
28,60,-0.567232,-0.698132,-0.174533,-0.174533,-0.572257,-0.69337,-0.168469,-0.200958,1.00493,-0.266656,-0.181919,0.792734
28,60,-0.567232,-0.698132,-0.174533,-0.174533,-0.572257,-0.69337,-0.168469,-0.200958,1.00493,-0.266656,-0.181919,0.792734
28,60,-0.567232,-0.698132,-0.174533,-0.174533,-0.572257,-0.69337,-0.168469,-0.200958,1.00493,-0.266656,-0.181919,0.792734
28,60,-0.567232,-0.698132,-0.174533,-0.174533,-0.572257,-0.69337,-0.168469,-0.200958,1.00493,-0.266656,-0.181919,0.792734
28,60,-0.567232,-0.698132,-0.174533,-0.174533,-0.572257,-0.69337,-0.168469,-0.200958,1.00493,-0.266656,-0.181919,0.792734
28,60,-0.567232,-0.698132,-0.174533,-0.174533,-0.572257,-0.69337,-0.168469,-0.200958,1.00493,-0.266656,-0.181919,0.792734
28,60,-0.567232,-0.698132,-0.174533,-0.174533,-0.572257,-0.69337,-0.168469,-0.200958,1.00493,-0.266656,-0.181919,0.792734
28,60,-0.567232,-0.698132,-0.174533,-0.174533,-0.572257,-0.69337,-0.168469,-0.200958,1.00493,-0.266656,-0.181919,0.792734
28,60,-0.567232,-0.698132,-0.174533,-0.174533,-0.572257,-0.69337,-0.168469,-0.200958,1.00493,-0.266656,-0.181919,0.792734
28,60,-0.567232,-0.698132,-0.174533,-0.174533,-0.572257,-0.69337,-0.168469,-0.200958,1.00493,-0.266656,-0.181919,0.792734
28,60,-0.567232,-0.698132,-0.174533,-0.174533,-0.572257,-0.69337,-0.168469,-0.200958,1.00493,-0.266656,-0.181919,0.792734
28,60,-0.567232,-0.698132,-0.174533,-0.174533,-0.572257,-0.69337,-0.168469,-0.200958,1.00493,-0.266656,-0.181919,0.792734
28,60,-0.567232,-0.698132,-0.174533,-0.174533,-0.572257,-0.69337,-0.168469,-0.200958,1.00493,-0.266656,-0.181919,0.792734
28,60,-0.567232,-0.698132,-0.174533,-0.174533,-0.572257,-0.69337,-0.168469,-0.200958,1.00493,-0.266656,-0.181919,0.792734
28,60,-0.567232,-0.698132,-0.174533,-0.174533,-0.572257,-0.69337,-0.168469,-0.200958,1.00493,-0.266656,-0.181919,0.792734
28,60,-0.567232,-0.698132,-0.174533,-0.174533,-0.572257,-0.69337,-0.168469,-0.200958,1.00493,-0.266656,-0.181919,0.792734
28,60,-0.567232,-0.698132,-0.174533,-0.174533,-0.572257,-0.69337,-0.168469,-0.200958,1.00493,-0.266656,-0.181919,0.792734
28,60,-0.567232,-0.698132,-0.174533,-0.174533,-0.572257,-0.69337,-0.168469,-0.200958,1.00493,-0.266656,-0.181919,0.792734
28,60,-0.567232,-0.698132,-0.174533,-0.174533,-0.572257,-0.69337,-0.168469,-0.200958,1.00493,-0.266656,-0.181919,0.792734
28,60,-0.567232,-0.698132,-0.174533,-0.174533,-0.572257,-0.69337,-0.168469,-0.200958,1.00493,-0.266656,-0.181919,0.792734
28,60,-0.567232,-0.698132,-0.174533,-0.174533,-0.572257,-0.69337,-0.168469,-0.200958,1.00493,-0.266656,-0.181919,0.792734
28,60,-0.567232,-0.698132,-0.174533,-0.174533,-0.572257,-0.69337,-0.168469,-0.200958,1.00493,-0.266656,-0.181919,0.792734
28,60,-0.567232,-0.698132,-0.174533,-0.174533,-0.572257,-0.69337,-0.168469,-0.200958,1.00493,-0.266656,-0.181919,0.792734
28,60,-0.567232,-0.698132,-0.174533,-0.174533,-0.572257,-0.69337,-0.168469,-0.200958,1.00493,-0.266656,-0.181919,0.792734
28,60,-0.567232,-0.698132,-0.174533,-0.174533,-0.572257,-0.69337,-0.168469,-0.200958,1.00493,-0.266656,-0.181919,0.792734
28,60,-0.567232,-0.698132,-0.174533,-0.174533,-0.572257,-0.69337,-0.168469,-0.200958,1.00493,-0.266656,-0.181919,0.792734
28,60,-0.567232,-0.698132,-0.174533,-0.174533,-0.572257,-0.69337,-0.168469,-0.200958,1.00493,-0.266656,-0.181919,0.792734
28,60,-0.567232,-0.698132,-0.174533,-0.174533,-0.572257,-0.69337,-0.168469,-0.200958,1.00493,-0.266656,-0.181919,0.792734
28,60,-0.567232,-0.698132,-0.174533,-0.174533,-0.572257,-0.69337,-0.168469,-0.200958,1.00493,-0.266656,-0.181919,0.792734
28,60,-0.567232,-0.698132,-0.174533,-0.174533,-0.572257,-0.69337,-0.168469,-0.200958,1.00493,-0.266656,-0.181919,0.792734
28,60,-0.567232,-0.698132,-0.174533,-0.174533,-0.572257,-0.69337,-0.168469,-0.200958,1.00493,-0.266656,-0.181919,0.792734
28,60,-0.567232,-0.698132,-0.174533,-0.174533,-0.572257,-0.69337,-0.168469,-0.200958,1.00493,-0.266656,-0.181919,0.792734
28,60,-0.567232,-0.698132,-0.174533,-0.174533,-0.572257,-0.69337,-0.168469,-0.200958,1.00493,-0.266656,-0.181919,0.792734
28,60,-0.567232,-0.698132,-0.174533,-0.174533,-0.572257,-0.69337,-0.168469,-0.200958,1.00493,-0.266656,-0.181919,0.792734
28,60,-0.567232,-0.698132,-0.174533,-0.174533,-0.572257,-0.69337,-0.168469,-0.200958,1.00493,-0.266656,-0.181919,0.792734
28,60,-0.567232,-0.698132,-0.174533,-0.174533,-0.572257,-0.69337,-0.168469,-0.200958,1.00493,-0.266656,-0.181919,0.792734
28,60,-0.567232,-0.698132,-0.174533,-0.174533,-0.572257,-0.69337,-0.168469,-0.200958,1.00493,-0.266656,-0.181919,0.792734
28,60,-0.567232,-0.698132,-0.174533,-0.174533,-0.572257,-0.69337,-0.168469,-0.200958,1.00493,-0.266656,-0.181919,0.792734
28,60,-0.567232,-0.698132,-0.174533,-0.174533,-0.572257,-0.69337,-0.168469,-0.200958,1.00493,-0.266656,-0.181919,0.792734
28,60,-0.567232,-0.698132,-0.174533,-0.174533,-0.572257,-0.69337,-0.168469,-0.200958,1.00493,-0.266656,-0.181919,0.792734
28,60,-0.567232,-0.698132,-0.174533,-0.174533,-0.572257,-0.69337,-0.168469,-0.200958,1.00493,-0.266656,-0.181919,0.792734
28,60,-0.567232,-0.698132,-0.174533,-0.174533,-0.572257,-0.69337,-0.168469,-0.200958,1.00493,-0.266656,-0.181919,0.792734
28,60,-0.567232,-0.698132,-0.174533,-0.174533,-0.572257,-0.69337,-0.168469,-0.200958,1.00493,-0.266656,-0.181919,0.792734
28,60,-0.567232,-0.698132,-0.174533,-0.174533,-0.572257,-0.69337,-0.168469,-0.200958,1.00493,-0.266656,-0.181919,0.792734
28,60,-0.567232,-0.698132,-0.174533,-0.174533,-0.572257,-0.69337,-0.168469,-0.200958,1.00493,-0.266656,-0.181919,0.792734
28,60,-0.567232,-0.698132,-0.174533,-0.174533,-0.572257,-0.69337,-0.168469,-0.200958,1.00493,-0.266656,-0.181919,0.792734
28,60,-0.567232,-0.698132,-0.174533,-0.174533,-0.572257,-0.69337,-0.168469,-0.200958,1.00493,-0.266656,-0.181919,0.792734
28,60,-0.567232,-0.698132,-0.174533,-0.174533,-0.572257,-0.69337,-0.168469,-0.200958,1.00493,-0.266656,-0.181919,0.792734
28,60,-0.567232,-0.698132,-0.174533,-0.174533,-0.572257,-0.69337,-0.168469,-0.200958,1.00493,-0.266656,-0.181919,0.792734
28,60,-0.567232,-0.698132,-0.174533,-0.174533,-0.572257,-0.69337,-0.168469,-0.200958,1.00493,-0.266656,-0.181919,0.792734
28,60,-0.567232,-0.698132,-0.174533,-0.174533,-0.572257,-0.69337,-0.168469,-0.200958,1.00493,-0.266656,-0.181919,0.792734
28,60,-0.567232,-0.698132,-0.174533,-0.174533,-0.572257,-0.69337,-0.168469,-0.200958,1.00493,-0.266656,-0.181919,0.792734
28,60,-0.567232,-0.698132,-0.174533,-0.174533,-0.572257,-0.69337,-0.168469,-0.200958,1.00493,-0.266656,-0.181919,0.792734
28,60,-0.567232,-0.698132,-0.174533,-0.174533,-0.572257,-0.69337,-0.168469,-0.200958,1.00493,-0.266656,-0.181919,0.792734
28,60,-0.567232,-0.698132,-0.174533,-0.174533,-0.572257,-0.69337,-0.168469,-0.200958,1.00493,-0.266656,-0.181919,0.792734
28,60,-0.567232,-0.698132,-0.174533,-0.174533,-0.572257,-0.69337,-0.168469,-0.200958,1.00493,-0.266656,-0.181919,0.792734
28,60,-0.567232,-0.698132,-0.174533,-0.174533,-0.572257,-0.69337,-0.168469,-0.200958,1.00493,-0.266656,-0.181919,0.792734
28,60,-0.567232,-0.698132,-0.174533,-0.174533,-0.572257,-0.69337,-0.168469,-0.200958,1.00493,-0.266656,-0.181919,0.792734
28,60,-0.567232,-0.698132,-0.174533,-0.174533,-0.572257,-0.69337,-0.168469,-0.200958,1.00493,-0.266656,-0.181919,0.792734
28,60,-0.567232,-0.698132,-0.174533,-0.174533,-0.572257,-0.69337,-0.168469,-0.200958,1.00493,-0.266656,-0.181919,0.792734
28,60,-0.567232,-0.698132,-0.174533,-0.174533,-0.572257,-0.69337,-0.168469,-0.200958,1.00493,-0.266656,-0.181919,0.792734
28,60,-0.567232,-0.698132,-0.174533,-0.174533,-0.572257,-0.69337,-0.168469,-0.200958,1.00493,-0.266656,-0.181919,0.792734
28,60,-0.567232,-0.698132,-0.174533,-0.174533,-0.572257,-0.69337,-0.168469,-0.200958,1.00493,-0.266656,-0.181919,0.792734
28,60,-0.567232,-0.698132,-0.174533,-0.174533,-0.572257,-0.69337,-0.168469,-0.200958,1.00493,-0.266656,-0.181919,0.792734
28,60,-0.567232,-0.698132,-0.174533,-0.174533,-0.572257,-0.69337,-0.168469,-0.200958,1.00493,-0.266656,-0.181919,0.792734
28,60,-0.567232,-0.698132,-0.174533,-0.174533,-0.572257,-0.69337,-0.168469,-0.200958,1.00493,-0.266656,-0.181919,0.792734
28,60,-0.567232,-0.698132,-0.174533,-0.174533,-0.572257,-0.69337,-0.168469,-0.200958,1.00493,-0.266656,-0.181919,0.792734
28,60,-0.567232,-0.698132,-0.174533,-0.174533,-0.572257,-0.69337,-0.168469,-0.200958,1.00493,-0.266656,-0.181919,0.792734
28,60,-0.567232,-0.698132,-0.174533,-0.174533,-0.572257,-0.69337,-0.168469,-0.200958,1.00493,-0.266656,-0.181919,0.792734
28,60,-0.567232,-0.698132,-0.174533,-0.174533,-0.572257,-0.69337,-0.168469,-0.200958,1.00493,-0.266656,-0.181919,0.792734
28,60,-0.567232,-0.698132,-0.174533,-0.174533,-0.572257,-0.69337,-0.168469,-0.200958,1.00493,-0.266656,-0.181919,0.792734
28,60,-0.567232,-0.698132,-0.174533,-0.174533,-0.572257,-0.69337,-0.168469,-0.200958,1.00493,-0.266656,-0.181919,0.792734
28,60,-0.567232,-0.698132,-0.174533,-0.174533,-0.572257,-0.69337,-0.168469,-0.200958,1.00493,-0.266656,-0.181919,0.792734
28,60,-0.567232,-0.698132,-0.174533,-0.174533,-0.572257,-0.69337,-0.168469,-0.200958,1.00493,-0.266656,-0.181919,0.792734
28,60,-0.567232,-0.698132,-0.174533,-0.174533,-0.572257,-0.69337,-0.168469,-0.200958,1.00493,-0.266656,-0.181919,0.792734
28,60,-0.567232,-0.698132,-0.174533,-0.174533,-0.572257,-0.69337,-0.168469,-0.200958,1.00493,-0.266656,-0.181919,0.792734
28,60,-0.567232,-0.698132,-0.174533,-0.174533,-0.572257,-0.69337,-0.168469,-0.200958,1.00493,-0.266656,-0.181919,0.792734
28,60,-0.567232,-0.698132,-0.174533,-0.174533,-0.572257,-0.69337,-0.168469,-0.200958,1.00493,-0.266656,-0.181919,0.792734
28,60,-0.567232,-0.698132,-0.174533,-0.174533,-0.572257,-0.69337,-0.168469,-0.200958,1.00493,-0.266656,-0.181919,0.792734
28,60,-0.567232,-0.698132,-0.174533,-0.174533,-0.572257,-0.69337,-0.168469,-0.200958,1.00493,-0.266656,-0.181919,0.792734
28,60,-0.567232,-0.698132,-0.174533,-0.174533,-0.572257,-0.69337,-0.168469,-0.200958,1.00493,-0.266656,-0.181919,0.792734
28,60,-0.567232,-0.698132,-0.174533,-0.174533,-0.572257,-0.69337,-0.168469,-0.200958,1.00493,-0.266656,-0.181919,0.792734
28,60,-0.567232,-0.698132,-0.174533,-0.174533,-0.572257,-0.69337,-0.168469,-0.200958,1.00493,-0.266656,-0.181919,0.792734
28,60,-0.567232,-0.698132,-0.174533,-0.174533,-0.572257,-0.69337,-0.168469,-0.200958,1.00493,-0.266656,-0.181919,0.792734
28,60,-0.567232,-0.698132,-0.174533,-0.174533,-0.572257,-0.69337,-0.168469,-0.200958,1.00493,-0.266656,-0.181919,0.792734
28,60,-0.567232,-0.698132,-0.174533,-0.174533,-0.572257,-0.69337,-0.168469,-0.200958,1.00493,-0.266656,-0.181919,0.792734
28,60,-0.567232,-0.698132,-0.174533,-0.174533,-0.572257,-0.69337,-0.168469,-0.200958,1.00493,-0.266656,-0.181919,0.792734
28,60,-0.567232,-0.698132,-0.174533,-0.174533,-0.572257,-0.69337,-0.168469,-0.200958,1.00493,-0.266656,-0.181919,0.792734
28,60,-0.567232,-0.698132,-0.174533,-0.174533,-0.572257,-0.69337,-0.168469,-0.200958,1.00493,-0.266656,-0.181919,0.792734
28,60,-0.567232,-0.698132,-0.174533,-0.174533,-0.572257,-0.69337,-0.168469,-0.200958,1.00493,-0.266656,-0.181919,0.792734
28,60,-0.567232,-0.698132,-0.174533,-0.174533,-0.572257,-0.693421,-0.168469,-0.200958,1.00493,-0.263718,-0.181919,0.792734
28,60,-0.567232,-0.698132,-0.174533,-0.174533,-0.572257,-0.693421,-0.168469,-0.200958,1.00493,-0.263718,-0.181919,0.792734
28,60,-0.567232,-0.698132,-0.174533,-0.174533,-0.572257,-0.693421,-0.168469,-0.200958,1.00493,-0.263718,-0.181919,0.792734
28,60,-0.567232,-0.698132,-0.174533,-0.174533,-0.572257,-0.693421,-0.168469,-0.200958,1.00493,-0.263718,-0.181919,0.792734
28,60,-0.567232,-0.698132,-0.174533,-0.174533,-0.572257,-0.693421,-0.168469,-0.200958,1.00493,-0.263718,-0.181919,0.792734
28,60,-0.567232,-0.698132,-0.174533,-0.174533,-0.572257,-0.693421,-0.168469,-0.200958,1.00493,-0.263718,-0.181919,0.792734
28,60,-0.567232,-0.698132,-0.174533,-0.174533,-0.572257,-0.693421,-0.168469,-0.200958,1.00493,-0.263718,-0.181919,0.792734
28,60,-0.567232,-0.698132,-0.174533,-0.174533,-0.572257,-0.693421,-0.168469,-0.200958,1.00493,-0.263718,-0.181919,0.792734
28,60,-0.567232,-0.698132,-0.174533,-0.174533,-0.572257,-0.693421,-0.168469,-0.200958,1.00493,-0.263718,-0.181919,0.792734
28,60,-0.567232,-0.698132,-0.174533,-0.174533,-0.572257,-0.693421,-0.168469,-0.200958,1.00493,-0.263718,-0.181919,0.792734
28,60,-0.567232,-0.698132,-0.174533,-0.174533,-0.572257,-0.693421,-0.168469,-0.200958,1.00493,-0.263718,-0.181919,0.792734
28,60,-0.567232,-0.698132,-0.174533,-0.174533,-0.572257,-0.693421,-0.168469,-0.200958,1.00493,-0.263718,-0.181919,0.792734
28,60,-0.567232,-0.698132,-0.174533,-0.174533,-0.572257,-0.693421,-0.168469,-0.200958,1.00493,-0.263718,-0.181919,0.792734
28,60,-0.567232,-0.698132,-0.174533,-0.174533,-0.572257,-0.693421,-0.168469,-0.200958,1.00493,-0.263718,-0.181919,0.792734
28,60,-0.567232,-0.698132,-0.174533,-0.174533,-0.572257,-0.693421,-0.168469,-0.200958,1.00493,-0.263718,-0.181919,0.792734
28,60,-0.567232,-0.698132,-0.174533,-0.174533,-0.572257,-0.693421,-0.168469,-0.200958,1.00493,-0.263718,-0.181919,0.792734
28,60,-0.567232,-0.698132,-0.174533,-0.174533,-0.572257,-0.693421,-0.168469,-0.200958,1.00493,-0.263718,-0.181919,0.792734
28,60,-0.567232,-0.698132,-0.174533,-0.174533,-0.572257,-0.693421,-0.168469,-0.200958,1.00493,-0.263718,-0.181919,0.792734
28,60,-0.567232,-0.698132,-0.174533,-0.174533,-0.572257,-0.693421,-0.168469,-0.200958,1.00493,-0.263718,-0.181919,0.792734
28,60,-0.567232,-0.698132,-0.174533,-0.174533,-0.572257,-0.693421,-0.168469,-0.200958,1.00493,-0.263718,-0.181919,0.792734
28,60,-0.567232,-0.698132,-0.174533,-0.174533,-0.572257,-0.693421,-0.168469,-0.200958,1.00493,-0.263718,-0.181919,0.792734
28,60,-0.567232,-0.698132,-0.174533,-0.174533,-0.572257,-0.693421,-0.168469,-0.200958,1.00493,-0.263718,-0.181919,0.792734
28,60,-0.567232,-0.698132,-0.174533,-0.174533,-0.572257,-0.693421,-0.168469,-0.200958,1.00493,-0.263718,-0.181919,0.792734
28,60,-0.567232,-0.698132,-0.174533,-0.174533,-0.572257,-0.693421,-0.168469,-0.200958,1.00493,-0.263718,-0.181919,0.792734
28,60,-0.567232,-0.698132,-0.174533,-0.174533,-0.572257,-0.693421,-0.168469,-0.200958,1.00493,-0.263718,-0.181919,0.792734
28,60,-0.567232,-0.698132,-0.174533,-0.174533,-0.572257,-0.693421,-0.168469,-0.200958,1.00493,-0.263718,-0.181919,0.792734
28,60,-0.567232,-0.698132,-0.174533,-0.174533,-0.572257,-0.693421,-0.168469,-0.200958,1.00493,-0.263718,-0.181919,0.792734
28,60,-0.567232,-0.698132,-0.174533,-0.174533,-0.572257,-0.693421,-0.168469,-0.200958,1.00493,-0.263718,-0.181919,0.792734
28,60,-0.567232,-0.698132,-0.174533,-0.174533,-0.572257,-0.693421,-0.168469,-0.200958,1.00493,-0.263718,-0.181919,0.792734
28,60,-0.567232,-0.698132,-0.174533,-0.174533,-0.572257,-0.693421,-0.168469,-0.200958,1.00493,-0.263718,-0.181919,0.792734
28,60,-0.567232,-0.698132,-0.174533,-0.174533,-0.572257,-0.693421,-0.168469,-0.200958,1.00493,-0.263718,-0.181919,0.792734
28,60,-0.567232,-0.698132,-0.174533,-0.174533,-0.572257,-0.693421,-0.168469,-0.200958,1.00493,-0.263718,-0.181919,0.792734
28,60,-0.567232,-0.698132,-0.174533,-0.174533,-0.572257,-0.693421,-0.168469,-0.200958,1.00493,-0.263718,-0.181919,0.792734
28,60,-0.567232,-0.698132,-0.174533,-0.174533,-0.572257,-0.693421,-0.168469,-0.200958,1.00493,-0.263718,-0.181919,0.792734
28,60,-0.567232,-0.698132,-0.174533,-0.174533,-0.572257,-0.693421,-0.168469,-0.200958,1.00493,-0.263718,-0.181919,0.792734
28,60,-0.567232,-0.698132,-0.174533,-0.174533,-0.572257,-0.693421,-0.168469,-0.200958,1.00493,-0.263718,-0.181919,0.792734
28,60,-0.567232,-0.698132,-0.174533,-0.174533,-0.572257,-0.693421,-0.168469,-0.200958,1.00493,-0.263718,-0.181919,0.792734
28,60,-0.567232,-0.698132,-0.174533,-0.174533,-0.572257,-0.693421,-0.16853,-0.200939,1.00493,-0.263718,-0.18008,0.792169
28,60,-0.567232,-0.698132,-0.174533,-0.174533,-0.572257,-0.693421,-0.16853,-0.200939,1.00493,-0.263718,-0.18008,0.792169
28,60,-0.567232,-0.698132,-0.174533,-0.174533,-0.572257,-0.693421,-0.16853,-0.200939,1.00493,-0.263718,-0.18008,0.792169
28,60,-0.567232,-0.698132,-0.174533,-0.174533,-0.572257,-0.693421,-0.16853,-0.200939,1.00493,-0.263718,-0.18008,0.792169
28,60,-0.567232,-0.698132,-0.174533,-0.174533,-0.572257,-0.693421,-0.16853,-0.200939,1.00493,-0.263718,-0.180076,0.792172
28,60,-0.567232,-0.698132,-0.174533,-0.174533,-0.572257,-0.693421,-0.16853,-0.200939,1.00493,-0.263718,-0.180076,0.792172
28,60,-0.567232,-0.698132,-0.174533,-0.174533,-0.572257,-0.693421,-0.16853,-0.200939,1.00493,-0.263718,-0.180076,0.792172
28,60,-0.567232,-0.698132,-0.174533,-0.174533,-0.572257,-0.693421,-0.16853,-0.200939,1.00493,-0.263718,-0.180076,0.792172
28,60,-0.567232,-0.698132,-0.174533,-0.174533,-0.572257,-0.693421,-0.16853,-0.200939,1.00493,-0.263718,-0.180076,0.792172
28,60,-0.567232,-0.698132,-0.174533,-0.174533,-0.572257,-0.693421,-0.16853,-0.200939,1.00493,-0.263718,-0.180076,0.792172
28,60,-0.567232,-0.698132,-0.174533,-0.174533,-0.572257,-0.693421,-0.16853,-0.200939,1.00493,-0.263718,-0.180076,0.792172
28,60,-0.567232,-0.698132,-0.174533,-0.174533,-0.572257,-0.693421,-0.16853,-0.200939,1.00493,-0.263718,-0.180076,0.792172
28,60,-0.567232,-0.698132,-0.174533,-0.174533,-0.572257,-0.693421,-0.16853,-0.200939,1.00493,-0.263718,-0.180076,0.792172
28,60,-0.567232,-0.698132,-0.174533,-0.174533,-0.572257,-0.693421,-0.16853,-0.200939,1.00493,-0.263718,-0.180076,0.792172
28,60,-0.567232,-0.698132,-0.174533,-0.174533,-0.572257,-0.693421,-0.16853,-0.200939,1.00493,-0.263718,-0.180076,0.792172
28,60,-0.567232,-0.698132,-0.174533,-0.174533,-0.572257,-0.693421,-0.16853,-0.200939,1.00493,-0.263718,-0.180076,0.792172
28,60,-0.567232,-0.698132,-0.174533,-0.174533,-0.572257,-0.693421,-0.16853,-0.200939,1.00493,-0.263718,-0.180076,0.792172
28,60,-0.567232,-0.698132,-0.174533,-0.174533,-0.572257,-0.693421,-0.16853,-0.200939,1.00493,-0.263718,-0.180076,0.792172
28,60,-0.567232,-0.698132,-0.174533,-0.174533,-0.572257,-0.693421,-0.16853,-0.200939,1.00493,-0.263718,-0.180076,0.792172
28,60,-0.567232,-0.698132,-0.174533,-0.174533,-0.572257,-0.693421,-0.16853,-0.200939,1.00493,-0.263718,-0.180076,0.792172
28,60,-0.567232,-0.698132,-0.174533,-0.174533,-0.572257,-0.693421,-0.16853,-0.200939,1.00493,-0.263718,-0.180076,0.792172
28,60,-0.567232,-0.698132,-0.174533,-0.174533,-0.572257,-0.693421,-0.16853,-0.200939,1.00493,-0.263718,-0.180076,0.792172
28,60,-0.567232,-0.698132,-0.174533,-0.174533,-0.572257,-0.693421,-0.16853,-0.200939,1.00493,-0.263718,-0.180076,0.792172
28,60,-0.567232,-0.698132,-0.174533,-0.174533,-0.572257,-0.693421,-0.16853,-0.200939,1.00493,-0.263718,-0.180076,0.792172
28,60,-0.567232,-0.698132,-0.174533,-0.174533,-0.572257,-0.693421,-0.16853,-0.200939,1.00493,-0.263718,-0.180076,0.792172
28,60,-0.567232,-0.698132,-0.174533,-0.174533,-0.572257,-0.693421,-0.16853,-0.200939,1.00493,-0.263718,-0.180076,0.792172
28,60,-0.567232,-0.698132,-0.174533,-0.174533,-0.572257,-0.693421,-0.16853,-0.200939,1.00493,-0.263718,-0.180076,0.792172
28,60,-0.567232,-0.698132,-0.174533,-0.174533,-0.572257,-0.693421,-0.16853,-0.200939,1.00493,-0.263718,-0.180076,0.792172
28,60,-0.567232,-0.698132,-0.174533,-0.174533,-0.572257,-0.693421,-0.16853,-0.200939,1.00493,-0.263718,-0.180076,0.792172
28,60,-0.567232,-0.698132,-0.174533,-0.174533,-0.572257,-0.693421,-0.16853,-0.200939,1.00493,-0.263718,-0.180076,0.792172
28,60,-0.567232,-0.698132,-0.174533,-0.174533,-0.572257,-0.693421,-0.16853,-0.200939,1.00493,-0.263718,-0.180076,0.792172
28,60,-0.567232,-0.698132,-0.174533,-0.174533,-0.572257,-0.693421,-0.16853,-0.200939,1.00493,-0.263718,-0.180076,0.792172
28,60,-0.567232,-0.698132,-0.174533,-0.174533,-0.572257,-0.693421,-0.16853,-0.200939,1.00493,-0.263718,-0.180076,0.792172
28,60,-0.567232,-0.698132,-0.174533,-0.174533,-0.572257,-0.693421,-0.16853,-0.200939,1.00493,-0.263718,-0.180076,0.792172
28,60,-0.567232,-0.698132,-0.174533,-0.174533,-0.572257,-0.693421,-0.16853,-0.200939,1.00493,-0.263718,-0.180076,0.792172
28,60,-0.567232,-0.698132,-0.174533,-0.174533,-0.572257,-0.693421,-0.16853,-0.200939,1.00493,-0.263718,-0.180076,0.792172
28,60,-0.567232,-0.698132,-0.174533,-0.174533,-0.572257,-0.693421,-0.16853,-0.200939,1.00493,-0.263718,-0.180076,0.792172
28,60,-0.567232,-0.698132,-0.174533,-0.174533,-0.572257,-0.693421,-0.16853,-0.200939,1.00493,-0.263718,-0.180076,0.792172
28,60,-0.567232,-0.698132,-0.174533,-0.174533,-0.572257,-0.693421,-0.16853,-0.200939,1.00493,-0.263718,-0.180076,0.792172
28,60,-0.567232,-0.698132,-0.174533,-0.174533,-0.572257,-0.693421,-0.16853,-0.200939,1.00493,-0.263718,-0.180076,0.792172
28,60,-0.567232,-0.698132,-0.174533,-0.174533,-0.572257,-0.693421,-0.16853,-0.200939,1.00493,-0.263718,-0.180076,0.792172
28,60,-0.567232,-0.698132,-0.174533,-0.174533,-0.572257,-0.693421,-0.16853,-0.200939,1.00493,-0.263718,-0.180076,0.792172
28,60,-0.567232,-0.698132,-0.174533,-0.174533,-0.572257,-0.693421,-0.16853,-0.200939,1.00493,-0.263718,-0.180076,0.792172
28,60,-0.567232,-0.698132,-0.174533,-0.174533,-0.572257,-0.693421,-0.16853,-0.200939,1.00493,-0.263718,-0.180076,0.792172
28,60,-0.567232,-0.698132,-0.174533,-0.174533,-0.572257,-0.693421,-0.16853,-0.200939,1.00493,-0.263718,-0.180076,0.792172
28,60,-0.567232,-0.698132,-0.174533,-0.174533,-0.572257,-0.693421,-0.16853,-0.200939,1.00493,-0.263718,-0.180076,0.792172
28,60,-0.567232,-0.698132,-0.174533,-0.174533,-0.572257,-0.693421,-0.16853,-0.200939,1.00493,-0.263718,-0.180076,0.792172
28,60,-0.567232,-0.698132,-0.174533,-0.174533,-0.572257,-0.693421,-0.16853,-0.200939,1.00493,-0.263718,-0.180076,0.792172
28,60,-0.567232,-0.698132,-0.174533,-0.174533,-0.572257,-0.693421,-0.16853,-0.200939,1.00493,-0.263718,-0.180076,0.792172
28,60,-0.567232,-0.698132,-0.174533,-0.174533,-0.572257,-0.693421,-0.16853,-0.200939,1.00493,-0.263718,-0.180076,0.792172
28,60,-0.567232,-0.698132,-0.174533,-0.174533,-0.572257,-0.693421,-0.16853,-0.200939,1.00493,-0.263718,-0.180076,0.792172
28,60,-0.567232,-0.698132,-0.174533,-0.174533,-0.572257,-0.693421,-0.16853,-0.200939,1.00493,-0.263718,-0.180076,0.792172
28,60,-0.567232,-0.698132,-0.174533,-0.174533,-0.572257,-0.693421,-0.16853,-0.200939,1.00493,-0.263718,-0.180076,0.792172
28,60,-0.567232,-0.698132,-0.174533,-0.174533,-0.572257,-0.693421,-0.16853,-0.200939,1.00493,-0.263718,-0.180076,0.792172
28,60,-0.567232,-0.698132,-0.174533,-0.174533,-0.572257,-0.693421,-0.16853,-0.200939,1.00493,-0.263718,-0.180076,0.792172
28,60,-0.567232,-0.698132,-0.174533,-0.174533,-0.572257,-0.693421,-0.16853,-0.200939,1.00493,-0.263718,-0.180076,0.792172
28,60,-0.567232,-0.698132,-0.174533,-0.174533,-0.572257,-0.693421,-0.16853,-0.200939,1.00493,-0.263718,-0.180076,0.792172
28,60,-0.567232,-0.698132,-0.174533,-0.174533,-0.572257,-0.693421,-0.16853,-0.200939,1.00493,-0.263718,-0.180076,0.792172
28,60,-0.567232,-0.698132,-0.174533,-0.174533,-0.572257,-0.693421,-0.16853,-0.200939,1.00493,-0.263718,-0.180076,0.792172
28,60,-0.567232,-0.698132,-0.174533,-0.174533,-0.572257,-0.693421,-0.16853,-0.200939,1.00493,-0.263718,-0.180076,0.792172
28,60,-0.567232,-0.698132,-0.174533,-0.174533,-0.572257,-0.693421,-0.16853,-0.200939,1.00493,-0.263718,-0.180076,0.792172
28,60,-0.567232,-0.698132,-0.174533,-0.174533,-0.572257,-0.693421,-0.16853,-0.200939,1.00493,-0.263718,-0.180076,0.792172
28,60,-0.567232,-0.698132,-0.174533,-0.174533,-0.572257,-0.693421,-0.16853,-0.200939,1.00493,-0.263718,-0.180076,0.792172
28,60,-0.567232,-0.698132,-0.174533,-0.174533,-0.572257,-0.693421,-0.16853,-0.200939,1.00493,-0.263718,-0.180076,0.792172
28,60,-0.567232,-0.698132,-0.174533,-0.174533,-0.572257,-0.693421,-0.16853,-0.200939,1.00493,-0.263718,-0.180076,0.792172
28,60,-0.567232,-0.698132,-0.174533,-0.174533,-0.572257,-0.693421,-0.16853,-0.200939,1.00493,-0.263718,-0.180076,0.792172
28,60,-0.567232,-0.698132,-0.174533,-0.174533,-0.572257,-0.693421,-0.16853,-0.200939,1.00493,-0.263718,-0.180076,0.792172
28,60,-0.567232,-0.698132,-0.174533,-0.174533,-0.572257,-0.693421,-0.16853,-0.200939,1.00493,-0.263718,-0.180076,0.792172
28,60,-0.567232,-0.698132,-0.174533,-0.174533,-0.572257,-0.693421,-0.16853,-0.200939,1.00493,-0.263718,-0.180076,0.792172
28,60,-0.567232,-0.698132,-0.174533,-0.174533,-0.572257,-0.693421,-0.16853,-0.200939,1.00493,-0.263718,-0.180076,0.792172
28,60,-0.567232,-0.698132,-0.174533,-0.174533,-0.572257,-0.693421,-0.16853,-0.200939,1.00493,-0.263718,-0.180076,0.792172
28,60,-0.567232,-0.698132,-0.174533,-0.174533,-0.572257,-0.693421,-0.16853,-0.200939,1.00493,-0.263718,-0.180076,0.792172
28,60,-0.567232,-0.698132,-0.174533,-0.174533,-0.572257,-0.693421,-0.16853,-0.200939,1.00493,-0.263718,-0.180076,0.792172
28,60,-0.567232,-0.698132,-0.174533,-0.174533,-0.572257,-0.693421,-0.16853,-0.200939,1.00493,-0.263718,-0.180076,0.792172
28,60,-0.567232,-0.698132,-0.174533,-0.174533,-0.572257,-0.693421,-0.16853,-0.200939,1.00493,-0.263718,-0.180076,0.792172
28,60,-0.567232,-0.698132,-0.174533,-0.174533,-0.572257,-0.693421,-0.16853,-0.200939,1.00493,-0.263718,-0.180076,0.792172
28,60,-0.567232,-0.698132,-0.174533,-0.174533,-0.572257,-0.693421,-0.16853,-0.200939,1.00493,-0.263718,-0.180076,0.792172
28,60,-0.567232,-0.698132,-0.174533,-0.174533,-0.572257,-0.693421,-0.16853,-0.200939,1.00493,-0.263718,-0.180076,0.792172
28,60,-0.567232,-0.698132,-0.174533,-0.174533,-0.572257,-0.693421,-0.16853,-0.200939,1.00493,-0.263718,-0.180076,0.792172
28,60,-0.567232,-0.698132,-0.174533,-0.174533,-0.572257,-0.693421,-0.16853,-0.200939,1.00493,-0.263718,-0.180076,0.792172
28,60,-0.567232,-0.698132,-0.174533,-0.174533,-0.572257,-0.693421,-0.16853,-0.200939,1.00493,-0.263718,-0.180076,0.792172
28,60,-0.567232,-0.698132,-0.174533,-0.174533,-0.572257,-0.693421,-0.16853,-0.200939,1.00493,-0.263718,-0.180076,0.792172
28,60,-0.567232,-0.698132,-0.174533,-0.174533,-0.572257,-0.693421,-0.16853,-0.200939,1.00493,-0.263718,-0.180076,0.792172
28,60,-0.567232,-0.698132,-0.174533,-0.174533,-0.572257,-0.693421,-0.16853,-0.200939,1.00493,-0.263718,-0.180076,0.792172
28,60,-0.567232,-0.698132,-0.174533,-0.174533,-0.572257,-0.693421,-0.16853,-0.200939,1.00493,-0.263718,-0.180076,0.792172
28,60,-0.567232,-0.698132,-0.174533,-0.174533,-0.572257,-0.693421,-0.16853,-0.200939,1.00493,-0.263718,-0.180076,0.792172
28,60,-0.567232,-0.698132,-0.174533,-0.174533,-0.572257,-0.693421,-0.16853,-0.200939,1.00493,-0.263718,-0.180076,0.792172
28,60,-0.567232,-0.698132,-0.174533,-0.174533,-0.572257,-0.693421,-0.16853,-0.200939,1.00493,-0.263718,-0.180076,0.792172
28,60,-0.567232,-0.698132,-0.174533,-0.174533,-0.572257,-0.693421,-0.16853,-0.200939,1.00493,-0.263718,-0.180076,0.792172
28,60,-0.567232,-0.698132,-0.174533,-0.174533,-0.572257,-0.693421,-0.16853,-0.200939,1.00493,-0.263718,-0.180076,0.792172
28,60,-0.567232,-0.698132,-0.174533,-0.174533,-0.572257,-0.693421,-0.16853,-0.200939,1.00493,-0.263718,-0.180076,0.792172
28,60,-0.567232,-0.698132,-0.174533,-0.174533,-0.572257,-0.693421,-0.16853,-0.200939,1.00493,-0.263718,-0.180076,0.792172
28,60,-0.567232,-0.698132,-0.174533,-0.174533,-0.572257,-0.693421,-0.16853,-0.200939,1.00493,-0.263718,-0.180076,0.792172
28,60,-0.567232,-0.698132,-0.174533,-0.174533,-0.572257,-0.693421,-0.16853,-0.200939,1.00493,-0.263718,-0.180076,0.792172
28,60,-0.567232,-0.698132,-0.174533,-0.174533,-0.572257,-0.693421,-0.16853,-0.200939,1.00493,-0.263718,-0.180076,0.792172
28,60,-0.567232,-0.698132,-0.174533,-0.174533,-0.572257,-0.693421,-0.16853,-0.200939,1.00493,-0.263718,-0.180076,0.792172
28,60,-0.567232,-0.698132,-0.174533,-0.174533,-0.572257,-0.693421,-0.16853,-0.200939,1.00493,-0.263718,-0.180076,0.792172
28,60,-0.567232,-0.698132,-0.174533,-0.174533,-0.572257,-0.693421,-0.16853,-0.200939,1.00493,-0.263718,-0.180076,0.792172
28,60,-0.567232,-0.698132,-0.174533,-0.174533,-0.572257,-0.693421,-0.16853,-0.200939,1.00493,-0.263718,-0.180076,0.792172
28,60,-0.567232,-0.698132,-0.174533,-0.174533,-0.572257,-0.693421,-0.16853,-0.200939,1.00493,-0.263718,-0.180076,0.792172
28,60,-0.567232,-0.698132,-0.174533,-0.174533,-0.572257,-0.693421,-0.16853,-0.200939,1.00493,-0.263718,-0.180076,0.792172
28,60,-0.567232,-0.698132,-0.174533,-0.174533,-0.572257,-0.693421,-0.16853,-0.200939,1.00493,-0.263718,-0.180076,0.792172
28,60,-0.567232,-0.698132,-0.174533,-0.174533,-0.572257,-0.693421,-0.16853,-0.200939,1.00493,-0.263718,-0.180076,0.792172
28,60,-0.567232,-0.698132,-0.174533,-0.174533,-0.572257,-0.693421,-0.16853,-0.200939,1.00493,-0.263718,-0.180076,0.792172
28,60,-0.567232,-0.698132,-0.174533,-0.174533,-0.572257,-0.693421,-0.16853,-0.200939,1.00493,-0.263718,-0.180076,0.792172
28,60,-0.567232,-0.698132,-0.174533,-0.174533,-0.572257,-0.693421,-0.168591,-0.20092,1.00493,-0.263718,-0.17824,0.791609
28,60,-0.567232,-0.698132,-0.174533,-0.174533,-0.572257,-0.693421,-0.168591,-0.20092,1.00493,-0.263718,-0.17824,0.791609
28,60,-0.567232,-0.698132,-0.174533,-0.174533,-0.572257,-0.693421,-0.168591,-0.20092,1.00493,-0.263718,-0.17824,0.791609
28,60,-0.567232,-0.698132,-0.174533,-0.174533,-0.572257,-0.693421,-0.168591,-0.20092,1.00493,-0.263718,-0.17824,0.791609
28,60,-0.567232,-0.698132,-0.174533,-0.174533,-0.572257,-0.693421,-0.168591,-0.20092,1.00493,-0.263718,-0.17824,0.791609
28,60,-0.567232,-0.698132,-0.174533,-0.174533,-0.572257,-0.693421,-0.168591,-0.20092,1.00493,-0.263718,-0.17824,0.791609
28,60,-0.567232,-0.698132,-0.174533,-0.174533,-0.572257,-0.693421,-0.168591,-0.20092,1.00493,-0.263718,-0.17824,0.791609
28,60,-0.567232,-0.698132,-0.174533,-0.174533,-0.572257,-0.693421,-0.168591,-0.20092,1.00493,-0.263718,-0.17824,0.791609
28,60,-0.567232,-0.698132,-0.174533,-0.174533,-0.572257,-0.693421,-0.168591,-0.20092,1.00493,-0.263718,-0.17824,0.791609
28,60,-0.567232,-0.698132,-0.174533,-0.174533,-0.572257,-0.693421,-0.168591,-0.20092,1.00493,-0.263718,-0.17824,0.791609
28,60,-0.567232,-0.698132,-0.174533,-0.174533,-0.572257,-0.693421,-0.168591,-0.20092,1.00493,-0.263718,-0.17824,0.791609
28,60,-0.567232,-0.698132,-0.174533,-0.174533,-0.572257,-0.693421,-0.168591,-0.20092,1.00493,-0.263718,-0.17824,0.791609
28,60,-0.567232,-0.698132,-0.174533,-0.174533,-0.572257,-0.693421,-0.168591,-0.20092,1.00493,-0.263718,-0.17824,0.791609
28,60,-0.567232,-0.698132,-0.174533,-0.174533,-0.572257,-0.693421,-0.168591,-0.20092,1.00493,-0.263718,-0.17824,0.791609
28,60,-0.567232,-0.698132,-0.174533,-0.174533,-0.572257,-0.693421,-0.168591,-0.20092,1.00493,-0.263718,-0.17824,0.791609
28,60,-0.567232,-0.698132,-0.174533,-0.174533,-0.572257,-0.693421,-0.168591,-0.20092,1.00493,-0.263718,-0.17824,0.791609
28,60,-0.567232,-0.698132,-0.174533,-0.174533,-0.572257,-0.693421,-0.168591,-0.20092,1.00493,-0.263718,-0.17824,0.791609
28,60,-0.567232,-0.698132,-0.174533,-0.174533,-0.572257,-0.693421,-0.168591,-0.20092,1.00493,-0.263718,-0.17824,0.791609
28,60,-0.567232,-0.698132,-0.174533,-0.174533,-0.572257,-0.693421,-0.168591,-0.20092,1.00493,-0.263718,-0.17824,0.791609
28,60,-0.567232,-0.698132,-0.174533,-0.174533,-0.572257,-0.693421,-0.168591,-0.20092,1.00493,-0.263718,-0.17824,0.791609
28,60,-0.567232,-0.698132,-0.174533,-0.174533,-0.572257,-0.693421,-0.168591,-0.20092,1.00493,-0.263718,-0.17824,0.791609
28,60,-0.567232,-0.698132,-0.174533,-0.174533,-0.572257,-0.693421,-0.168591,-0.20092,1.00493,-0.263718,-0.17824,0.791609
28,60,-0.567232,-0.698132,-0.174533,-0.174533,-0.572257,-0.693421,-0.168591,-0.20092,1.00493,-0.263718,-0.17824,0.791609
28,60,-0.567232,-0.698132,-0.174533,-0.174533,-0.572257,-0.693421,-0.168591,-0.20092,1.00493,-0.263718,-0.17824,0.791609
28,60,-0.567232,-0.698132,-0.174533,-0.174533,-0.572257,-0.693421,-0.168591,-0.20092,1.00493,-0.263718,-0.17824,0.791609
28,60,-0.567232,-0.698132,-0.174533,-0.174533,-0.572257,-0.693421,-0.168591,-0.20092,1.00493,-0.263718,-0.17824,0.791609
28,60,-0.567232,-0.698132,-0.174533,-0.174533,-0.572257,-0.693421,-0.168591,-0.20092,1.00493,-0.263718,-0.17824,0.791609
28,60,-0.567232,-0.698132,-0.174533,-0.174533,-0.572257,-0.693421,-0.168591,-0.20092,1.00493,-0.263718,-0.17824,0.791609
28,60,-0.567232,-0.698132,-0.174533,-0.174533,-0.572257,-0.693421,-0.168591,-0.20092,1.00493,-0.263718,-0.17824,0.791609
28,60,-0.567232,-0.698132,-0.174533,-0.174533,-0.572257,-0.693421,-0.168591,-0.20092,1.00493,-0.263718,-0.17824,0.791609
28,60,-0.567232,-0.698132,-0.174533,-0.174533,-0.572257,-0.693421,-0.168591,-0.20092,1.00493,-0.263718,-0.17824,0.791609
28,60,-0.567232,-0.698132,-0.174533,-0.174533,-0.572257,-0.693421,-0.168591,-0.20092,1.00493,-0.263718,-0.17824,0.791609
28,60,-0.567232,-0.698132,-0.174533,-0.174533,-0.572257,-0.693421,-0.168591,-0.20092,1.00493,-0.263718,-0.17824,0.791609
28,60,-0.567232,-0.698132,-0.174533,-0.174533,-0.572257,-0.693421,-0.168591,-0.20092,1.00493,-0.263718,-0.17824,0.791609
28,60,-0.567232,-0.698132,-0.174533,-0.174533,-0.572257,-0.693421,-0.168591,-0.20092,1.00493,-0.263718,-0.17824,0.791609
28,60,-0.567232,-0.698132,-0.174533,-0.174533,-0.572257,-0.693421,-0.168591,-0.20092,1.00493,-0.263718,-0.17824,0.791609
28,60,-0.567232,-0.698132,-0.174533,-0.174533,-0.572257,-0.693421,-0.168591,-0.20092,1.00493,-0.263718,-0.17824,0.791609
28,60,-0.567232,-0.698132,-0.174533,-0.174533,-0.572257,-0.693421,-0.168591,-0.20092,1.00493,-0.263718,-0.17824,0.791609
28,60,-0.567232,-0.698132,-0.174533,-0.174533,-0.572257,-0.693421,-0.168653,-0.200901,1.00493,-0.263718,-0.176392,0.791041
28,60,-0.567232,-0.698132,-0.174533,-0.174533,-0.572257,-0.693421,-0.168653,-0.200901,1.00493,-0.263718,-0.176392,0.791041
28,60,-0.567232,-0.698132,-0.174533,-0.174533,-0.572257,-0.693421,-0.168653,-0.200901,1.00493,-0.263718,-0.176392,0.791041
28,60,-0.567232,-0.698132,-0.174533,-0.174533,-0.572257,-0.693421,-0.168653,-0.200901,1.00493,-0.263718,-0.176392,0.791041
28,60,-0.567232,-0.698132,-0.174533,-0.174533,-0.572257,-0.693421,-0.168653,-0.200901,1.00493,-0.263718,-0.176392,0.791041
28,60,-0.567232,-0.698132,-0.174533,-0.174533,-0.572257,-0.693421,-0.168653,-0.200901,1.00493,-0.263718,-0.176392,0.791041
28,60,-0.567232,-0.698132,-0.174533,-0.174533,-0.572257,-0.693421,-0.168653,-0.200901,1.00493,-0.263718,-0.176392,0.791041
28,60,-0.567232,-0.698132,-0.174533,-0.174533,-0.572257,-0.693421,-0.168653,-0.200901,1.00493,-0.263718,-0.176392,0.791041
28,60,-0.567232,-0.698132,-0.174533,-0.174533,-0.572257,-0.693421,-0.168653,-0.200901,1.00493,-0.263718,-0.176392,0.791041
28,60,-0.567232,-0.698132,-0.174533,-0.174533,-0.572257,-0.693421,-0.168653,-0.200901,1.00493,-0.263718,-0.176392,0.791041
28,60,-0.567232,-0.698132,-0.174533,-0.174533,-0.572257,-0.693421,-0.168653,-0.200901,1.00493,-0.263718,-0.176392,0.791041
28,60,-0.567232,-0.698132,-0.174533,-0.174533,-0.572257,-0.693421,-0.168653,-0.200901,1.00493,-0.263718,-0.176392,0.791041
28,60,-0.567232,-0.698132,-0.174533,-0.174533,-0.572257,-0.693421,-0.168653,-0.200901,1.00493,-0.263718,-0.176392,0.791041
28,60,-0.567232,-0.698132,-0.174533,-0.174533,-0.572257,-0.693421,-0.168653,-0.200901,1.00493,-0.263718,-0.176392,0.791041
28,60,-0.567232,-0.698132,-0.174533,-0.174533,-0.572257,-0.693421,-0.168653,-0.200901,1.00493,-0.263718,-0.176392,0.791041
28,60,-0.567232,-0.698132,-0.174533,-0.174533,-0.572257,-0.693421,-0.168653,-0.200901,1.00493,-0.263718,-0.176392,0.791041
28,60,-0.567232,-0.698132,-0.174533,-0.174533,-0.572257,-0.693421,-0.168653,-0.200901,1.00493,-0.263718,-0.176392,0.791041
28,60,-0.567232,-0.698132,-0.174533,-0.174533,-0.572257,-0.693421,-0.168653,-0.200901,1.00493,-0.263718,-0.176392,0.791041
28,60,-0.567232,-0.698132,-0.174533,-0.174533,-0.572257,-0.693421,-0.168653,-0.200901,1.00493,-0.263718,-0.176392,0.791041
28,60,-0.567232,-0.698132,-0.174533,-0.174533,-0.572257,-0.693421,-0.168653,-0.200901,1.00493,-0.263718,-0.176392,0.791041
28,60,-0.567232,-0.698132,-0.174533,-0.174533,-0.572257,-0.693421,-0.168653,-0.200901,1.00493,-0.263718,-0.176392,0.791041
28,60,-0.567232,-0.698132,-0.174533,-0.174533,-0.572257,-0.693421,-0.168653,-0.200901,1.00493,-0.263718,-0.176392,0.791041
28,60,-0.567232,-0.698132,-0.174533,-0.174533,-0.572257,-0.693421,-0.168653,-0.200901,1.00493,-0.263718,-0.176392,0.791041
28,60,-0.567232,-0.698132,-0.174533,-0.174533,-0.572257,-0.693421,-0.168653,-0.200901,1.00493,-0.263718,-0.176392,0.791041
28,60,-0.567232,-0.698132,-0.174533,-0.174533,-0.572257,-0.693421,-0.168585,-0.200858,1.00493,-0.263718,-0.178434,0.789747
28,60,-0.567232,-0.698132,-0.174533,-0.174533,-0.572257,-0.693421,-0.168585,-0.200858,1.00493,-0.263718,-0.178434,0.789747
28,60,-0.567232,-0.698132,-0.174533,-0.174533,-0.572257,-0.693421,-0.168585,-0.200858,1.00493,-0.263718,-0.178434,0.789747
28,60,-0.567232,-0.698132,-0.174533,-0.174533,-0.572257,-0.693421,-0.168585,-0.200858,1.00493,-0.263718,-0.178434,0.789747
28,60,-0.567232,-0.698132,-0.174533,-0.174533,-0.572257,-0.693421,-0.168585,-0.200858,1.00493,-0.263718,-0.178434,0.789747
28,60,-0.567232,-0.698132,-0.174533,-0.174533,-0.572257,-0.693421,-0.168585,-0.200858,1.00493,-0.263718,-0.178434,0.789747
28,60,-0.567232,-0.698132,-0.174533,-0.174533,-0.572257,-0.693421,-0.168585,-0.200858,1.00493,-0.263808,-0.178434,0.789747
28,60,-0.567232,-0.698132,-0.174533,-0.174533,-0.572257,-0.693421,-0.168585,-0.200858,1.00493,-0.263808,-0.178434,0.789747
28,60,-0.567232,-0.698132,-0.174533,-0.174533,-0.572257,-0.693421,-0.168585,-0.200858,1.00493,-0.263808,-0.178434,0.789747
28,60,-0.567232,-0.698132,-0.174533,-0.174533,-0.572257,-0.693421,-0.168585,-0.200858,1.00493,-0.263808,-0.178434,0.789747
28,60,-0.567232,-0.698132,-0.174533,-0.174533,-0.572257,-0.693421,-0.168585,-0.200858,1.00493,-0.263808,-0.178434,0.789747
28,60,-0.567232,-0.698132,-0.174533,-0.174533,-0.572257,-0.693421,-0.168585,-0.200858,1.00493,-0.263808,-0.178434,0.789747
28,60,-0.567232,-0.698132,-0.174533,-0.174533,-0.572257,-0.693421,-0.168585,-0.200858,1.00493,-0.263808,-0.178434,0.789747
28,60,-0.567232,-0.698132,-0.174533,-0.174533,-0.572257,-0.693421,-0.168585,-0.200858,1.00493,-0.263808,-0.178434,0.789747
28,60,-0.567232,-0.698132,-0.174533,-0.174533,-0.572257,-0.693421,-0.168585,-0.200858,1.00493,-0.263808,-0.178434,0.789747
28,60,-0.567232,-0.698132,-0.174533,-0.174533,-0.572257,-0.693421,-0.168585,-0.200858,1.00493,-0.263808,-0.178434,0.789747
28,60,-0.567232,-0.698132,-0.174533,-0.174533,-0.572257,-0.693421,-0.168585,-0.200858,1.00493,-0.263808,-0.178434,0.789747
28,60,-0.567232,-0.698132,-0.174533,-0.174533,-0.572257,-0.693421,-0.168585,-0.200858,1.00493,-0.263808,-0.178434,0.789747
28,60,-0.567232,-0.698132,-0.174533,-0.174533,-0.572257,-0.693421,-0.168585,-0.200858,1.00493,-0.263808,-0.178434,0.789747
28,60,-0.567232,-0.698132,-0.174533,-0.174533,-0.572257,-0.693421,-0.168585,-0.200858,1.00493,-0.263808,-0.178434,0.789747
28,60,-0.567232,-0.698132,-0.174533,-0.174533,-0.572257,-0.693421,-0.168585,-0.200858,1.00493,-0.263808,-0.178434,0.789747
28,60,-0.567232,-0.698132,-0.174533,-0.174533,-0.572257,-0.693421,-0.168585,-0.200858,1.00493,-0.263808,-0.178434,0.789747
28,60,-0.567232,-0.698132,-0.174533,-0.174533,-0.572257,-0.693421,-0.168585,-0.200858,1.00493,-0.263808,-0.178434,0.789747
28,60,-0.567232,-0.698132,-0.174533,-0.174533,-0.572257,-0.693421,-0.168585,-0.200858,1.00493,-0.263808,-0.178434,0.789747
28,60,-0.567232,-0.698132,-0.174533,-0.174533,-0.572257,-0.693421,-0.168585,-0.200858,1.00493,-0.263808,-0.178434,0.789747
28,60,-0.567232,-0.698132,-0.174533,-0.174533,-0.572257,-0.693421,-0.168585,-0.200858,1.00493,-0.263808,-0.178434,0.789747
28,60,-0.567232,-0.698132,-0.174533,-0.174533,-0.572257,-0.693421,-0.168585,-0.200858,1.00493,-0.263808,-0.178434,0.789747
28,60,-0.567232,-0.698132,-0.174533,-0.174533,-0.572257,-0.693421,-0.168585,-0.200858,1.00493,-0.263808,-0.178434,0.789747
28,60,-0.567232,-0.698132,-0.174533,-0.174533,-0.572257,-0.693421,-0.168585,-0.200858,1.00493,-0.263808,-0.178434,0.789747
28,60,-0.567232,-0.698132,-0.174533,-0.174533,-0.572257,-0.693421,-0.168585,-0.200858,1.00493,-0.263808,-0.178434,0.789747
28,60,-0.567232,-0.698132,-0.174533,-0.174533,-0.572257,-0.693421,-0.168585,-0.200858,1.00493,-0.263808,-0.178434,0.789747
28,60,-0.567232,-0.698132,-0.174533,-0.174533,-0.572257,-0.693421,-0.168585,-0.200858,1.00493,-0.263808,-0.178434,0.789747
28,60,-0.567232,-0.698132,-0.174533,-0.174533,-0.572257,-0.693421,-0.168585,-0.200858,1.00493,-0.263808,-0.178434,0.789747
28,60,-0.567232,-0.698132,-0.174533,-0.174533,-0.572257,-0.693421,-0.168585,-0.200858,1.00493,-0.263808,-0.178434,0.789747
28,60,-0.567232,-0.698132,-0.174533,-0.174533,-0.572257,-0.693421,-0.168585,-0.200858,1.00493,-0.263808,-0.178434,0.789747
28,60,-0.567232,-0.698132,-0.174533,-0.174533,-0.572257,-0.693421,-0.168585,-0.200858,1.00493,-0.263808,-0.178434,0.789747
28,60,-0.567232,-0.698132,-0.174533,-0.174533,-0.572257,-0.693421,-0.168585,-0.200858,1.00493,-0.263808,-0.178434,0.789747
28,60,-0.567232,-0.698132,-0.174533,-0.174533,-0.572257,-0.693421,-0.168585,-0.200858,1.00493,-0.263808,-0.178434,0.789747
28,60,-0.567232,-0.698132,-0.174533,-0.174533,-0.572257,-0.693421,-0.168585,-0.200858,1.00493,-0.263808,-0.178434,0.789747
28,60,-0.567232,-0.698132,-0.174533,-0.174533,-0.572257,-0.693421,-0.168585,-0.200858,1.00493,-0.263808,-0.178434,0.789747
28,60,-0.567232,-0.698132,-0.174533,-0.174533,-0.572257,-0.693421,-0.168585,-0.200858,1.00493,-0.263808,-0.178434,0.789747
28,60,-0.567232,-0.698132,-0.174533,-0.174533,-0.572257,-0.693421,-0.168585,-0.200858,1.00493,-0.263808,-0.178434,0.789747
28,60,-0.567232,-0.698132,-0.174533,-0.174533,-0.572257,-0.693421,-0.168585,-0.200858,1.00493,-0.263808,-0.178434,0.789747
28,60,-0.567232,-0.698132,-0.174533,-0.174533,-0.572257,-0.693421,-0.168585,-0.200858,1.00493,-0.263808,-0.178434,0.789747
28,60,-0.567232,-0.698132,-0.174533,-0.174533,-0.572257,-0.693421,-0.168585,-0.200858,1.00493,-0.263808,-0.178434,0.789747
28,60,-0.567232,-0.698132,-0.174533,-0.174533,-0.572257,-0.693421,-0.168585,-0.200858,1.00493,-0.263808,-0.178434,0.789747
28,60,-0.567232,-0.698132,-0.174533,-0.174533,-0.572257,-0.693421,-0.168585,-0.200858,1.00493,-0.263808,-0.178434,0.789747
28,60,-0.567232,-0.698132,-0.174533,-0.174533,-0.572257,-0.693421,-0.168585,-0.200858,1.00493,-0.263808,-0.178434,0.789747
28,60,-0.567232,-0.698132,-0.174533,-0.174533,-0.572257,-0.693421,-0.168585,-0.200858,1.00493,-0.263808,-0.178434,0.789747
28,60,-0.567232,-0.698132,-0.174533,-0.174533,-0.572257,-0.693421,-0.168585,-0.200858,1.00493,-0.263808,-0.178434,0.789747
28,60,-0.567232,-0.698132,-0.174533,-0.174533,-0.572257,-0.693421,-0.168585,-0.200858,1.00493,-0.263808,-0.178434,0.789747
28,60,-0.567232,-0.698132,-0.174533,-0.174533,-0.572257,-0.693421,-0.168585,-0.200858,1.00493,-0.263808,-0.178434,0.789747
28,60,-0.567232,-0.698132,-0.174533,-0.174533,-0.572257,-0.693421,-0.168585,-0.200858,1.00493,-0.263808,-0.178434,0.789747
28,60,-0.567232,-0.698132,-0.174533,-0.174533,-0.572257,-0.693421,-0.168585,-0.200858,1.00493,-0.263808,-0.178434,0.789747
28,60,-0.567232,-0.698132,-0.174533,-0.174533,-0.572257,-0.693421,-0.168585,-0.200858,1.00493,-0.263808,-0.178434,0.789747
28,60,-0.567232,-0.698132,-0.174533,-0.174533,-0.572257,-0.693421,-0.168585,-0.200858,1.00493,-0.263808,-0.178434,0.789747
28,60,-0.567232,-0.698132,-0.174533,-0.174533,-0.572257,-0.693421,-0.168585,-0.200858,1.00493,-0.263808,-0.178434,0.789747
28,60,-0.567232,-0.698132,-0.174533,-0.174533,-0.572257,-0.693421,-0.168585,-0.200858,1.00493,-0.263808,-0.178434,0.789747
28,60,-0.567232,-0.698132,-0.174533,-0.174533,-0.572257,-0.693421,-0.168585,-0.200858,1.00493,-0.263808,-0.178434,0.789747
28,60,-0.567232,-0.698132,-0.174533,-0.174533,-0.572257,-0.693421,-0.168585,-0.200858,1.00493,-0.263808,-0.178434,0.789747
28,60,-0.567232,-0.698132,-0.174533,-0.174533,-0.572257,-0.693421,-0.168585,-0.200858,1.00493,-0.263808,-0.178434,0.789747
28,60,-0.567232,-0.698132,-0.174533,-0.174533,-0.572257,-0.693421,-0.168585,-0.200858,1.00493,-0.263808,-0.178434,0.789747
28,60,-0.567232,-0.698132,-0.174533,-0.174533,-0.572257,-0.693421,-0.168585,-0.200858,1.00493,-0.263808,-0.178434,0.789747
28,60,-0.567232,-0.698132,-0.174533,-0.174533,-0.572257,-0.693421,-0.168585,-0.200858,1.00493,-0.263808,-0.178434,0.789747
28,60,-0.567232,-0.698132,-0.174533,-0.174533,-0.572257,-0.693421,-0.168585,-0.200858,1.00493,-0.263808,-0.178434,0.789747
28,60,-0.567232,-0.698132,-0.174533,-0.174533,-0.572257,-0.693421,-0.168585,-0.200858,1.00493,-0.263808,-0.178434,0.789747
28,60,-0.567232,-0.698132,-0.174533,-0.174533,-0.572257,-0.693421,-0.168585,-0.200858,1.00493,-0.263808,-0.178434,0.789747
28,60,-0.567232,-0.698132,-0.174533,-0.174533,-0.572257,-0.693421,-0.168585,-0.200858,1.00493,-0.263808,-0.178434,0.789747
28,60,-0.567232,-0.698132,-0.174533,-0.174533,-0.572257,-0.693421,-0.168585,-0.200858,1.00493,-0.263808,-0.178434,0.789747
28,60,-0.567232,-0.698132,-0.174533,-0.174533,-0.572257,-0.693421,-0.168585,-0.200858,1.00493,-0.263808,-0.178434,0.789747
28,60,-0.567232,-0.698132,-0.174533,-0.174533,-0.572257,-0.693421,-0.168585,-0.200858,1.00493,-0.263808,-0.178434,0.789747
28,60,-0.567232,-0.698132,-0.174533,-0.174533,-0.572257,-0.693421,-0.168585,-0.200858,1.00493,-0.263808,-0.178434,0.789747
28,60,-0.567232,-0.698132,-0.174533,-0.174533,-0.572257,-0.693421,-0.168585,-0.200858,1.00493,-0.263808,-0.178434,0.789747
28,60,-0.567232,-0.698132,-0.174533,-0.174533,-0.572257,-0.693421,-0.168585,-0.200858,1.00493,-0.263808,-0.178434,0.789747
28,60,-0.567232,-0.698132,-0.174533,-0.174533,-0.572257,-0.693421,-0.168585,-0.200858,1.00493,-0.263808,-0.178434,0.789747
28,60,-0.567232,-0.698132,-0.174533,-0.174533,-0.572257,-0.693421,-0.168585,-0.200858,1.00493,-0.263808,-0.178434,0.789747
28,60,-0.567232,-0.698132,-0.174533,-0.174533,-0.572257,-0.693421,-0.168585,-0.200858,1.00493,-0.263808,-0.178434,0.789747
28,60,-0.567232,-0.698132,-0.174533,-0.174533,-0.572257,-0.693421,-0.168585,-0.200858,1.00493,-0.263808,-0.178434,0.789747
28,60,-0.567232,-0.698132,-0.174533,-0.174533,-0.572257,-0.693421,-0.168585,-0.200858,1.00493,-0.263808,-0.178434,0.789747
28,60,-0.567232,-0.698132,-0.174533,-0.174533,-0.572257,-0.693421,-0.168585,-0.200858,1.00493,-0.263808,-0.178434,0.789747
28,60,-0.567232,-0.698132,-0.174533,-0.174533,-0.572257,-0.693421,-0.168585,-0.200858,1.00493,-0.263808,-0.178434,0.789747
28,60,-0.567232,-0.698132,-0.174533,-0.174533,-0.572257,-0.693421,-0.168585,-0.200858,1.00493,-0.263808,-0.178434,0.789747
28,60,-0.567232,-0.698132,-0.174533,-0.174533,-0.572257,-0.693421,-0.168585,-0.200858,1.00493,-0.263808,-0.178434,0.789747
28,60,-0.567232,-0.698132,-0.174533,-0.174533,-0.572257,-0.693421,-0.168585,-0.200858,1.00493,-0.263808,-0.178434,0.789747
28,60,-0.567232,-0.698132,-0.174533,-0.174533,-0.572257,-0.693421,-0.168585,-0.200858,1.00493,-0.263808,-0.178434,0.789747
28,60,-0.567232,-0.698132,-0.174533,-0.174533,-0.572257,-0.693421,-0.168585,-0.200858,1.00493,-0.263808,-0.178434,0.789747
28,60,-0.567232,-0.698132,-0.174533,-0.174533,-0.572257,-0.693421,-0.168585,-0.200858,1.00493,-0.263808,-0.178434,0.789747
28,60,-0.567232,-0.698132,-0.174533,-0.174533,-0.572257,-0.693421,-0.168585,-0.200858,1.00493,-0.263808,-0.178434,0.789747
28,60,-0.567232,-0.698132,-0.174533,-0.174533,-0.572257,-0.693421,-0.168585,-0.200858,1.00493,-0.263808,-0.178434,0.789747
28,60,-0.567232,-0.698132,-0.174533,-0.174533,-0.572257,-0.693421,-0.168585,-0.200858,1.00493,-0.263808,-0.178434,0.789747
28,60,-0.567232,-0.698132,-0.174533,-0.174533,-0.572257,-0.693421,-0.168585,-0.200858,1.00493,-0.263808,-0.178434,0.789747
28,60,-0.567232,-0.698132,-0.174533,-0.174533,-0.572257,-0.693421,-0.168585,-0.200858,1.00493,-0.263808,-0.178434,0.789747
28,60,-0.567232,-0.698132,-0.174533,-0.174533,-0.572257,-0.693421,-0.168585,-0.200858,1.00493,-0.263808,-0.178434,0.789747
28,60,-0.567232,-0.698132,-0.174533,-0.174533,-0.572257,-0.693421,-0.168585,-0.200858,1.00493,-0.263808,-0.178434,0.789747
28,60,-0.567232,-0.698132,-0.174533,-0.174533,-0.572257,-0.693421,-0.168585,-0.200858,1.00493,-0.263808,-0.178434,0.789747
28,60,-0.567232,-0.698132,-0.174533,-0.174533,-0.572257,-0.693421,-0.168585,-0.200858,1.00493,-0.263808,-0.178434,0.789747
28,60,-0.567232,-0.698132,-0.174533,-0.174533,-0.572257,-0.693421,-0.168585,-0.200858,1.00493,-0.263808,-0.178434,0.789747
28,60,-0.567232,-0.698132,-0.174533,-0.174533,-0.572257,-0.693421,-0.168585,-0.200858,1.00493,-0.263808,-0.178434,0.789747
28,60,-0.567232,-0.698132,-0.174533,-0.174533,-0.572257,-0.693421,-0.168585,-0.200858,1.00493,-0.263808,-0.178434,0.789747
28,60,-0.567232,-0.698132,-0.174533,-0.174533,-0.572257,-0.693421,-0.168585,-0.200858,1.00493,-0.263808,-0.178434,0.789747
28,60,-0.567232,-0.698132,-0.174533,-0.174533,-0.572257,-0.693421,-0.168585,-0.200858,1.00493,-0.263808,-0.178434,0.789747
28,60,-0.567232,-0.698132,-0.174533,-0.174533,-0.572257,-0.693421,-0.168585,-0.200858,1.00493,-0.263808,-0.178434,0.789747
28,60,-0.567232,-0.698132,-0.174533,-0.174533,-0.572257,-0.693421,-0.168585,-0.200858,1.00493,-0.263808,-0.178434,0.789747
28,60,-0.567232,-0.698132,-0.174533,-0.174533,-0.572257,-0.693421,-0.168585,-0.200858,1.00493,-0.263808,-0.178434,0.789747
28,60,-0.567232,-0.698132,-0.174533,-0.174533,-0.572257,-0.693421,-0.168585,-0.200858,1.00493,-0.263808,-0.178434,0.789747
28,60,-0.567232,-0.698132,-0.174533,-0.174533,-0.572257,-0.693421,-0.168585,-0.200858,1.00493,-0.263808,-0.178434,0.789747
28,60,-0.567232,-0.698132,-0.174533,-0.174533,-0.572257,-0.693421,-0.168585,-0.200858,1.00493,-0.263808,-0.178434,0.789747
28,60,-0.567232,-0.698132,-0.174533,-0.174533,-0.572257,-0.693421,-0.168585,-0.200858,1.00493,-0.263808,-0.178434,0.789747
28,60,-0.567232,-0.698132,-0.174533,-0.174533,-0.572257,-0.693421,-0.168585,-0.200858,1.00493,-0.263808,-0.178434,0.789747
28,60,-0.567232,-0.698132,-0.174533,-0.174533,-0.572257,-0.693421,-0.168585,-0.200858,1.00493,-0.263808,-0.178434,0.789747
28,60,-0.567232,-0.698132,-0.174533,-0.174533,-0.572257,-0.693421,-0.168585,-0.200858,1.00493,-0.263808,-0.178434,0.789747
28,60,-0.567232,-0.698132,-0.174533,-0.174533,-0.572257,-0.693421,-0.168585,-0.200858,1.00493,-0.263808,-0.178434,0.789747
28,60,-0.567232,-0.698132,-0.174533,-0.174533,-0.572257,-0.693421,-0.168585,-0.200858,1.00493,-0.263808,-0.178434,0.789747
28,60,-0.567232,-0.698132,-0.174533,-0.174533,-0.572257,-0.693421,-0.168585,-0.200858,1.00493,-0.263808,-0.178434,0.789747
28,60,-0.567232,-0.698132,-0.174533,-0.174533,-0.572257,-0.693421,-0.168585,-0.200858,1.00493,-0.263808,-0.178434,0.789747
28,60,-0.567232,-0.698132,-0.174533,-0.174533,-0.572257,-0.693421,-0.168585,-0.200858,1.00493,-0.263808,-0.178434,0.789747
28,60,-0.567232,-0.698132,-0.174533,-0.174533,-0.572257,-0.693421,-0.168585,-0.200858,1.00493,-0.263808,-0.178434,0.789747
28,60,-0.567232,-0.698132,-0.174533,-0.174533,-0.572257,-0.693421,-0.168585,-0.200858,1.00493,-0.263808,-0.178434,0.789747
28,60,-0.567232,-0.698132,-0.174533,-0.174533,-0.572257,-0.693421,-0.168585,-0.200858,1.00493,-0.263808,-0.178434,0.789747
28,60,-0.567232,-0.698132,-0.174533,-0.174533,-0.572257,-0.693421,-0.168585,-0.200858,1.00493,-0.263808,-0.178434,0.789747
28,60,-0.567232,-0.698132,-0.174533,-0.174533,-0.572257,-0.693421,-0.168585,-0.200858,1.00493,-0.263808,-0.178434,0.789747
28,60,-0.567232,-0.698132,-0.174533,-0.174533,-0.572257,-0.693421,-0.168585,-0.200858,1.00493,-0.263808,-0.178434,0.789747
28,60,-0.567232,-0.698132,-0.174533,-0.174533,-0.572257,-0.693421,-0.168585,-0.200858,1.00493,-0.263808,-0.178434,0.789747
28,60,-0.567232,-0.698132,-0.174533,-0.174533,-0.572257,-0.693421,-0.168517,-0.200815,1.00493,-0.263808,-0.180474,0.788454
28,60,-0.567232,-0.698132,-0.174533,-0.174533,-0.572257,-0.693421,-0.168517,-0.200815,1.00493,-0.263808,-0.180474,0.788454
28,60,-0.567232,-0.698132,-0.174533,-0.174533,-0.572257,-0.693421,-0.168517,-0.200815,1.00493,-0.263808,-0.180474,0.788454
28,60,-0.567232,-0.698132,-0.174533,-0.174533,-0.572257,-0.693421,-0.168517,-0.200815,1.00493,-0.263808,-0.180474,0.788454
28,60,-0.567232,-0.698132,-0.174533,-0.174533,-0.572257,-0.693421,-0.168517,-0.200815,1.00493,-0.263808,-0.180474,0.788454
28,60,-0.567232,-0.698132,-0.174533,-0.174533,-0.572257,-0.693421,-0.168517,-0.200815,1.00493,-0.263808,-0.180474,0.788454
28,60,-0.567232,-0.698132,-0.174533,-0.174533,-0.572257,-0.693421,-0.168517,-0.200815,1.00493,-0.263808,-0.180474,0.788454
28,60,-0.567232,-0.698132,-0.174533,-0.174533,-0.572257,-0.693421,-0.168517,-0.200815,1.00493,-0.263808,-0.180474,0.788454
28,60,-0.567232,-0.698132,-0.174533,-0.174533,-0.572257,-0.693421,-0.168517,-0.200815,1.00493,-0.263808,-0.180474,0.788454
28,60,-0.567232,-0.698132,-0.174533,-0.174533,-0.572257,-0.693421,-0.168517,-0.200815,1.00493,-0.263808,-0.180474,0.788454
28,60,-0.567232,-0.698132,-0.174533,-0.174533,-0.572257,-0.693421,-0.168517,-0.200815,1.00493,-0.263808,-0.180474,0.788454
28,60,-0.567232,-0.698132,-0.174533,-0.174533,-0.572257,-0.693421,-0.168517,-0.200815,1.00493,-0.263808,-0.180474,0.788454
28,60,-0.567232,-0.698132,-0.174533,-0.174533,-0.572257,-0.693421,-0.168517,-0.200815,1.00493,-0.263808,-0.180474,0.788454
28,60,-0.567232,-0.698132,-0.174533,-0.174533,-0.572257,-0.693421,-0.168517,-0.200815,1.00493,-0.263808,-0.180474,0.788454
28,60,-0.567232,-0.698132,-0.174533,-0.174533,-0.572257,-0.693421,-0.168517,-0.200815,1.00493,-0.263808,-0.180474,0.788454
28,60,-0.567232,-0.698132,-0.174533,-0.174533,-0.572257,-0.693421,-0.168517,-0.200815,1.00493,-0.263808,-0.180474,0.788454
28,60,-0.567232,-0.698132,-0.174533,-0.174533,-0.572257,-0.693421,-0.168517,-0.200815,1.00493,-0.263808,-0.180474,0.788454
28,60,-0.567232,-0.698132,-0.174533,-0.174533,-0.572257,-0.693421,-0.168517,-0.200815,1.00493,-0.263808,-0.180474,0.788454
28,60,-0.567232,-0.698132,-0.174533,-0.174533,-0.572257,-0.693421,-0.168517,-0.200815,1.00493,-0.263808,-0.180474,0.788454
28,60,-0.567232,-0.698132,-0.174533,-0.174533,-0.572257,-0.693421,-0.168517,-0.200815,1.00493,-0.263808,-0.180474,0.788454
28,60,-0.567232,-0.698132,-0.174533,-0.174533,-0.572257,-0.693421,-0.168517,-0.200815,1.00493,-0.263808,-0.180474,0.788454
28,60,-0.567232,-0.698132,-0.174533,-0.174533,-0.572257,-0.693421,-0.168517,-0.200815,1.00493,-0.263808,-0.180474,0.788454
28,60,-0.567232,-0.698132,-0.174533,-0.174533,-0.572257,-0.693421,-0.168517,-0.200815,1.00493,-0.263808,-0.180474,0.788454
28,60,-0.567232,-0.698132,-0.174533,-0.174533,-0.572257,-0.693421,-0.168517,-0.200815,1.00493,-0.263808,-0.180474,0.788454
28,60,-0.567232,-0.698132,-0.174533,-0.174533,-0.572257,-0.693421,-0.168517,-0.200815,1.00493,-0.263808,-0.180474,0.788454
28,60,-0.567232,-0.698132,-0.174533,-0.174533,-0.572257,-0.693421,-0.168517,-0.200815,1.00493,-0.263808,-0.180474,0.788454
28,60,-0.567232,-0.698132,-0.174533,-0.174533,-0.572257,-0.693421,-0.168517,-0.200815,1.00493,-0.263808,-0.180474,0.788454
28,60,-0.567232,-0.698132,-0.174533,-0.174533,-0.572257,-0.693421,-0.168517,-0.200815,1.00493,-0.263808,-0.180474,0.788454
28,60,-0.567232,-0.698132,-0.174533,-0.174533,-0.572257,-0.693421,-0.168517,-0.200815,1.00493,-0.263808,-0.180474,0.788454
28,60,-0.567232,-0.698132,-0.174533,-0.174533,-0.572257,-0.693421,-0.168517,-0.200815,1.00493,-0.263808,-0.180474,0.788454
28,60,-0.567232,-0.698132,-0.174533,-0.174533,-0.572257,-0.693421,-0.168517,-0.200815,1.00493,-0.263808,-0.180474,0.788454
28,60,-0.567232,-0.698132,-0.174533,-0.174533,-0.572257,-0.693421,-0.168517,-0.200815,1.00493,-0.263808,-0.180474,0.788454
28,60,-0.567232,-0.698132,-0.174533,-0.174533,-0.572257,-0.693421,-0.168517,-0.200815,1.00493,-0.263808,-0.180474,0.788454
28,60,-0.567232,-0.698132,-0.174533,-0.174533,-0.572257,-0.693421,-0.168517,-0.200815,1.00493,-0.263808,-0.180474,0.788454
28,60,-0.567232,-0.698132,-0.174533,-0.174533,-0.572257,-0.693421,-0.168517,-0.200815,1.00493,-0.263808,-0.180474,0.788454
28,60,-0.567232,-0.698132,-0.174533,-0.174533,-0.572257,-0.693421,-0.168517,-0.200815,1.00493,-0.263808,-0.180474,0.788454
28,60,-0.567232,-0.698132,-0.174533,-0.174533,-0.572257,-0.693421,-0.168517,-0.200815,1.00493,-0.263808,-0.180474,0.788454
28,60,-0.567232,-0.698132,-0.174533,-0.174533,-0.572257,-0.693421,-0.168517,-0.200815,1.00493,-0.263808,-0.180474,0.788454
28,60,-0.567232,-0.698132,-0.174533,-0.174533,-0.572257,-0.693421,-0.168517,-0.200815,1.00493,-0.263808,-0.180474,0.788454
28,60,-0.567232,-0.698132,-0.174533,-0.174533,-0.572257,-0.693421,-0.168517,-0.200815,1.00493,-0.263808,-0.180474,0.788454
28,60,-0.567232,-0.698132,-0.174533,-0.174533,-0.572257,-0.693421,-0.168517,-0.200815,1.00493,-0.263808,-0.180474,0.788454
28,60,-0.567232,-0.698132,-0.174533,-0.174533,-0.572257,-0.693421,-0.168517,-0.200815,1.00493,-0.263808,-0.180474,0.788454
28,60,-0.567232,-0.698132,-0.174533,-0.174533,-0.572257,-0.693421,-0.168517,-0.200815,1.00493,-0.263808,-0.180474,0.788454
28,60,-0.567232,-0.698132,-0.174533,-0.174533,-0.572257,-0.693421,-0.168517,-0.200815,1.00493,-0.263808,-0.180474,0.788454
28,60,-0.567232,-0.698132,-0.174533,-0.174533,-0.572257,-0.693421,-0.168578,-0.200796,1.00493,-0.263808,-0.178611,0.787882
28,60,-0.567232,-0.698132,-0.174533,-0.174533,-0.572257,-0.693421,-0.168578,-0.200796,1.00493,-0.263808,-0.178611,0.787882
28,60,-0.567232,-0.698132,-0.174533,-0.174533,-0.572257,-0.693421,-0.168578,-0.200796,1.00493,-0.263808,-0.178611,0.787882
28,60,-0.567232,-0.698132,-0.174533,-0.174533,-0.572257,-0.693421,-0.168578,-0.200796,1.00493,-0.263808,-0.178611,0.787882
28,60,-0.567232,-0.698132,-0.174533,-0.174533,-0.572257,-0.693421,-0.168578,-0.200796,1.00493,-0.263808,-0.178611,0.787882
28,60,-0.567232,-0.698132,-0.174533,-0.174533,-0.572257,-0.693421,-0.168578,-0.200796,1.00493,-0.263808,-0.178611,0.787882
28,60,-0.567232,-0.698132,-0.174533,-0.174533,-0.572257,-0.693421,-0.168578,-0.200796,1.00493,-0.263808,-0.178611,0.787882
28,60,-0.567232,-0.698132,-0.174533,-0.174533,-0.572257,-0.693421,-0.168578,-0.200796,1.00493,-0.263808,-0.178611,0.787882
28,60,-0.567232,-0.698132,-0.174533,-0.174533,-0.572257,-0.693421,-0.168578,-0.200796,1.00493,-0.263808,-0.178611,0.787882
28,60,-0.567232,-0.698132,-0.174533,-0.174533,-0.572257,-0.693421,-0.168578,-0.200796,1.00493,-0.263808,-0.178611,0.787882
28,60,-0.567232,-0.698132,-0.174533,-0.174533,-0.572257,-0.693421,-0.168578,-0.200796,1.00493,-0.263808,-0.178611,0.787882
28,60,-0.567232,-0.698132,-0.174533,-0.174533,-0.572257,-0.693421,-0.168578,-0.200796,1.00493,-0.263808,-0.178611,0.787882
28,60,-0.567232,-0.698132,-0.174533,-0.174533,-0.572257,-0.693421,-0.168578,-0.200796,1.00493,-0.263808,-0.178611,0.787882
28,60,-0.567232,-0.698132,-0.174533,-0.174533,-0.572257,-0.693421,-0.168578,-0.200796,1.00493,-0.263808,-0.178611,0.787882
28,60,-0.567232,-0.698132,-0.174533,-0.174533,-0.572257,-0.693421,-0.168578,-0.200796,1.00493,-0.263808,-0.178611,0.787882
28,60,-0.567232,-0.698132,-0.174533,-0.174533,-0.572257,-0.693421,-0.168578,-0.200796,1.00493,-0.263808,-0.178611,0.787882
28,60,-0.567232,-0.698132,-0.174533,-0.174533,-0.572257,-0.693421,-0.168578,-0.200796,1.00493,-0.263808,-0.178611,0.787882
28,60,-0.567232,-0.698132,-0.174533,-0.174533,-0.572257,-0.693421,-0.168578,-0.200796,1.00493,-0.263808,-0.178611,0.787882
28,60,-0.567232,-0.698132,-0.174533,-0.174533,-0.572257,-0.693421,-0.168578,-0.200796,1.00493,-0.263808,-0.178611,0.787882
28,60,-0.567232,-0.698132,-0.174533,-0.174533,-0.572257,-0.693421,-0.168578,-0.200796,1.00493,-0.263808,-0.178611,0.787882
28,60,-0.567232,-0.698132,-0.174533,-0.174533,-0.572257,-0.693421,-0.168578,-0.200796,1.00493,-0.263808,-0.178611,0.787882
28,60,-0.567232,-0.698132,-0.174533,-0.174533,-0.572257,-0.693421,-0.168578,-0.200796,1.00493,-0.263808,-0.178611,0.787882
28,60,-0.567232,-0.698132,-0.174533,-0.174533,-0.572257,-0.693421,-0.168578,-0.200796,1.00493,-0.263808,-0.178611,0.787882
28,60,-0.567232,-0.698132,-0.174533,-0.174533,-0.572257,-0.693421,-0.168578,-0.200796,1.00493,-0.263808,-0.178611,0.787882
28,60,-0.567232,-0.698132,-0.174533,-0.174533,-0.572257,-0.693421,-0.168578,-0.200796,1.00493,-0.263808,-0.178611,0.787882
28,60,-0.567232,-0.698132,-0.174533,-0.174533,-0.572257,-0.693421,-0.168578,-0.200796,1.00493,-0.263808,-0.178611,0.787882
28,60,-0.567232,-0.698132,-0.174533,-0.174533,-0.572257,-0.693421,-0.168578,-0.200796,1.00493,-0.263808,-0.178611,0.787882
28,60,-0.567232,-0.698132,-0.174533,-0.174533,-0.572257,-0.693421,-0.168578,-0.200796,1.00493,-0.263808,-0.178611,0.787882
28,60,-0.567232,-0.698132,-0.174533,-0.174533,-0.572257,-0.693421,-0.168578,-0.200796,1.00493,-0.263808,-0.178611,0.787882
28,60,-0.567232,-0.698132,-0.174533,-0.174533,-0.572257,-0.693421,-0.168578,-0.200796,1.00493,-0.263808,-0.178611,0.787882
28,60,-0.567232,-0.698132,-0.174533,-0.174533,-0.572257,-0.693421,-0.168578,-0.200796,1.00493,-0.263808,-0.178611,0.787882
28,60,-0.567232,-0.698132,-0.174533,-0.174533,-0.572257,-0.693421,-0.168578,-0.200796,1.00493,-0.263808,-0.178611,0.787882
28,60,-0.567232,-0.698132,-0.174533,-0.174533,-0.572257,-0.693421,-0.168578,-0.200796,1.00493,-0.263808,-0.178611,0.787882
28,60,-0.567232,-0.698132,-0.174533,-0.174533,-0.572257,-0.693421,-0.168578,-0.200796,1.00493,-0.263808,-0.178611,0.787882
28,60,-0.567232,-0.698132,-0.174533,-0.174533,-0.572257,-0.693421,-0.168578,-0.200796,1.00493,-0.263808,-0.178611,0.787882
28,60,-0.567232,-0.698132,-0.174533,-0.174533,-0.572257,-0.693421,-0.168578,-0.200796,1.00493,-0.263808,-0.178611,0.787882
28,60,-0.567232,-0.698132,-0.174533,-0.174533,-0.572257,-0.693421,-0.168578,-0.200796,1.00493,-0.263808,-0.178611,0.787882
28,60,-0.567232,-0.698132,-0.174533,-0.174533,-0.572257,-0.693421,-0.168578,-0.200796,1.00493,-0.263808,-0.178611,0.787882
28,60,-0.567232,-0.698132,-0.174533,-0.174533,-0.572257,-0.693421,-0.168578,-0.200796,1.00493,-0.263808,-0.178611,0.787882
28,60,-0.567232,-0.698132,-0.174533,-0.174533,-0.572257,-0.693421,-0.168578,-0.200796,1.00493,-0.263808,-0.178611,0.787882
28,60,-0.567232,-0.698132,-0.174533,-0.174533,-0.572257,-0.693421,-0.168578,-0.200796,1.00493,-0.263808,-0.178611,0.787882
28,60,-0.567232,-0.698132,-0.174533,-0.174533,-0.572257,-0.693421,-0.168578,-0.200796,1.00493,-0.263808,-0.178611,0.787882
28,60,-0.567232,-0.698132,-0.174533,-0.174533,-0.572257,-0.693421,-0.168578,-0.200796,1.00493,-0.263808,-0.178611,0.787882
28,60,-0.567232,-0.698132,-0.174533,-0.174533,-0.572257,-0.693421,-0.168578,-0.200796,1.00493,-0.263808,-0.178611,0.787882
28,60,-0.567232,-0.698132,-0.174533,-0.174533,-0.572257,-0.693421,-0.168578,-0.200796,1.00493,-0.263808,-0.178611,0.787882
28,60,-0.567232,-0.698132,-0.174533,-0.174533,-0.572257,-0.693421,-0.168578,-0.200796,1.00493,-0.263808,-0.178611,0.787882
28,60,-0.567232,-0.698132,-0.174533,-0.174533,-0.572257,-0.693421,-0.168578,-0.200796,1.00493,-0.263808,-0.178611,0.787882
28,60,-0.567232,-0.698132,-0.174533,-0.174533,-0.572257,-0.693421,-0.168578,-0.200796,1.00493,-0.263808,-0.178611,0.787882
28,60,-0.567232,-0.698132,-0.174533,-0.174533,-0.572257,-0.693421,-0.168578,-0.200796,1.00493,-0.263808,-0.178611,0.787882
28,60,-0.567232,-0.698132,-0.174533,-0.174533,-0.572257,-0.693421,-0.168578,-0.200796,1.00493,-0.263808,-0.178611,0.787882
28,60,-0.567232,-0.698132,-0.174533,-0.174533,-0.572257,-0.693421,-0.168578,-0.200796,1.00493,-0.263808,-0.178611,0.787882
28,60,-0.567232,-0.698132,-0.174533,-0.174533,-0.572257,-0.693421,-0.168578,-0.200796,1.00493,-0.263808,-0.178611,0.787882
28,60,-0.567232,-0.698132,-0.174533,-0.174533,-0.572257,-0.693421,-0.168578,-0.200796,1.00493,-0.263808,-0.178611,0.787882
28,60,-0.567232,-0.698132,-0.174533,-0.174533,-0.572257,-0.693421,-0.168578,-0.200796,1.00493,-0.263808,-0.178611,0.787882
28,60,-0.567232,-0.698132,-0.174533,-0.174533,-0.572257,-0.693421,-0.168578,-0.200796,1.00493,-0.263808,-0.178611,0.787882
28,60,-0.567232,-0.698132,-0.174533,-0.174533,-0.572257,-0.693421,-0.168578,-0.200796,1.00493,-0.263808,-0.178611,0.787882
28,60,-0.567232,-0.698132,-0.174533,-0.174533,-0.572257,-0.693421,-0.168578,-0.200796,1.00493,-0.263808,-0.178611,0.787882
28,60,-0.567232,-0.698132,-0.174533,-0.174533,-0.572257,-0.693421,-0.168578,-0.200796,1.00493,-0.263808,-0.178611,0.787882
28,60,-0.567232,-0.698132,-0.174533,-0.174533,-0.572257,-0.693421,-0.168578,-0.200796,1.00493,-0.263808,-0.178611,0.787882
28,60,-0.567232,-0.698132,-0.174533,-0.174533,-0.572257,-0.693421,-0.168578,-0.200796,1.00493,-0.263808,-0.178611,0.787882
28,60,-0.567232,-0.698132,-0.174533,-0.174533,-0.572257,-0.693421,-0.168578,-0.200796,1.00493,-0.263808,-0.178611,0.787882
28,60,-0.567232,-0.698132,-0.174533,-0.174533,-0.572257,-0.693421,-0.168578,-0.200796,1.00493,-0.263808,-0.178611,0.787882
28,60,-0.567232,-0.698132,-0.174533,-0.174533,-0.572257,-0.693421,-0.168578,-0.200796,1.00493,-0.263808,-0.178611,0.787882
28,60,-0.567232,-0.698132,-0.174533,-0.174533,-0.572257,-0.693421,-0.168578,-0.200796,1.00493,-0.263808,-0.178611,0.787882
28,60,-0.567232,-0.698132,-0.174533,-0.174533,-0.572257,-0.693421,-0.168578,-0.200796,1.00493,-0.263808,-0.178611,0.787882
28,60,-0.567232,-0.698132,-0.174533,-0.174533,-0.572257,-0.693421,-0.168578,-0.200796,1.00493,-0.263808,-0.178611,0.787882
28,60,-0.567232,-0.698132,-0.174533,-0.174533,-0.572257,-0.693421,-0.168578,-0.200796,1.00493,-0.263808,-0.178611,0.787882
28,60,-0.567232,-0.698132,-0.174533,-0.174533,-0.572257,-0.693421,-0.168578,-0.200796,1.00493,-0.263808,-0.178611,0.787882
28,60,-0.567232,-0.698132,-0.174533,-0.174533,-0.572257,-0.693421,-0.168578,-0.200796,1.00493,-0.263808,-0.178611,0.787882
28,60,-0.567232,-0.698132,-0.174533,-0.174533,-0.572257,-0.693421,-0.168578,-0.200796,1.00493,-0.263808,-0.178611,0.787882
28,60,-0.567232,-0.698132,-0.174533,-0.174533,-0.572257,-0.693421,-0.168578,-0.200796,1.00493,-0.263808,-0.178611,0.787882
28,60,-0.567232,-0.698132,-0.174533,-0.174533,-0.572257,-0.693421,-0.168578,-0.200796,1.00493,-0.263808,-0.178611,0.787882
28,60,-0.567232,-0.698132,-0.174533,-0.174533,-0.572257,-0.693421,-0.168578,-0.200796,1.00493,-0.263808,-0.178611,0.787882
28,60,-0.567232,-0.698132,-0.174533,-0.174533,-0.572257,-0.693421,-0.168578,-0.200796,1.00493,-0.263808,-0.178611,0.787882
28,60,-0.567232,-0.698132,-0.174533,-0.174533,-0.572257,-0.693421,-0.168578,-0.200796,1.00493,-0.263808,-0.178612,0.787882
28,60,-0.567232,-0.698132,-0.174533,-0.174533,-0.572257,-0.693421,-0.168578,-0.200796,1.00493,-0.263808,-0.178612,0.787882
28,60,-0.567232,-0.698132,-0.174533,-0.174533,-0.572257,-0.693421,-0.168578,-0.200796,1.00493,-0.263808,-0.178613,0.787883
28,60,-0.567232,-0.698132,-0.174533,-0.174533,-0.572257,-0.693421,-0.168578,-0.200796,1.00493,-0.263808,-0.178613,0.787883
28,60,-0.567232,-0.698132,-0.174533,-0.174533,-0.572257,-0.693421,-0.168578,-0.200796,1.00493,-0.263808,-0.178614,0.787883
28,60,-0.567232,-0.698132,-0.174533,-0.174533,-0.572257,-0.693421,-0.168578,-0.200796,1.00493,-0.263808,-0.178614,0.787883
28,60,-0.567232,-0.698132,-0.174533,-0.174533,-0.572257,-0.693421,-0.168578,-0.200796,1.00493,-0.263808,-0.178614,0.787883
28,60,-0.567232,-0.698132,-0.174533,-0.174533,-0.572257,-0.693421,-0.168578,-0.200796,1.00493,-0.263808,-0.178615,0.787883
28,60,-0.567232,-0.698132,-0.174533,-0.174533,-0.572257,-0.693421,-0.168578,-0.200796,1.00493,-0.263808,-0.178615,0.787883
28,60,-0.567232,-0.698132,-0.174533,-0.174533,-0.572257,-0.693421,-0.168578,-0.200796,1.00493,-0.263808,-0.178616,0.787883
28,60,-0.567232,-0.698132,-0.174533,-0.174533,-0.572257,-0.693421,-0.168578,-0.200796,1.00493,-0.263808,-0.178616,0.787884
28,60,-0.567232,-0.698132,-0.174533,-0.174533,-0.572257,-0.693421,-0.168578,-0.200796,1.00493,-0.263808,-0.178616,0.787884
28,60,-0.567232,-0.698132,-0.174533,-0.174533,-0.572257,-0.693421,-0.168578,-0.200796,1.00493,-0.263808,-0.178617,0.787884
28,60,-0.567232,-0.698132,-0.174533,-0.174533,-0.572257,-0.693421,-0.168578,-0.200796,1.00493,-0.263808,-0.178617,0.787884
28,60,-0.567232,-0.698132,-0.174533,-0.174533,-0.572257,-0.693421,-0.168578,-0.200796,1.00493,-0.263808,-0.178617,0.787884
28,60,-0.567232,-0.698132,-0.174533,-0.174533,-0.572257,-0.693421,-0.168578,-0.200796,1.00493,-0.263808,-0.178618,0.787884
28,60,-0.567232,-0.698132,-0.174533,-0.174533,-0.572257,-0.693421,-0.168578,-0.200796,1.00493,-0.263808,-0.178618,0.787884
28,60,-0.567232,-0.698132,-0.174533,-0.174533,-0.572257,-0.693421,-0.168578,-0.200796,1.00493,-0.263808,-0.178618,0.787884
28,60,-0.567232,-0.698132,-0.174533,-0.174533,-0.572257,-0.693421,-0.168578,-0.200796,1.00493,-0.263808,-0.178619,0.787884
28,60,-0.567232,-0.698132,-0.174533,-0.174533,-0.572257,-0.693421,-0.168578,-0.200796,1.00493,-0.263808,-0.178619,0.787885
28,60,-0.567232,-0.698132,-0.174533,-0.174533,-0.572257,-0.693421,-0.168578,-0.200796,1.00493,-0.263808,-0.178619,0.787885
28,60,-0.567232,-0.698132,-0.174533,-0.174533,-0.572257,-0.693421,-0.168578,-0.200796,1.00493,-0.263808,-0.17862,0.787885
28,60,-0.567232,-0.698132,-0.174533,-0.174533,-0.572257,-0.693421,-0.168578,-0.200796,1.00493,-0.263808,-0.17862,0.787885
28,60,-0.567232,-0.698132,-0.174533,-0.174533,-0.572257,-0.693421,-0.168578,-0.200796,1.00493,-0.263808,-0.17862,0.787885
28,60,-0.567232,-0.698132,-0.174533,-0.174533,-0.572257,-0.693421,-0.168578,-0.200796,1.00493,-0.263808,-0.178621,0.787885
28,60,-0.567232,-0.698132,-0.174533,-0.174533,-0.572257,-0.693421,-0.168578,-0.200796,1.00493,-0.263808,-0.178621,0.787885
28,60,-0.567232,-0.698132,-0.174533,-0.174533,-0.572257,-0.693421,-0.168578,-0.200796,1.00493,-0.263808,-0.178621,0.787885
28,60,-0.567232,-0.698132,-0.174533,-0.174533,-0.572257,-0.693421,-0.168578,-0.200796,1.00493,-0.263808,-0.178621,0.787885
28,60,-0.567232,-0.698132,-0.174533,-0.174533,-0.572257,-0.693421,-0.168578,-0.200796,1.00493,-0.263808,-0.178622,0.787885
28,60,-0.567232,-0.698132,-0.174533,-0.174533,-0.572257,-0.693421,-0.168578,-0.200796,1.00493,-0.263808,-0.178622,0.787885
28,60,-0.567232,-0.698132,-0.174533,-0.174533,-0.572257,-0.693421,-0.168578,-0.200796,1.00493,-0.263808,-0.178622,0.787885
28,60,-0.567232,-0.698132,-0.174533,-0.174533,-0.572257,-0.693421,-0.168578,-0.200796,1.00493,-0.263808,-0.178622,0.787886
28,60,-0.567232,-0.698132,-0.174533,-0.174533,-0.572257,-0.693421,-0.168578,-0.200796,1.00493,-0.263808,-0.178623,0.787886
28,60,-0.567232,-0.698132,-0.174533,-0.174533,-0.572257,-0.693421,-0.168578,-0.200796,1.00493,-0.263808,-0.178623,0.787886
28,60,-0.567232,-0.698132,-0.174533,-0.174533,-0.572257,-0.693421,-0.168578,-0.200796,1.00493,-0.263808,-0.178623,0.787886
28,60,-0.567232,-0.698132,-0.174533,-0.174533,-0.572257,-0.693421,-0.168578,-0.200796,1.00493,-0.263808,-0.178623,0.787886
28,60,-0.567232,-0.698132,-0.174533,-0.174533,-0.572257,-0.693421,-0.168578,-0.200796,1.00493,-0.263808,-0.178624,0.787886
28,60,-0.567232,-0.698132,-0.174533,-0.174533,-0.572257,-0.693472,-0.168578,-0.200796,1.00493,-0.260874,-0.178624,0.787886
28,60,-0.567232,-0.698132,-0.174533,-0.174533,-0.572257,-0.693472,-0.168578,-0.200796,1.00493,-0.260874,-0.178624,0.787886
28,60,-0.567232,-0.698132,-0.174533,-0.174533,-0.572257,-0.693472,-0.168578,-0.200796,1.00493,-0.260874,-0.178624,0.787886
28,60,-0.567232,-0.698132,-0.174533,-0.174533,-0.572257,-0.693472,-0.168578,-0.200796,1.00493,-0.260874,-0.178624,0.787886
28,60,-0.567232,-0.698132,-0.174533,-0.174533,-0.572257,-0.693472,-0.168578,-0.200796,1.00493,-0.260874,-0.178625,0.787886
28,60,-0.567232,-0.698132,-0.174533,-0.174533,-0.572257,-0.693472,-0.168578,-0.200796,1.00493,-0.260874,-0.178625,0.787886
28,60,-0.567232,-0.698132,-0.174533,-0.174533,-0.572257,-0.693472,-0.168578,-0.200796,1.00493,-0.260874,-0.178625,0.787886
28,60,-0.567232,-0.698132,-0.174533,-0.174533,-0.572257,-0.693472,-0.168578,-0.200796,1.00493,-0.260874,-0.178625,0.787886
28,60,-0.567232,-0.698132,-0.174533,-0.174533,-0.572257,-0.693472,-0.168578,-0.200796,1.00493,-0.260874,-0.178625,0.787886
28,60,-0.567232,-0.698132,-0.174533,-0.174533,-0.572257,-0.693472,-0.168578,-0.200796,1.00493,-0.260874,-0.178626,0.787887
28,60,-0.567232,-0.698132,-0.174533,-0.174533,-0.572257,-0.693472,-0.168578,-0.200796,1.00493,-0.260874,-0.178626,0.787887
28,60,-0.567232,-0.698132,-0.174533,-0.174533,-0.572257,-0.693472,-0.168578,-0.200796,1.00493,-0.260874,-0.178626,0.787887
28,60,-0.567232,-0.698132,-0.174533,-0.174533,-0.572257,-0.693472,-0.168578,-0.200796,1.00493,-0.260874,-0.178626,0.787887
28,60,-0.567232,-0.698132,-0.174533,-0.174533,-0.572257,-0.693472,-0.168578,-0.200796,1.00493,-0.260874,-0.178626,0.787887
28,60,-0.567232,-0.698132,-0.174533,-0.174533,-0.572257,-0.693472,-0.168578,-0.200796,1.00493,-0.260874,-0.178627,0.787887
28,60,-0.567232,-0.698132,-0.174533,-0.174533,-0.572257,-0.693472,-0.168578,-0.200796,1.00493,-0.260874,-0.178627,0.787887
28,60,-0.567232,-0.698132,-0.174533,-0.174533,-0.572257,-0.693472,-0.168578,-0.200796,1.00493,-0.260874,-0.178627,0.787887
28,60,-0.567232,-0.698132,-0.174533,-0.174533,-0.572257,-0.693472,-0.168578,-0.200796,1.00493,-0.260874,-0.178627,0.787887
28,60,-0.567232,-0.698132,-0.174533,-0.174533,-0.572257,-0.693472,-0.168578,-0.200796,1.00493,-0.260874,-0.178627,0.787887
28,60,-0.567232,-0.698132,-0.174533,-0.174533,-0.572257,-0.693472,-0.168578,-0.200796,1.00493,-0.260874,-0.178627,0.787887
28,60,-0.567232,-0.698132,-0.174533,-0.174533,-0.572257,-0.693472,-0.168578,-0.200796,1.00493,-0.260874,-0.178628,0.787887
28,60,-0.567232,-0.698132,-0.174533,-0.174533,-0.572257,-0.693472,-0.168578,-0.200796,1.00493,-0.260874,-0.178628,0.787887
28,60,-0.567232,-0.698132,-0.174533,-0.174533,-0.572257,-0.693472,-0.168578,-0.200796,1.00493,-0.260874,-0.178628,0.787887
28,60,-0.567232,-0.698132,-0.174533,-0.174533,-0.572257,-0.693472,-0.168578,-0.200796,1.00493,-0.260874,-0.178628,0.787887
28,60,-0.567232,-0.698132,-0.174533,-0.174533,-0.572257,-0.693472,-0.168578,-0.200796,1.00493,-0.260874,-0.178628,0.787887
28,60,-0.567232,-0.698132,-0.174533,-0.174533,-0.572257,-0.693472,-0.168578,-0.200796,1.00493,-0.260874,-0.178628,0.787887
28,60,-0.567232,-0.698132,-0.174533,-0.174533,-0.572257,-0.693472,-0.168578,-0.200796,1.00493,-0.260874,-0.178628,0.787887
28,60,-0.567232,-0.698132,-0.174533,-0.174533,-0.572257,-0.693472,-0.168578,-0.200796,1.00493,-0.260874,-0.178629,0.787887
28,60,-0.567232,-0.698132,-0.174533,-0.174533,-0.572257,-0.693472,-0.168578,-0.200796,1.00493,-0.260874,-0.178629,0.787887
28,60,-0.567232,-0.698132,-0.174533,-0.174533,-0.572257,-0.693472,-0.168578,-0.200796,1.00493,-0.260874,-0.178629,0.787888
28,60,-0.567232,-0.698132,-0.174533,-0.174533,-0.572257,-0.693472,-0.168578,-0.200796,1.00493,-0.260874,-0.178629,0.787888
28,60,-0.567232,-0.698132,-0.174533,-0.174533,-0.572257,-0.693472,-0.168578,-0.200796,1.00493,-0.260874,-0.178629,0.787888
28,60,-0.567232,-0.698132,-0.174533,-0.174533,-0.572257,-0.693472,-0.168578,-0.200796,1.00493,-0.260874,-0.178629,0.787888
28,60,-0.567232,-0.698132,-0.174533,-0.174533,-0.572257,-0.693472,-0.168578,-0.200796,1.00493,-0.260874,-0.178629,0.787888
28,60,-0.567232,-0.698132,-0.174533,-0.174533,-0.572257,-0.693472,-0.168578,-0.200796,1.00493,-0.260874,-0.178629,0.787888
28,60,-0.567232,-0.698132,-0.174533,-0.174533,-0.572257,-0.693472,-0.168578,-0.200796,1.00493,-0.260874,-0.17863,0.787888
28,60,-0.567232,-0.698132,-0.174533,-0.174533,-0.572257,-0.693472,-0.168578,-0.200796,1.00493,-0.260874,-0.17863,0.787888
28,60,-0.567232,-0.698132,-0.174533,-0.174533,-0.572257,-0.693472,-0.168578,-0.200796,1.00493,-0.260874,-0.17863,0.787888
28,60,-0.567232,-0.698132,-0.174533,-0.174533,-0.572257,-0.693472,-0.168578,-0.200796,1.00493,-0.260874,-0.17863,0.787888
28,60,-0.567232,-0.698132,-0.174533,-0.174533,-0.572257,-0.693472,-0.168578,-0.200796,1.00493,-0.260874,-0.17863,0.787888
28,60,-0.567232,-0.698132,-0.174533,-0.174533,-0.572257,-0.693472,-0.168578,-0.200796,1.00493,-0.260874,-0.17863,0.787888
28,60,-0.567232,-0.698132,-0.174533,-0.174533,-0.572257,-0.693472,-0.168578,-0.200796,1.00493,-0.260874,-0.17863,0.787888
28,60,-0.567232,-0.698132,-0.174533,-0.174533,-0.572257,-0.693472,-0.168578,-0.200796,1.00493,-0.260874,-0.17863,0.787888
28,60,-0.567232,-0.698132,-0.174533,-0.174533,-0.572257,-0.693472,-0.168578,-0.200796,1.00493,-0.260874,-0.178631,0.787888
28,60,-0.567232,-0.698132,-0.174533,-0.174533,-0.572257,-0.693472,-0.168578,-0.200796,1.00493,-0.260874,-0.178631,0.787888
28,60,-0.567232,-0.698132,-0.174533,-0.174533,-0.572257,-0.693472,-0.168578,-0.200796,1.00493,-0.260874,-0.178631,0.787888
28,60,-0.567232,-0.698132,-0.174533,-0.174533,-0.572257,-0.693472,-0.168578,-0.200796,1.00493,-0.260874,-0.178631,0.787888
28,60,-0.567232,-0.698132,-0.174533,-0.174533,-0.572257,-0.693472,-0.168578,-0.200796,1.00493,-0.260874,-0.178631,0.787888
28,60,-0.567232,-0.698132,-0.174533,-0.174533,-0.572257,-0.693472,-0.168578,-0.200796,1.00493,-0.260874,-0.178631,0.787888
28,60,-0.567232,-0.698132,-0.174533,-0.174533,-0.572257,-0.693472,-0.168578,-0.200796,1.00493,-0.260874,-0.178631,0.787888
28,60,-0.567232,-0.698132,-0.174533,-0.174533,-0.572257,-0.693472,-0.168578,-0.200796,1.00493,-0.260874,-0.178631,0.787888
28,60,-0.567232,-0.698132,-0.174533,-0.174533,-0.572257,-0.693472,-0.168578,-0.200796,1.00493,-0.260874,-0.178631,0.787888
28,60,-0.567232,-0.698132,-0.174533,-0.174533,-0.572257,-0.693472,-0.168578,-0.200796,1.00493,-0.260874,-0.178632,0.787888
28,60,-0.567232,-0.698132,-0.174533,-0.174533,-0.572257,-0.693472,-0.168578,-0.200796,1.00493,-0.260874,-0.178632,0.787888
28,60,-0.567232,-0.698132,-0.174533,-0.174533,-0.572257,-0.693472,-0.168578,-0.200796,1.00493,-0.260874,-0.178623,0.787894
28,60,-0.567232,-0.698132,-0.174533,-0.174533,-0.572257,-0.693472,-0.168578,-0.200796,1.00493,-0.260874,-0.178624,0.787894
28,60,-0.567232,-0.698132,-0.174533,-0.174533,-0.572257,-0.693472,-0.168578,-0.200796,1.00493,-0.260874,-0.178624,0.787894
28,60,-0.567232,-0.698132,-0.174533,-0.174533,-0.572257,-0.693472,-0.168578,-0.200796,1.00493,-0.260874,-0.178624,0.787894
28,60,-0.567232,-0.698132,-0.174533,-0.174533,-0.572257,-0.693472,-0.168578,-0.200796,1.00493,-0.260874,-0.178624,0.787894
28,60,-0.567232,-0.698132,-0.174533,-0.174533,-0.572257,-0.693472,-0.168578,-0.200796,1.00493,-0.260874,-0.178624,0.787894
28,60,-0.567232,-0.698132,-0.174533,-0.174533,-0.572257,-0.693472,-0.168578,-0.200796,1.00493,-0.260874,-0.178624,0.787894
28,60,-0.567232,-0.698132,-0.174533,-0.174533,-0.572257,-0.693472,-0.168578,-0.200796,1.00493,-0.260874,-0.178624,0.787894
28,60,-0.567232,-0.698132,-0.174533,-0.174533,-0.572257,-0.693472,-0.168578,-0.200796,1.00493,-0.260874,-0.178624,0.787894
28,60,-0.567232,-0.698132,-0.174533,-0.174533,-0.572257,-0.693472,-0.168578,-0.200796,1.00493,-0.260874,-0.178624,0.787894
28,60,-0.567232,-0.698132,-0.174533,-0.174533,-0.572257,-0.693472,-0.168578,-0.200796,1.00493,-0.260874,-0.178624,0.787894
28,60,-0.567232,-0.698132,-0.174533,-0.174533,-0.572257,-0.693472,-0.168578,-0.200796,1.00493,-0.260874,-0.178624,0.787894
