stim_pw [us],stim_amp [mA],com_elbow_fe [rad],com_forearm_ps [rad],com_wrist_fe [rad],com_wrist_ru [rad],act_elbow_fe [rad],act_forearm_ps [rad],act_wrist_fe [rad],act_wrist_ru [rad],elbow_fe_trq [Nm],forearm_ps_trq [Nm],wrist_fe_trq [Nm],wrist_ru_trq [Nm]
26,40,-0.567232,-0.698132,-0.174533,-0.174533,-0.569608,-0.694743,-0.169346,-0.198634,0.475193,-0.189784,-0.155495,0.722993
26,40,-0.567232,-0.698132,-0.174533,-0.174533,-0.569608,-0.694743,-0.169346,-0.198634,0.475193,-0.189784,-0.155495,0.722993
26,40,-0.567232,-0.698132,-0.174533,-0.174533,-0.569608,-0.694743,-0.169346,-0.198634,0.475193,-0.189784,-0.155495,0.722993
26,40,-0.567232,-0.698132,-0.174533,-0.174533,-0.569608,-0.694743,-0.169346,-0.198634,0.475193,-0.189784,-0.155495,0.722993
26,40,-0.567232,-0.698132,-0.174533,-0.174533,-0.569608,-0.694743,-0.169346,-0.198634,0.475193,-0.189784,-0.155495,0.722993
26,40,-0.567232,-0.698132,-0.174533,-0.174533,-0.569608,-0.694743,-0.169346,-0.198634,0.475193,-0.189784,-0.155495,0.722993
26,40,-0.567232,-0.698132,-0.174533,-0.174533,-0.569608,-0.694743,-0.169346,-0.198634,0.475193,-0.189784,-0.155495,0.722993
26,40,-0.567232,-0.698132,-0.174533,-0.174533,-0.569608,-0.694743,-0.169346,-0.198634,0.475193,-0.189784,-0.155495,0.722993
26,40,-0.567232,-0.698132,-0.174533,-0.174533,-0.569608,-0.694743,-0.169346,-0.198634,0.475193,-0.189784,-0.155495,0.722993
26,40,-0.567232,-0.698132,-0.174533,-0.174533,-0.569608,-0.694743,-0.169346,-0.198634,0.475193,-0.189784,-0.155495,0.722993
26,40,-0.567232,-0.698132,-0.174533,-0.174533,-0.569608,-0.694743,-0.169346,-0.198634,0.475193,-0.189784,-0.155495,0.722993
26,40,-0.567232,-0.698132,-0.174533,-0.174533,-0.569608,-0.694743,-0.169346,-0.198634,0.475193,-0.189784,-0.155495,0.722993
26,40,-0.567232,-0.698132,-0.174533,-0.174533,-0.569608,-0.694743,-0.169346,-0.198634,0.475193,-0.189784,-0.155495,0.722993
26,40,-0.567232,-0.698132,-0.174533,-0.174533,-0.569608,-0.694743,-0.169346,-0.198634,0.475193,-0.189784,-0.155495,0.722993
26,40,-0.567232,-0.698132,-0.174533,-0.174533,-0.569608,-0.694743,-0.169346,-0.198634,0.475193,-0.189784,-0.155495,0.722993
26,40,-0.567232,-0.698132,-0.174533,-0.174533,-0.569608,-0.694743,-0.169346,-0.198634,0.475193,-0.189784,-0.155495,0.722993
26,40,-0.567232,-0.698132,-0.174533,-0.174533,-0.569608,-0.694743,-0.169346,-0.198634,0.475193,-0.189784,-0.155495,0.722993
26,40,-0.567232,-0.698132,-0.174533,-0.174533,-0.569608,-0.694743,-0.169346,-0.198634,0.475193,-0.189784,-0.155495,0.722993
26,40,-0.567232,-0.698132,-0.174533,-0.174533,-0.569608,-0.694743,-0.169346,-0.198634,0.475193,-0.189784,-0.155495,0.722993
26,40,-0.567232,-0.698132,-0.174533,-0.174533,-0.569608,-0.694743,-0.169346,-0.198634,0.475193,-0.189784,-0.155495,0.722993
26,40,-0.567232,-0.698132,-0.174533,-0.174533,-0.569608,-0.694743,-0.169346,-0.198634,0.475193,-0.189784,-0.155495,0.722993
26,40,-0.567232,-0.698132,-0.174533,-0.174533,-0.569608,-0.694743,-0.169346,-0.198634,0.475193,-0.189784,-0.1555,0.722995
26,40,-0.567232,-0.698132,-0.174533,-0.174533,-0.569608,-0.694743,-0.169346,-0.198634,0.475193,-0.189784,-0.155504,0.722996
26,40,-0.567232,-0.698132,-0.174533,-0.174533,-0.569608,-0.694743,-0.169346,-0.198634,0.475193,-0.189784,-0.155507,0.722997
26,40,-0.567232,-0.698132,-0.174533,-0.174533,-0.569608,-0.694743,-0.169346,-0.198634,0.475193,-0.189784,-0.155511,0.722998
26,40,-0.567232,-0.698132,-0.174533,-0.174533,-0.569608,-0.694743,-0.169346,-0.198634,0.475193,-0.189784,-0.155514,0.722999
26,40,-0.567232,-0.698132,-0.174533,-0.174533,-0.569608,-0.694743,-0.169346,-0.198634,0.475193,-0.189784,-0.155517,0.723
26,40,-0.567232,-0.698132,-0.174533,-0.174533,-0.569608,-0.694743,-0.169346,-0.198634,0.475193,-0.189784,-0.15552,0.723001
26,40,-0.567232,-0.698132,-0.174533,-0.174533,-0.569608,-0.694743,-0.169346,-0.198634,0.475193,-0.189784,-0.155523,0.723002
26,40,-0.567232,-0.698132,-0.174533,-0.174533,-0.569608,-0.694743,-0.169346,-0.198634,0.475193,-0.189784,-0.155526,0.723003
26,40,-0.567232,-0.698132,-0.174533,-0.174533,-0.569608,-0.694743,-0.169346,-0.198634,0.475193,-0.189784,-0.155528,0.723003
26,40,-0.567232,-0.698132,-0.174533,-0.174533,-0.569608,-0.694743,-0.169346,-0.198634,0.475193,-0.189784,-0.155531,0.723004
26,40,-0.567232,-0.698132,-0.174533,-0.174533,-0.569608,-0.694743,-0.169346,-0.198634,0.475193,-0.189784,-0.155533,0.723005
26,40,-0.567232,-0.698132,-0.174533,-0.174533,-0.569608,-0.694743,-0.169346,-0.198634,0.475193,-0.189784,-0.155535,0.723006
26,40,-0.567232,-0.698132,-0.174533,-0.174533,-0.569608,-0.694743,-0.169346,-0.198634,0.475193,-0.189784,-0.155537,0.723006
26,40,-0.567232,-0.698132,-0.174533,-0.174533,-0.569608,-0.694743,-0.169346,-0.198634,0.475193,-0.189784,-0.155539,0.723007
26,40,-0.567232,-0.698132,-0.174533,-0.174533,-0.569608,-0.694743,-0.169346,-0.198634,0.475193,-0.189784,-0.155541,0.723007
26,40,-0.567232,-0.698132,-0.174533,-0.174533,-0.569608,-0.694743,-0.169346,-0.198634,0.475193,-0.189784,-0.155542,0.723008
26,40,-0.567232,-0.698132,-0.174533,-0.174533,-0.569608,-0.694743,-0.169346,-0.198634,0.475193,-0.189784,-0.155544,0.723008
26,40,-0.567232,-0.698132,-0.174533,-0.174533,-0.569608,-0.694743,-0.169346,-0.198634,0.475193,-0.189784,-0.155546,0.723009
26,40,-0.567232,-0.698132,-0.174533,-0.174533,-0.569608,-0.694743,-0.169346,-0.198634,0.475193,-0.189784,-0.155547,0.723009
26,40,-0.567232,-0.698132,-0.174533,-0.174533,-0.569608,-0.694743,-0.169346,-0.198634,0.475193,-0.189784,-0.155549,0.72301
26,40,-0.567232,-0.698132,-0.174533,-0.174533,-0.569608,-0.694743,-0.169346,-0.198634,0.475193,-0.189784,-0.15555,0.72301
26,40,-0.567232,-0.698132,-0.174533,-0.174533,-0.569608,-0.694743,-0.169346,-0.198634,0.475193,-0.189784,-0.155551,0.723011
26,40,-0.567232,-0.698132,-0.174533,-0.174533,-0.569608,-0.694743,-0.169346,-0.198634,0.475193,-0.189784,-0.155553,0.723011
26,40,-0.567232,-0.698132,-0.174533,-0.174533,-0.569608,-0.694743,-0.169346,-0.198634,0.475193,-0.189784,-0.155554,0.723011
26,40,-0.567232,-0.698132,-0.174533,-0.174533,-0.569608,-0.694743,-0.169346,-0.198634,0.475193,-0.189784,-0.155555,0.723012
26,40,-0.567232,-0.698132,-0.174533,-0.174533,-0.569608,-0.694743,-0.169346,-0.198634,0.475193,-0.189784,-0.155556,0.723012
26,40,-0.567232,-0.698132,-0.174533,-0.174533,-0.569608,-0.694743,-0.169346,-0.198634,0.475193,-0.189784,-0.155557,0.723012
26,40,-0.567232,-0.698132,-0.174533,-0.174533,-0.569608,-0.694743,-0.169346,-0.198634,0.475193,-0.189784,-0.155558,0.723013
26,40,-0.567232,-0.698132,-0.174533,-0.174533,-0.569608,-0.694743,-0.169346,-0.198634,0.475193,-0.189784,-0.155559,0.723013
26,40,-0.567232,-0.698132,-0.174533,-0.174533,-0.569608,-0.694743,-0.169346,-0.198634,0.475193,-0.189784,-0.15556,0.723013
26,40,-0.567232,-0.698132,-0.174533,-0.174533,-0.569608,-0.694743,-0.169346,-0.198634,0.475193,-0.189784,-0.155561,0.723014
26,40,-0.567232,-0.698132,-0.174533,-0.174533,-0.569608,-0.694743,-0.169346,-0.198634,0.475193,-0.189784,-0.155562,0.723014
26,40,-0.567232,-0.698132,-0.174533,-0.174533,-0.569608,-0.694743,-0.169346,-0.198634,0.475193,-0.189784,-0.155563,0.723014
26,40,-0.567232,-0.698132,-0.174533,-0.174533,-0.569608,-0.694743,-0.169346,-0.198634,0.475193,-0.189784,-0.155564,0.723015
26,40,-0.567232,-0.698132,-0.174533,-0.174533,-0.569608,-0.694743,-0.169346,-0.198634,0.475193,-0.189784,-0.155565,0.723015
26,40,-0.567232,-0.698132,-0.174533,-0.174533,-0.569608,-0.694743,-0.169346,-0.198634,0.475193,-0.189784,-0.155566,0.723015
26,40,-0.567232,-0.698132,-0.174533,-0.174533,-0.569608,-0.694743,-0.169346,-0.198634,0.475193,-0.189784,-0.155567,0.723015
26,40,-0.567232,-0.698132,-0.174533,-0.174533,-0.569608,-0.694743,-0.169346,-0.198634,0.475193,-0.189784,-0.155567,0.723016
26,40,-0.567232,-0.698132,-0.174533,-0.174533,-0.569608,-0.694743,-0.169346,-0.198634,0.475193,-0.189784,-0.155568,0.723016
26,40,-0.567232,-0.698132,-0.174533,-0.174533,-0.569608,-0.694743,-0.169346,-0.198634,0.475193,-0.189784,-0.155569,0.723016
26,40,-0.567232,-0.698132,-0.174533,-0.174533,-0.569608,-0.694743,-0.169346,-0.198634,0.475193,-0.189784,-0.15557,0.723016
26,40,-0.567232,-0.698132,-0.174533,-0.174533,-0.569608,-0.694743,-0.169346,-0.198634,0.475193,-0.189784,-0.15557,0.723016
26,40,-0.567232,-0.698132,-0.174533,-0.174533,-0.569608,-0.694743,-0.169346,-0.198634,0.475193,-0.189784,-0.155571,0.723017
26,40,-0.567232,-0.698132,-0.174533,-0.174533,-0.569608,-0.694743,-0.169346,-0.198634,0.475193,-0.189784,-0.155572,0.723017
26,40,-0.567232,-0.698132,-0.174533,-0.174533,-0.569608,-0.694743,-0.169346,-0.198634,0.475193,-0.189784,-0.155572,0.723017
26,40,-0.567232,-0.698132,-0.174533,-0.174533,-0.569608,-0.694743,-0.169346,-0.198634,0.475193,-0.189784,-0.155573,0.723017
26,40,-0.567232,-0.698132,-0.174533,-0.174533,-0.569608,-0.694743,-0.169346,-0.198634,0.475193,-0.189784,-0.155573,0.723017
26,40,-0.567232,-0.698132,-0.174533,-0.174533,-0.569608,-0.694743,-0.169346,-0.198634,0.475193,-0.189784,-0.155574,0.723018
26,40,-0.567232,-0.698132,-0.174533,-0.174533,-0.569608,-0.694743,-0.169346,-0.198634,0.475193,-0.189784,-0.155575,0.723018
26,40,-0.567232,-0.698132,-0.174533,-0.174533,-0.569608,-0.694743,-0.169346,-0.198634,0.475193,-0.189784,-0.155575,0.723018
26,40,-0.567232,-0.698132,-0.174533,-0.174533,-0.569608,-0.694743,-0.169346,-0.198634,0.475193,-0.189784,-0.155576,0.723018
26,40,-0.567232,-0.698132,-0.174533,-0.174533,-0.569608,-0.694743,-0.169346,-0.198634,0.475193,-0.189784,-0.155576,0.723018
26,40,-0.567232,-0.698132,-0.174533,-0.174533,-0.569608,-0.694743,-0.169346,-0.198634,0.475193,-0.189784,-0.155577,0.723018
26,40,-0.567232,-0.698132,-0.174533,-0.174533,-0.569608,-0.694743,-0.169346,-0.198634,0.475193,-0.189784,-0.155577,0.723019
26,40,-0.567232,-0.698132,-0.174533,-0.174533,-0.569608,-0.694743,-0.169346,-0.198634,0.475193,-0.189784,-0.155578,0.723019
26,40,-0.567232,-0.698132,-0.174533,-0.174533,-0.569608,-0.694743,-0.169346,-0.198634,0.475193,-0.189784,-0.155578,0.723019
26,40,-0.567232,-0.698132,-0.174533,-0.174533,-0.569608,-0.694743,-0.169346,-0.198634,0.475193,-0.189784,-0.155579,0.723019
26,40,-0.567232,-0.698132,-0.174533,-0.174533,-0.569608,-0.694743,-0.169346,-0.198634,0.475193,-0.189784,-0.155579,0.723019
26,40,-0.567232,-0.698132,-0.174533,-0.174533,-0.569608,-0.694743,-0.169346,-0.198634,0.475193,-0.189784,-0.155579,0.723019
26,40,-0.567232,-0.698132,-0.174533,-0.174533,-0.569608,-0.694743,-0.169346,-0.198634,0.475193,-0.189784,-0.15558,0.723019
26,40,-0.567232,-0.698132,-0.174533,-0.174533,-0.569608,-0.694743,-0.169346,-0.198634,0.475193,-0.189784,-0.15558,0.72302
26,40,-0.567232,-0.698132,-0.174533,-0.174533,-0.569608,-0.694743,-0.169346,-0.198634,0.475193,-0.189784,-0.155581,0.72302
26,40,-0.567232,-0.698132,-0.174533,-0.174533,-0.569608,-0.694743,-0.169346,-0.198634,0.475193,-0.189784,-0.155581,0.72302
26,40,-0.567232,-0.698132,-0.174533,-0.174533,-0.569608,-0.694743,-0.169346,-0.198634,0.475193,-0.189784,-0.155582,0.72302
26,40,-0.567232,-0.698132,-0.174533,-0.174533,-0.569608,-0.694743,-0.169346,-0.198634,0.475193,-0.189784,-0.155582,0.72302
26,40,-0.567232,-0.698132,-0.174533,-0.174533,-0.569608,-0.694743,-0.169346,-0.198634,0.475193,-0.189784,-0.155582,0.72302
26,40,-0.567232,-0.698132,-0.174533,-0.174533,-0.569608,-0.694743,-0.169346,-0.198634,0.475193,-0.189784,-0.155583,0.72302
26,40,-0.567232,-0.698132,-0.174533,-0.174533,-0.569608,-0.694743,-0.169346,-0.198634,0.475193,-0.189784,-0.155583,0.72302
26,40,-0.567232,-0.698132,-0.174533,-0.174533,-0.569608,-0.694743,-0.169346,-0.198634,0.475193,-0.189784,-0.155583,0.72302
26,40,-0.567232,-0.698132,-0.174533,-0.174533,-0.569608,-0.694743,-0.169346,-0.198634,0.475193,-0.189784,-0.155584,0.723021
26,40,-0.567232,-0.698132,-0.174533,-0.174533,-0.569608,-0.694743,-0.169346,-0.198634,0.475193,-0.189784,-0.155584,0.723021
26,40,-0.567232,-0.698132,-0.174533,-0.174533,-0.569608,-0.694743,-0.169407,-0.198615,0.475193,-0.189784,-0.153728,0.722449
26,40,-0.567232,-0.698132,-0.174533,-0.174533,-0.569608,-0.694743,-0.169407,-0.198615,0.475193,-0.189784,-0.153728,0.722449
26,40,-0.567232,-0.698132,-0.174533,-0.174533,-0.569608,-0.694743,-0.169407,-0.198615,0.475193,-0.189784,-0.153728,0.722449
26,40,-0.567232,-0.698132,-0.174533,-0.174533,-0.569608,-0.694743,-0.169407,-0.198615,0.475193,-0.189784,-0.153728,0.722451
26,40,-0.567232,-0.698132,-0.174533,-0.174533,-0.569608,-0.694743,-0.169407,-0.198615,0.475193,-0.189784,-0.153728,0.722451
26,40,-0.567232,-0.698132,-0.174533,-0.174533,-0.569608,-0.694743,-0.169407,-0.198615,0.475193,-0.189784,-0.153728,0.722451
26,40,-0.567232,-0.698132,-0.174533,-0.174533,-0.569608,-0.694743,-0.169407,-0.198615,0.475193,-0.189784,-0.153728,0.722451
26,40,-0.567232,-0.698132,-0.174533,-0.174533,-0.569608,-0.694743,-0.169407,-0.198615,0.475193,-0.189784,-0.153728,0.722451
26,40,-0.567232,-0.698132,-0.174533,-0.174533,-0.569608,-0.694743,-0.169407,-0.198615,0.475193,-0.189784,-0.153728,0.722451
26,40,-0.567232,-0.698132,-0.174533,-0.174533,-0.569608,-0.694743,-0.169407,-0.198615,0.475193,-0.189784,-0.153728,0.722451
26,40,-0.567232,-0.698132,-0.174533,-0.174533,-0.569608,-0.694743,-0.169407,-0.198615,0.475193,-0.189784,-0.153728,0.722451
26,40,-0.567232,-0.698132,-0.174533,-0.174533,-0.569608,-0.694743,-0.169407,-0.198615,0.475193,-0.189784,-0.153728,0.722451
26,40,-0.567232,-0.698132,-0.174533,-0.174533,-0.569608,-0.694743,-0.169407,-0.198615,0.475193,-0.189784,-0.153728,0.722451
26,40,-0.567232,-0.698132,-0.174533,-0.174533,-0.569608,-0.694743,-0.169407,-0.198615,0.475193,-0.189784,-0.153728,0.722451
26,40,-0.567232,-0.698132,-0.174533,-0.174533,-0.569608,-0.694743,-0.169407,-0.198615,0.475193,-0.189784,-0.153728,0.722451
26,40,-0.567232,-0.698132,-0.174533,-0.174533,-0.569608,-0.694743,-0.169407,-0.198615,0.475193,-0.189784,-0.153728,0.722451
26,40,-0.567232,-0.698132,-0.174533,-0.174533,-0.569608,-0.694743,-0.169407,-0.198615,0.475193,-0.189784,-0.153728,0.722451
26,40,-0.567232,-0.698132,-0.174533,-0.174533,-0.569608,-0.694743,-0.169407,-0.198615,0.475193,-0.189784,-0.153728,0.722451
26,40,-0.567232,-0.698132,-0.174533,-0.174533,-0.569608,-0.694743,-0.169407,-0.198615,0.475193,-0.189784,-0.153728,0.722451
26,40,-0.567232,-0.698132,-0.174533,-0.174533,-0.569608,-0.694743,-0.169407,-0.198615,0.475193,-0.189784,-0.153728,0.722451
26,40,-0.567232,-0.698132,-0.174533,-0.174533,-0.569608,-0.694743,-0.169407,-0.198615,0.475193,-0.189784,-0.153728,0.722451
26,40,-0.567232,-0.698132,-0.174533,-0.174533,-0.569608,-0.694743,-0.169407,-0.198615,0.475193,-0.189784,-0.153728,0.722451
26,40,-0.567232,-0.698132,-0.174533,-0.174533,-0.569608,-0.694743,-0.169407,-0.198615,0.475193,-0.189784,-0.153728,0.722451
26,40,-0.567232,-0.698132,-0.174533,-0.174533,-0.569608,-0.694743,-0.169407,-0.198615,0.475193,-0.189784,-0.153728,0.722451
26,40,-0.567232,-0.698132,-0.174533,-0.174533,-0.569608,-0.694743,-0.169407,-0.198615,0.475193,-0.189784,-0.153728,0.722451
26,40,-0.567232,-0.698132,-0.174533,-0.174533,-0.569608,-0.694743,-0.169407,-0.198615,0.475193,-0.189784,-0.153728,0.722451
26,40,-0.567232,-0.698132,-0.174533,-0.174533,-0.569608,-0.694743,-0.169407,-0.198615,0.475193,-0.189784,-0.153728,0.722451
26,40,-0.567232,-0.698132,-0.174533,-0.174533,-0.569608,-0.694743,-0.169407,-0.198615,0.475193,-0.189784,-0.153728,0.722451
26,40,-0.567232,-0.698132,-0.174533,-0.174533,-0.569608,-0.694743,-0.169407,-0.198615,0.475193,-0.189784,-0.153728,0.722451
26,40,-0.567232,-0.698132,-0.174533,-0.174533,-0.569608,-0.694743,-0.169407,-0.198615,0.475193,-0.189784,-0.153728,0.722451
26,40,-0.567232,-0.698132,-0.174533,-0.174533,-0.569608,-0.694743,-0.169407,-0.198615,0.475193,-0.189784,-0.153728,0.722451
26,40,-0.567232,-0.698132,-0.174533,-0.174533,-0.569608,-0.694743,-0.169407,-0.198615,0.475193,-0.189784,-0.153728,0.722451
26,40,-0.567232,-0.698132,-0.174533,-0.174533,-0.569608,-0.694743,-0.169407,-0.198615,0.475193,-0.189784,-0.153728,0.722451
26,40,-0.567232,-0.698132,-0.174533,-0.174533,-0.569608,-0.694743,-0.169407,-0.198615,0.475193,-0.189784,-0.153728,0.722451
26,40,-0.567232,-0.698132,-0.174533,-0.174533,-0.569608,-0.694743,-0.169407,-0.198615,0.475193,-0.189784,-0.153728,0.722451
26,40,-0.567232,-0.698132,-0.174533,-0.174533,-0.569608,-0.694743,-0.169407,-0.198615,0.475193,-0.189784,-0.153728,0.722451
26,40,-0.567232,-0.698132,-0.174533,-0.174533,-0.569608,-0.694743,-0.169407,-0.198615,0.475193,-0.189784,-0.153728,0.722451
26,40,-0.567232,-0.698132,-0.174533,-0.174533,-0.569608,-0.694743,-0.169407,-0.198615,0.475193,-0.189784,-0.153728,0.722451
26,40,-0.567232,-0.698132,-0.174533,-0.174533,-0.569608,-0.694743,-0.169407,-0.198615,0.475193,-0.189784,-0.153728,0.722451
26,40,-0.567232,-0.698132,-0.174533,-0.174533,-0.569608,-0.694743,-0.169407,-0.198615,0.475193,-0.189784,-0.153728,0.722451
26,40,-0.567232,-0.698132,-0.174533,-0.174533,-0.569608,-0.694743,-0.169407,-0.198615,0.475193,-0.189784,-0.153728,0.722451
26,40,-0.567232,-0.698132,-0.174533,-0.174533,-0.569608,-0.694743,-0.169407,-0.198615,0.475193,-0.189784,-0.153728,0.722451
26,40,-0.567232,-0.698132,-0.174533,-0.174533,-0.569608,-0.694743,-0.169407,-0.198615,0.475193,-0.189784,-0.153728,0.722451
26,40,-0.567232,-0.698132,-0.174533,-0.174533,-0.569608,-0.694743,-0.169407,-0.198615,0.475193,-0.189784,-0.153728,0.722451
26,40,-0.567232,-0.698132,-0.174533,-0.174533,-0.569608,-0.694743,-0.169407,-0.198615,0.475193,-0.189784,-0.153728,0.722451
26,40,-0.567232,-0.698132,-0.174533,-0.174533,-0.569608,-0.694743,-0.169407,-0.198615,0.475193,-0.189784,-0.153728,0.722451
26,40,-0.567232,-0.698132,-0.174533,-0.174533,-0.569608,-0.694743,-0.169407,-0.198615,0.475193,-0.189784,-0.153728,0.722451
26,40,-0.567232,-0.698132,-0.174533,-0.174533,-0.569608,-0.694743,-0.169407,-0.198615,0.475193,-0.189784,-0.153728,0.722451
26,40,-0.567232,-0.698132,-0.174533,-0.174533,-0.569608,-0.694743,-0.169407,-0.198615,0.475193,-0.189784,-0.153728,0.722451
26,40,-0.567232,-0.698132,-0.174533,-0.174533,-0.569608,-0.694743,-0.169407,-0.198615,0.475193,-0.189784,-0.153728,0.722451
26,40,-0.567232,-0.698132,-0.174533,-0.174533,-0.569608,-0.694743,-0.169407,-0.198615,0.475193,-0.189784,-0.153728,0.722451
26,40,-0.567232,-0.698132,-0.174533,-0.174533,-0.569608,-0.694743,-0.169407,-0.198615,0.475193,-0.189784,-0.153728,0.722451
26,40,-0.567232,-0.698132,-0.174533,-0.174533,-0.569608,-0.694743,-0.169407,-0.198615,0.475193,-0.189784,-0.153728,0.722451
26,40,-0.567232,-0.698132,-0.174533,-0.174533,-0.569608,-0.694743,-0.169407,-0.198615,0.475193,-0.189784,-0.153728,0.722451
26,40,-0.567232,-0.698132,-0.174533,-0.174533,-0.569608,-0.694743,-0.169407,-0.198615,0.475193,-0.189784,-0.153728,0.722451
26,40,-0.567232,-0.698132,-0.174533,-0.174533,-0.569608,-0.694743,-0.169407,-0.198615,0.475193,-0.189784,-0.153728,0.722451
26,40,-0.567232,-0.698132,-0.174533,-0.174533,-0.569608,-0.694743,-0.169407,-0.198615,0.475193,-0.189784,-0.153728,0.722451
26,40,-0.567232,-0.698132,-0.174533,-0.174533,-0.569608,-0.694743,-0.169407,-0.198615,0.475193,-0.189784,-0.153728,0.722451
26,40,-0.567232,-0.698132,-0.174533,-0.174533,-0.569608,-0.694743,-0.169407,-0.198615,0.475193,-0.189784,-0.153728,0.722451
26,40,-0.567232,-0.698132,-0.174533,-0.174533,-0.569608,-0.694743,-0.169407,-0.198615,0.475193,-0.189784,-0.153728,0.722451
26,40,-0.567232,-0.698132,-0.174533,-0.174533,-0.569608,-0.694743,-0.169407,-0.198615,0.475193,-0.189784,-0.153728,0.722451
26,40,-0.567232,-0.698132,-0.174533,-0.174533,-0.569608,-0.694743,-0.169407,-0.198615,0.475193,-0.189784,-0.153728,0.722451
26,40,-0.567232,-0.698132,-0.174533,-0.174533,-0.569608,-0.694743,-0.169407,-0.198615,0.475193,-0.189784,-0.153729,0.722451
26,40,-0.567232,-0.698132,-0.174533,-0.174533,-0.569608,-0.694743,-0.169407,-0.198615,0.475193,-0.189784,-0.15373,0.722451
26,40,-0.567232,-0.698132,-0.174533,-0.174533,-0.569608,-0.694743,-0.169407,-0.198615,0.475193,-0.189784,-0.153731,0.722451
26,40,-0.567232,-0.698132,-0.174533,-0.174533,-0.569608,-0.694743,-0.169407,-0.198615,0.475193,-0.189784,-0.153732,0.722452
26,40,-0.567232,-0.698132,-0.174533,-0.174533,-0.569608,-0.694743,-0.169407,-0.198615,0.475193,-0.189784,-0.153732,0.722452
26,40,-0.567232,-0.698132,-0.174533,-0.174533,-0.569608,-0.694743,-0.169407,-0.198615,0.475193,-0.189784,-0.153733,0.722452
26,40,-0.567232,-0.698132,-0.174533,-0.174533,-0.569608,-0.694743,-0.169407,-0.198615,0.475193,-0.189784,-0.153734,0.722452
26,40,-0.567232,-0.698132,-0.174533,-0.174533,-0.569608,-0.694743,-0.169407,-0.198615,0.475193,-0.189784,-0.153735,0.722453
26,40,-0.567232,-0.698132,-0.174533,-0.174533,-0.569608,-0.694743,-0.169407,-0.198615,0.475193,-0.189784,-0.153735,0.722453
26,40,-0.567232,-0.698132,-0.174533,-0.174533,-0.569608,-0.694743,-0.169407,-0.198615,0.475193,-0.189784,-0.153736,0.722453
26,40,-0.567232,-0.698132,-0.174533,-0.174533,-0.569608,-0.694743,-0.169407,-0.198615,0.475193,-0.189784,-0.153737,0.722453
26,40,-0.567232,-0.698132,-0.174533,-0.174533,-0.569608,-0.694743,-0.169407,-0.198615,0.475193,-0.189784,-0.153737,0.722453
26,40,-0.567232,-0.698132,-0.174533,-0.174533,-0.569608,-0.694743,-0.169407,-0.198615,0.475193,-0.189784,-0.153738,0.722454
26,40,-0.567232,-0.698132,-0.174533,-0.174533,-0.569608,-0.694743,-0.169407,-0.198615,0.475193,-0.189784,-0.153738,0.722454
26,40,-0.567232,-0.698132,-0.174533,-0.174533,-0.569608,-0.694743,-0.169407,-0.198615,0.475193,-0.189784,-0.153739,0.722454
26,40,-0.567232,-0.698132,-0.174533,-0.174533,-0.569608,-0.694743,-0.169407,-0.198615,0.475193,-0.189784,-0.153739,0.722454
26,40,-0.567232,-0.698132,-0.174533,-0.174533,-0.569608,-0.694743,-0.169407,-0.198615,0.475193,-0.189784,-0.15374,0.722454
26,40,-0.567232,-0.698132,-0.174533,-0.174533,-0.569608,-0.694743,-0.169407,-0.198615,0.475193,-0.189784,-0.153741,0.722454
26,40,-0.567232,-0.698132,-0.174533,-0.174533,-0.569608,-0.694743,-0.169407,-0.198615,0.475193,-0.189784,-0.153741,0.722455
26,40,-0.567232,-0.698132,-0.174533,-0.174533,-0.569608,-0.694743,-0.169407,-0.198615,0.475193,-0.189784,-0.153742,0.722455
26,40,-0.567232,-0.698132,-0.174533,-0.174533,-0.569608,-0.694743,-0.169407,-0.198615,0.475193,-0.189784,-0.153742,0.722455
26,40,-0.567232,-0.698132,-0.174533,-0.174533,-0.569608,-0.694743,-0.169407,-0.198615,0.475193,-0.189784,-0.153743,0.722455
26,40,-0.567232,-0.698132,-0.174533,-0.174533,-0.569608,-0.694743,-0.169407,-0.198615,0.475193,-0.189784,-0.153743,0.722455
26,40,-0.567232,-0.698132,-0.174533,-0.174533,-0.569608,-0.694743,-0.169407,-0.198615,0.475193,-0.189784,-0.153743,0.722455
26,40,-0.567232,-0.698132,-0.174533,-0.174533,-0.569608,-0.694743,-0.169407,-0.198615,0.475193,-0.189784,-0.153744,0.722455
26,40,-0.567232,-0.698132,-0.174533,-0.174533,-0.569608,-0.694743,-0.169407,-0.198615,0.475193,-0.189784,-0.153744,0.722456
26,40,-0.567232,-0.698132,-0.174533,-0.174533,-0.569608,-0.694743,-0.169407,-0.198615,0.475193,-0.189784,-0.153745,0.722456
26,40,-0.567232,-0.698132,-0.174533,-0.174533,-0.569608,-0.694743,-0.169407,-0.198615,0.475193,-0.189784,-0.153745,0.722456
26,40,-0.567232,-0.698132,-0.174533,-0.174533,-0.569608,-0.694743,-0.169407,-0.198615,0.475193,-0.189784,-0.153746,0.722456
26,40,-0.567232,-0.698132,-0.174533,-0.174533,-0.569608,-0.694743,-0.169407,-0.198615,0.475193,-0.189784,-0.153746,0.722456
26,40,-0.567232,-0.698132,-0.174533,-0.174533,-0.569608,-0.694743,-0.169407,-0.198615,0.475193,-0.189784,-0.153746,0.722456
26,40,-0.567232,-0.698132,-0.174533,-0.174533,-0.569608,-0.694743,-0.169407,-0.198615,0.475193,-0.189784,-0.153747,0.722456
26,40,-0.567232,-0.698132,-0.174533,-0.174533,-0.569608,-0.694743,-0.169407,-0.198615,0.475193,-0.189784,-0.153747,0.722456
26,40,-0.567232,-0.698132,-0.174533,-0.174533,-0.569608,-0.694743,-0.169407,-0.198615,0.475193,-0.189784,-0.153748,0.722457
26,40,-0.567232,-0.698132,-0.174533,-0.174533,-0.569608,-0.694743,-0.169407,-0.198615,0.475193,-0.189784,-0.153748,0.722457
26,40,-0.567232,-0.698132,-0.174533,-0.174533,-0.569608,-0.694743,-0.169407,-0.198615,0.475193,-0.189784,-0.153748,0.722457
26,40,-0.567232,-0.698132,-0.174533,-0.174533,-0.569608,-0.694743,-0.169407,-0.198615,0.475193,-0.189784,-0.153749,0.722457
26,40,-0.567232,-0.698132,-0.174533,-0.174533,-0.569608,-0.694743,-0.169407,-0.198615,0.475193,-0.189784,-0.153749,0.722457
26,40,-0.567232,-0.698132,-0.174533,-0.174533,-0.569608,-0.694743,-0.169407,-0.198615,0.475193,-0.189784,-0.153749,0.722457
26,40,-0.567232,-0.698132,-0.174533,-0.174533,-0.569608,-0.694743,-0.169407,-0.198615,0.475193,-0.189784,-0.15375,0.722457
26,40,-0.567232,-0.698132,-0.174533,-0.174533,-0.569608,-0.694743,-0.169407,-0.198615,0.475193,-0.189784,-0.15375,0.722457
26,40,-0.567232,-0.698132,-0.174533,-0.174533,-0.569608,-0.694743,-0.169407,-0.198615,0.475193,-0.189784,-0.15375,0.722457
26,40,-0.567232,-0.698132,-0.174533,-0.174533,-0.569608,-0.694743,-0.169407,-0.198615,0.475193,-0.189784,-0.153751,0.722457
26,40,-0.567232,-0.698132,-0.174533,-0.174533,-0.569608,-0.694743,-0.169407,-0.198615,0.475193,-0.189784,-0.153751,0.722458
26,40,-0.567232,-0.698132,-0.174533,-0.174533,-0.569608,-0.694743,-0.169407,-0.198615,0.475193,-0.189784,-0.153751,0.722458
26,40,-0.567232,-0.698132,-0.174533,-0.174533,-0.569608,-0.694743,-0.169407,-0.198615,0.475193,-0.189784,-0.153751,0.722458
26,40,-0.567232,-0.698132,-0.174533,-0.174533,-0.569608,-0.694743,-0.169407,-0.198615,0.475193,-0.189784,-0.153752,0.722458
26,40,-0.567232,-0.698132,-0.174533,-0.174533,-0.569608,-0.694743,-0.169407,-0.198615,0.475193,-0.189784,-0.153752,0.722458
26,40,-0.567232,-0.698132,-0.174533,-0.174533,-0.569608,-0.694743,-0.169407,-0.198615,0.475193,-0.189784,-0.153752,0.722458
26,40,-0.567232,-0.698132,-0.174533,-0.174533,-0.569608,-0.694743,-0.169407,-0.198615,0.475193,-0.189784,-0.153752,0.722458
26,40,-0.567232,-0.698132,-0.174533,-0.174533,-0.569608,-0.694743,-0.169407,-0.198615,0.475193,-0.189784,-0.153753,0.722458
26,40,-0.567232,-0.698132,-0.174533,-0.174533,-0.569608,-0.694743,-0.169407,-0.198615,0.475193,-0.189784,-0.153753,0.722458
26,40,-0.567232,-0.698132,-0.174533,-0.174533,-0.569608,-0.694743,-0.169407,-0.198615,0.475193,-0.189784,-0.153753,0.722458
26,40,-0.567232,-0.698132,-0.174533,-0.174533,-0.569608,-0.694743,-0.169407,-0.198615,0.475193,-0.189784,-0.153754,0.722458
26,40,-0.567232,-0.698132,-0.174533,-0.174533,-0.569608,-0.694743,-0.169407,-0.198615,0.475193,-0.189784,-0.153754,0.722458
26,40,-0.567232,-0.698132,-0.174533,-0.174533,-0.569608,-0.694743,-0.169407,-0.198615,0.475193,-0.189784,-0.153754,0.722459
26,40,-0.567232,-0.698132,-0.174533,-0.174533,-0.569608,-0.694743,-0.169407,-0.198615,0.475193,-0.189784,-0.153754,0.722459
26,40,-0.567232,-0.698132,-0.174533,-0.174533,-0.569608,-0.694743,-0.169407,-0.198615,0.475193,-0.189784,-0.153754,0.722459
26,40,-0.567232,-0.698132,-0.174533,-0.174533,-0.569608,-0.694743,-0.169407,-0.198615,0.475193,-0.189784,-0.153755,0.722459
26,40,-0.567232,-0.698132,-0.174533,-0.174533,-0.569608,-0.694743,-0.169407,-0.198615,0.475193,-0.189784,-0.153755,0.722459
26,40,-0.567232,-0.698132,-0.174533,-0.174533,-0.569608,-0.694743,-0.169407,-0.198615,0.475193,-0.189784,-0.153755,0.722459
26,40,-0.567232,-0.698132,-0.174533,-0.174533,-0.569608,-0.694743,-0.169407,-0.198615,0.475193,-0.189784,-0.153755,0.722459
26,40,-0.567232,-0.698132,-0.174533,-0.174533,-0.569608,-0.694743,-0.169407,-0.198615,0.475193,-0.189784,-0.153756,0.722459
26,40,-0.567232,-0.698132,-0.174533,-0.174533,-0.569608,-0.694743,-0.169407,-0.198615,0.475193,-0.189784,-0.153756,0.722459
26,40,-0.567232,-0.698132,-0.174533,-0.174533,-0.569608,-0.694743,-0.169407,-0.198615,0.475193,-0.189784,-0.153756,0.722459
26,40,-0.567232,-0.698132,-0.174533,-0.174533,-0.569608,-0.694743,-0.169407,-0.198615,0.475193,-0.189784,-0.153756,0.722459
26,40,-0.567232,-0.698132,-0.174533,-0.174533,-0.569608,-0.694743,-0.169407,-0.198615,0.475193,-0.189784,-0.153756,0.722459
26,40,-0.567232,-0.698132,-0.174533,-0.174533,-0.569608,-0.694743,-0.169407,-0.198615,0.475193,-0.189784,-0.153757,0.722459
26,40,-0.567232,-0.698132,-0.174533,-0.174533,-0.569608,-0.694743,-0.169407,-0.198615,0.475193,-0.189784,-0.153757,0.722459
26,40,-0.567232,-0.698132,-0.174533,-0.174533,-0.569608,-0.694743,-0.169407,-0.198615,0.475193,-0.189784,-0.153757,0.722459
26,40,-0.567232,-0.698132,-0.174533,-0.174533,-0.569608,-0.694743,-0.169407,-0.198615,0.475193,-0.189784,-0.153757,0.72246
26,40,-0.567232,-0.698132,-0.174533,-0.174533,-0.569608,-0.694743,-0.169407,-0.198615,0.475193,-0.189784,-0.153757,0.72246
26,40,-0.567232,-0.698132,-0.174533,-0.174533,-0.569608,-0.694743,-0.169407,-0.198615,0.475193,-0.189784,-0.153758,0.72246
26,40,-0.567232,-0.698132,-0.174533,-0.174533,-0.569608,-0.694743,-0.169407,-0.198615,0.475193,-0.189784,-0.153758,0.72246
26,40,-0.567232,-0.698132,-0.174533,-0.174533,-0.569608,-0.694743,-0.169407,-0.198615,0.475193,-0.189784,-0.153758,0.72246
26,40,-0.567232,-0.698132,-0.174533,-0.174533,-0.569608,-0.694743,-0.169407,-0.198615,0.475193,-0.189784,-0.153758,0.72246
26,40,-0.567232,-0.698132,-0.174533,-0.174533,-0.569608,-0.694743,-0.169407,-0.198615,0.475193,-0.189784,-0.153758,0.72246
26,40,-0.567232,-0.698132,-0.174533,-0.174533,-0.569608,-0.694743,-0.169407,-0.198615,0.475193,-0.189784,-0.153758,0.72246
26,40,-0.567232,-0.698132,-0.174533,-0.174533,-0.569608,-0.694743,-0.169407,-0.198615,0.475193,-0.189784,-0.153759,0.72246
26,40,-0.567232,-0.698132,-0.174533,-0.174533,-0.569608,-0.694743,-0.169407,-0.198615,0.475193,-0.189784,-0.153759,0.72246
26,40,-0.567232,-0.698132,-0.174533,-0.174533,-0.569608,-0.694743,-0.169407,-0.198615,0.475193,-0.189784,-0.153759,0.72246
26,40,-0.567232,-0.698132,-0.174533,-0.174533,-0.569608,-0.694743,-0.169407,-0.198615,0.475193,-0.189784,-0.153759,0.72246
26,40,-0.567232,-0.698132,-0.174533,-0.174533,-0.569608,-0.694743,-0.169407,-0.198615,0.475193,-0.189784,-0.153759,0.72246
26,40,-0.567232,-0.698132,-0.174533,-0.174533,-0.569608,-0.694743,-0.169407,-0.198615,0.475193,-0.189784,-0.153759,0.72246
26,40,-0.567232,-0.698132,-0.174533,-0.174533,-0.569608,-0.694743,-0.169407,-0.198615,0.475193,-0.189784,-0.15376,0.72246
26,40,-0.567232,-0.698132,-0.174533,-0.174533,-0.569608,-0.694743,-0.169407,-0.198615,0.475193,-0.189784,-0.15376,0.72246
26,40,-0.567232,-0.698132,-0.174533,-0.174533,-0.569608,-0.694743,-0.169407,-0.198615,0.475193,-0.189784,-0.15376,0.72246
26,40,-0.567232,-0.698132,-0.174533,-0.174533,-0.569608,-0.694743,-0.169407,-0.198615,0.475193,-0.189784,-0.15376,0.72246
26,40,-0.567232,-0.698132,-0.174533,-0.174533,-0.569608,-0.694743,-0.169407,-0.198615,0.475193,-0.189784,-0.15376,0.72246
26,40,-0.567232,-0.698132,-0.174533,-0.174533,-0.569608,-0.694743,-0.169407,-0.198615,0.475193,-0.189784,-0.15376,0.72246
26,40,-0.567232,-0.698132,-0.174533,-0.174533,-0.569608,-0.694743,-0.169407,-0.198615,0.475193,-0.189784,-0.15376,0.722461
26,40,-0.567232,-0.698132,-0.174533,-0.174533,-0.569608,-0.694743,-0.169407,-0.198615,0.475193,-0.189784,-0.153761,0.722461
26,40,-0.567232,-0.698132,-0.174533,-0.174533,-0.569608,-0.694743,-0.169407,-0.198615,0.475193,-0.189784,-0.153761,0.722461
26,40,-0.567232,-0.698132,-0.174533,-0.174533,-0.569608,-0.694743,-0.169407,-0.198615,0.475193,-0.189784,-0.153761,0.722461
26,40,-0.567232,-0.698132,-0.174533,-0.174533,-0.569608,-0.694743,-0.169407,-0.198615,0.475193,-0.189784,-0.153761,0.722461
26,40,-0.567232,-0.698132,-0.174533,-0.174533,-0.569608,-0.694743,-0.169407,-0.198615,0.475193,-0.189784,-0.153761,0.722461
26,40,-0.567232,-0.698132,-0.174533,-0.174533,-0.569608,-0.694743,-0.169407,-0.198615,0.475193,-0.189784,-0.153761,0.722461
26,40,-0.567232,-0.698132,-0.174533,-0.174533,-0.569608,-0.694743,-0.169407,-0.198615,0.475193,-0.189784,-0.153761,0.722461
26,40,-0.567232,-0.698132,-0.174533,-0.174533,-0.569608,-0.694743,-0.169407,-0.198615,0.475193,-0.189784,-0.153762,0.722461
26,40,-0.567232,-0.698132,-0.174533,-0.174533,-0.569608,-0.694743,-0.169407,-0.198615,0.475193,-0.189784,-0.153762,0.722461
26,40,-0.567232,-0.698132,-0.174533,-0.174533,-0.569608,-0.694743,-0.169407,-0.198615,0.475193,-0.189784,-0.153762,0.722461
26,40,-0.567232,-0.698132,-0.174533,-0.174533,-0.569608,-0.694743,-0.169407,-0.198615,0.475193,-0.189784,-0.153762,0.722461
26,40,-0.567232,-0.698132,-0.174533,-0.174533,-0.569608,-0.694743,-0.169407,-0.198615,0.475193,-0.189784,-0.153762,0.722461
26,40,-0.567232,-0.698132,-0.174533,-0.174533,-0.569608,-0.694743,-0.169407,-0.198615,0.475193,-0.189784,-0.153762,0.722461
26,40,-0.567232,-0.698132,-0.174533,-0.174533,-0.569608,-0.694743,-0.169407,-0.198615,0.475193,-0.189784,-0.153762,0.722461
26,40,-0.567232,-0.698132,-0.174533,-0.174533,-0.569608,-0.694743,-0.169407,-0.198615,0.475193,-0.189784,-0.153762,0.722461
26,40,-0.567232,-0.698132,-0.174533,-0.174533,-0.569608,-0.694743,-0.169407,-0.198615,0.475193,-0.189784,-0.153763,0.722461
26,40,-0.567232,-0.698132,-0.174533,-0.174533,-0.569608,-0.694743,-0.169407,-0.198615,0.475193,-0.189784,-0.153763,0.722461
26,40,-0.567232,-0.698132,-0.174533,-0.174533,-0.569608,-0.694743,-0.169407,-0.198615,0.475193,-0.189784,-0.153763,0.722461
26,40,-0.567232,-0.698132,-0.174533,-0.174533,-0.569608,-0.694743,-0.169407,-0.198615,0.475193,-0.189784,-0.153763,0.722461
26,40,-0.567232,-0.698132,-0.174533,-0.174533,-0.569608,-0.694743,-0.169407,-0.198615,0.475193,-0.189784,-0.153763,0.722461
26,40,-0.567232,-0.698132,-0.174533,-0.174533,-0.569608,-0.694743,-0.169407,-0.198615,0.475193,-0.189784,-0.153763,0.722461
26,40,-0.567232,-0.698132,-0.174533,-0.174533,-0.569608,-0.694743,-0.169407,-0.198615,0.475193,-0.189784,-0.153763,0.722461
26,40,-0.567232,-0.698132,-0.174533,-0.174533,-0.569608,-0.694743,-0.169407,-0.198615,0.475193,-0.189784,-0.153763,0.722461
26,40,-0.567232,-0.698132,-0.174533,-0.174533,-0.569608,-0.694743,-0.169407,-0.198615,0.475193,-0.189784,-0.153763,0.722461
26,40,-0.567232,-0.698132,-0.174533,-0.174533,-0.569608,-0.694743,-0.169407,-0.198615,0.475193,-0.189784,-0.153764,0.722461
26,40,-0.567232,-0.698132,-0.174533,-0.174533,-0.569608,-0.694743,-0.169407,-0.198615,0.475193,-0.189784,-0.153764,0.722461
26,40,-0.567232,-0.698132,-0.174533,-0.174533,-0.569608,-0.694743,-0.169407,-0.198615,0.475193,-0.189784,-0.153764,0.722462
26,40,-0.567232,-0.698132,-0.174533,-0.174533,-0.569608,-0.694743,-0.169407,-0.198615,0.475193,-0.189784,-0.153764,0.722462
26,40,-0.567232,-0.698132,-0.174533,-0.174533,-0.569608,-0.694743,-0.169407,-0.198615,0.475193,-0.189784,-0.153764,0.722462
26,40,-0.567232,-0.698132,-0.174533,-0.174533,-0.569608,-0.694743,-0.169407,-0.198615,0.475193,-0.189784,-0.153764,0.722462
26,40,-0.567232,-0.698132,-0.174533,-0.174533,-0.569608,-0.694743,-0.169407,-0.198615,0.475193,-0.189784,-0.153764,0.722462
26,40,-0.567232,-0.698132,-0.174533,-0.174533,-0.569608,-0.694743,-0.169407,-0.198615,0.475193,-0.189784,-0.153764,0.722462
26,40,-0.567232,-0.698132,-0.174533,-0.174533,-0.569608,-0.694743,-0.169407,-0.198615,0.475193,-0.189784,-0.153764,0.722462
26,40,-0.567232,-0.698132,-0.174533,-0.174533,-0.569608,-0.694743,-0.169407,-0.198615,0.475193,-0.189784,-0.153764,0.722462
26,40,-0.567232,-0.698132,-0.174533,-0.174533,-0.569608,-0.694743,-0.169407,-0.198615,0.475193,-0.189784,-0.153765,0.722462
26,40,-0.567232,-0.698132,-0.174533,-0.174533,-0.569608,-0.694743,-0.169407,-0.198615,0.475193,-0.189784,-0.153765,0.722462
26,40,-0.567232,-0.698132,-0.174533,-0.174533,-0.569608,-0.694743,-0.169407,-0.198615,0.475193,-0.189784,-0.153765,0.722462
26,40,-0.567232,-0.698132,-0.174533,-0.174533,-0.569608,-0.694743,-0.169407,-0.198615,0.475193,-0.189784,-0.153765,0.722462
26,40,-0.567232,-0.698132,-0.174533,-0.174533,-0.569608,-0.694743,-0.169407,-0.198615,0.475193,-0.189784,-0.153765,0.722462
26,40,-0.567232,-0.698132,-0.174533,-0.174533,-0.569608,-0.694743,-0.169407,-0.198615,0.475193,-0.189784,-0.153765,0.722462
26,40,-0.567232,-0.698132,-0.174533,-0.174533,-0.569608,-0.694743,-0.169407,-0.198615,0.475193,-0.189784,-0.153765,0.722462
26,40,-0.567232,-0.698132,-0.174533,-0.174533,-0.569608,-0.694743,-0.169407,-0.198615,0.475193,-0.189784,-0.153765,0.722462
26,40,-0.567232,-0.698132,-0.174533,-0.174533,-0.569608,-0.694743,-0.169407,-0.198615,0.475193,-0.189784,-0.153765,0.722462
26,40,-0.567232,-0.698132,-0.174533,-0.174533,-0.569608,-0.694743,-0.169407,-0.198615,0.475193,-0.189784,-0.153765,0.722462
26,40,-0.567232,-0.698132,-0.174533,-0.174533,-0.569608,-0.694743,-0.169407,-0.198615,0.475193,-0.189784,-0.153765,0.722462
26,40,-0.567232,-0.698132,-0.174533,-0.174533,-0.569608,-0.694743,-0.169407,-0.198615,0.475193,-0.189784,-0.153766,0.722462
26,40,-0.567232,-0.698132,-0.174533,-0.174533,-0.569608,-0.694743,-0.169407,-0.198615,0.475193,-0.189784,-0.153766,0.722462
26,40,-0.567232,-0.698132,-0.174533,-0.174533,-0.569608,-0.694743,-0.169407,-0.198615,0.475193,-0.189784,-0.153766,0.722462
26,40,-0.567232,-0.698132,-0.174533,-0.174533,-0.569608,-0.694743,-0.169407,-0.198615,0.475193,-0.189784,-0.153766,0.722462
26,40,-0.567232,-0.698132,-0.174533,-0.174533,-0.569608,-0.694743,-0.169407,-0.198615,0.475193,-0.189784,-0.153766,0.722462
26,40,-0.567232,-0.698132,-0.174533,-0.174533,-0.569608,-0.694743,-0.169407,-0.198615,0.475193,-0.189784,-0.153766,0.722462
26,40,-0.567232,-0.698132,-0.174533,-0.174533,-0.569608,-0.694743,-0.169407,-0.198615,0.475193,-0.189784,-0.153766,0.722462
26,40,-0.567232,-0.698132,-0.174533,-0.174533,-0.569608,-0.694743,-0.169407,-0.198615,0.475193,-0.189784,-0.153766,0.722462
26,40,-0.567232,-0.698132,-0.174533,-0.174533,-0.569608,-0.694743,-0.169407,-0.198615,0.475193,-0.189784,-0.153766,0.722462
26,40,-0.567232,-0.698132,-0.174533,-0.174533,-0.569608,-0.694743,-0.169407,-0.198615,0.475193,-0.189784,-0.153766,0.722462
26,40,-0.567232,-0.698132,-0.174533,-0.174533,-0.569608,-0.694743,-0.169407,-0.198615,0.475193,-0.189784,-0.153766,0.722462
26,40,-0.567232,-0.698132,-0.174533,-0.174533,-0.569608,-0.694743,-0.169407,-0.198615,0.475193,-0.189784,-0.153766,0.722462
26,40,-0.567232,-0.698132,-0.174533,-0.174533,-0.569608,-0.694743,-0.169407,-0.198615,0.475193,-0.189784,-0.153782,0.722467
26,40,-0.567232,-0.698132,-0.174533,-0.174533,-0.569608,-0.694743,-0.169407,-0.198615,0.475193,-0.189784,-0.153782,0.722467
26,40,-0.567232,-0.698132,-0.174533,-0.174533,-0.569608,-0.694743,-0.169407,-0.198615,0.475193,-0.189784,-0.153782,0.722467
26,40,-0.567232,-0.698132,-0.174533,-0.174533,-0.569608,-0.694743,-0.169407,-0.198615,0.475193,-0.189784,-0.153782,0.722467
26,40,-0.567232,-0.698132,-0.174533,-0.174533,-0.569608,-0.694743,-0.169407,-0.198615,0.475193,-0.189784,-0.153782,0.722467
26,40,-0.567232,-0.698132,-0.174533,-0.174533,-0.569608,-0.694743,-0.169407,-0.198615,0.475193,-0.189784,-0.153782,0.722467
26,40,-0.567232,-0.698132,-0.174533,-0.174533,-0.569608,-0.694743,-0.169407,-0.198615,0.475193,-0.189784,-0.153782,0.722467
26,40,-0.567232,-0.698132,-0.174533,-0.174533,-0.569608,-0.694743,-0.169407,-0.198615,0.475193,-0.189784,-0.153782,0.722467
26,40,-0.567232,-0.698132,-0.174533,-0.174533,-0.569608,-0.694743,-0.169407,-0.198615,0.475193,-0.189784,-0.153782,0.722467
26,40,-0.567232,-0.698132,-0.174533,-0.174533,-0.569608,-0.694743,-0.169407,-0.198615,0.475193,-0.189784,-0.153782,0.722467
26,40,-0.567232,-0.698132,-0.174533,-0.174533,-0.569608,-0.694743,-0.169407,-0.198615,0.475193,-0.189784,-0.153782,0.722467
26,40,-0.567232,-0.698132,-0.174533,-0.174533,-0.569608,-0.694743,-0.169407,-0.198615,0.475193,-0.189784,-0.153782,0.722467
26,40,-0.567232,-0.698132,-0.174533,-0.174533,-0.569608,-0.694743,-0.169407,-0.198615,0.475193,-0.189784,-0.153782,0.722467
26,40,-0.567232,-0.698132,-0.174533,-0.174533,-0.569608,-0.694743,-0.169407,-0.198615,0.475193,-0.189784,-0.153782,0.722467
26,40,-0.567232,-0.698132,-0.174533,-0.174533,-0.569608,-0.694743,-0.169407,-0.198615,0.475193,-0.189784,-0.153782,0.722467
26,40,-0.567232,-0.698132,-0.174533,-0.174533,-0.569608,-0.694743,-0.169407,-0.198615,0.475193,-0.189784,-0.153782,0.722467
26,40,-0.567232,-0.698132,-0.174533,-0.174533,-0.569608,-0.694743,-0.169407,-0.198615,0.475193,-0.189784,-0.153782,0.722467
26,40,-0.567232,-0.698132,-0.174533,-0.174533,-0.569608,-0.694743,-0.169407,-0.198615,0.475193,-0.189784,-0.153782,0.722467
26,40,-0.567232,-0.698132,-0.174533,-0.174533,-0.569608,-0.694743,-0.169407,-0.198615,0.475193,-0.189784,-0.153782,0.722467
26,40,-0.567232,-0.698132,-0.174533,-0.174533,-0.569608,-0.694743,-0.169407,-0.198615,0.475193,-0.189784,-0.153782,0.722467
26,40,-0.567232,-0.698132,-0.174533,-0.174533,-0.569608,-0.694743,-0.169407,-0.198615,0.475193,-0.189784,-0.153782,0.722467
26,40,-0.567232,-0.698132,-0.174533,-0.174533,-0.569608,-0.694743,-0.169407,-0.198615,0.475193,-0.189784,-0.153782,0.722467
26,40,-0.567232,-0.698132,-0.174533,-0.174533,-0.569608,-0.694743,-0.169407,-0.198615,0.475193,-0.189784,-0.153782,0.722467
26,40,-0.567232,-0.698132,-0.174533,-0.174533,-0.569608,-0.694743,-0.169407,-0.198615,0.475193,-0.189784,-0.153782,0.722467
26,40,-0.567232,-0.698132,-0.174533,-0.174533,-0.569608,-0.694743,-0.169407,-0.198615,0.475193,-0.189784,-0.153782,0.722467
26,40,-0.567232,-0.698132,-0.174533,-0.174533,-0.569608,-0.694743,-0.169407,-0.198615,0.475193,-0.189784,-0.153782,0.722467
26,40,-0.567232,-0.698132,-0.174533,-0.174533,-0.569608,-0.694743,-0.169407,-0.198615,0.475193,-0.189784,-0.153782,0.722467
26,40,-0.567232,-0.698132,-0.174533,-0.174533,-0.569608,-0.694743,-0.169407,-0.198615,0.475193,-0.189784,-0.153782,0.722467
26,40,-0.567232,-0.698132,-0.174533,-0.174533,-0.569608,-0.694743,-0.169407,-0.198615,0.475193,-0.189784,-0.153782,0.722467
26,40,-0.567232,-0.698132,-0.174533,-0.174533,-0.569608,-0.694743,-0.169407,-0.198615,0.475193,-0.189784,-0.153782,0.722467
26,40,-0.567232,-0.698132,-0.174533,-0.174533,-0.569608,-0.694743,-0.169407,-0.198615,0.475193,-0.189784,-0.153782,0.722467
26,40,-0.567232,-0.698132,-0.174533,-0.174533,-0.569608,-0.694743,-0.169407,-0.198615,0.475193,-0.189784,-0.153782,0.722467
26,40,-0.567232,-0.698132,-0.174533,-0.174533,-0.569608,-0.694743,-0.169407,-0.198615,0.475193,-0.189784,-0.153782,0.722467
26,40,-0.567232,-0.698132,-0.174533,-0.174533,-0.569608,-0.694743,-0.169407,-0.198615,0.475193,-0.189784,-0.153782,0.722467
26,40,-0.567232,-0.698132,-0.174533,-0.174533,-0.569608,-0.694743,-0.169407,-0.198615,0.475193,-0.189784,-0.153782,0.722467
26,40,-0.567232,-0.698132,-0.174533,-0.174533,-0.569608,-0.694743,-0.169407,-0.198615,0.475193,-0.189784,-0.153782,0.722467
26,40,-0.567232,-0.698132,-0.174533,-0.174533,-0.569608,-0.694743,-0.169407,-0.198615,0.475193,-0.189784,-0.153782,0.722467
26,40,-0.567232,-0.698132,-0.174533,-0.174533,-0.569608,-0.694743,-0.169407,-0.198615,0.475193,-0.189784,-0.153782,0.722467
26,40,-0.567232,-0.698132,-0.174533,-0.174533,-0.569608,-0.694743,-0.169407,-0.198615,0.475193,-0.189784,-0.153782,0.722467
26,40,-0.567232,-0.698132,-0.174533,-0.174533,-0.569608,-0.694743,-0.169407,-0.198615,0.475193,-0.189784,-0.153782,0.722467
26,40,-0.567232,-0.698132,-0.174533,-0.174533,-0.569608,-0.694743,-0.169407,-0.198615,0.475193,-0.189784,-0.153782,0.722467
26,40,-0.567232,-0.698132,-0.174533,-0.174533,-0.569608,-0.694743,-0.169407,-0.198615,0.475193,-0.189784,-0.153782,0.722467
26,40,-0.567232,-0.698132,-0.174533,-0.174533,-0.569608,-0.694743,-0.169407,-0.198615,0.475193,-0.189784,-0.153782,0.722467
26,40,-0.567232,-0.698132,-0.174533,-0.174533,-0.569608,-0.694743,-0.169407,-0.198615,0.475193,-0.189784,-0.153782,0.722467
26,40,-0.567232,-0.698132,-0.174533,-0.174533,-0.569608,-0.694743,-0.169407,-0.198615,0.475193,-0.189784,-0.153782,0.722467
26,40,-0.567232,-0.698132,-0.174533,-0.174533,-0.569608,-0.694743,-0.169407,-0.198615,0.475193,-0.189784,-0.153782,0.722467
26,40,-0.567232,-0.698132,-0.174533,-0.174533,-0.569608,-0.694743,-0.169407,-0.198615,0.475193,-0.189784,-0.153782,0.722467
26,40,-0.567232,-0.698132,-0.174533,-0.174533,-0.569608,-0.694743,-0.169407,-0.198615,0.475193,-0.189784,-0.153782,0.722467
26,40,-0.567232,-0.698132,-0.174533,-0.174533,-0.569608,-0.694743,-0.169407,-0.198615,0.475193,-0.189784,-0.153782,0.722467
26,40,-0.567232,-0.698132,-0.174533,-0.174533,-0.569608,-0.694743,-0.169407,-0.198615,0.475193,-0.189784,-0.153782,0.722467
26,40,-0.567232,-0.698132,-0.174533,-0.174533,-0.569608,-0.694743,-0.169407,-0.198615,0.475193,-0.189784,-0.153782,0.722467
26,40,-0.567232,-0.698132,-0.174533,-0.174533,-0.569608,-0.694743,-0.169407,-0.198615,0.475193,-0.189784,-0.153782,0.722467
26,40,-0.567232,-0.698132,-0.174533,-0.174533,-0.569608,-0.694743,-0.169407,-0.198615,0.475193,-0.189784,-0.153782,0.722467
26,40,-0.567232,-0.698132,-0.174533,-0.174533,-0.569608,-0.694743,-0.169407,-0.198615,0.475193,-0.189784,-0.153782,0.722467
26,40,-0.567232,-0.698132,-0.174533,-0.174533,-0.569608,-0.694743,-0.169407,-0.198615,0.475193,-0.189784,-0.153782,0.722467
26,40,-0.567232,-0.698132,-0.174533,-0.174533,-0.569608,-0.694743,-0.169407,-0.198615,0.475193,-0.189784,-0.153782,0.722467
26,40,-0.567232,-0.698132,-0.174533,-0.174533,-0.569608,-0.694743,-0.169407,-0.198615,0.475193,-0.189784,-0.153782,0.722467
26,40,-0.567232,-0.698132,-0.174533,-0.174533,-0.569608,-0.694743,-0.169407,-0.198615,0.475193,-0.189784,-0.153782,0.722467
26,40,-0.567232,-0.698132,-0.174533,-0.174533,-0.569608,-0.694743,-0.169407,-0.198615,0.475193,-0.189784,-0.153782,0.722467
26,40,-0.567232,-0.698132,-0.174533,-0.174533,-0.569608,-0.694743,-0.169407,-0.198615,0.475193,-0.189784,-0.153782,0.722467
26,40,-0.567232,-0.698132,-0.174533,-0.174533,-0.569608,-0.694743,-0.169407,-0.198615,0.475193,-0.189784,-0.153782,0.722467
26,40,-0.567232,-0.698132,-0.174533,-0.174533,-0.569608,-0.694743,-0.169407,-0.198615,0.475193,-0.189784,-0.153782,0.722467
26,40,-0.567232,-0.698132,-0.174533,-0.174533,-0.569608,-0.694743,-0.169407,-0.198615,0.475193,-0.189784,-0.153782,0.722467
26,40,-0.567232,-0.698132,-0.174533,-0.174533,-0.569608,-0.694743,-0.169407,-0.198615,0.475193,-0.189784,-0.153782,0.722467
26,40,-0.567232,-0.698132,-0.174533,-0.174533,-0.569608,-0.694743,-0.169407,-0.198615,0.475193,-0.189784,-0.153782,0.722467
26,40,-0.567232,-0.698132,-0.174533,-0.174533,-0.569608,-0.694743,-0.169407,-0.198615,0.475193,-0.189784,-0.153782,0.722467
26,40,-0.567232,-0.698132,-0.174533,-0.174533,-0.569608,-0.694743,-0.169407,-0.198615,0.475193,-0.189784,-0.153782,0.722467
26,40,-0.567232,-0.698132,-0.174533,-0.174533,-0.569608,-0.694743,-0.169407,-0.198615,0.475193,-0.189784,-0.153782,0.722467
26,40,-0.567232,-0.698132,-0.174533,-0.174533,-0.569608,-0.694743,-0.169407,-0.198615,0.475193,-0.189784,-0.153782,0.722467
26,40,-0.567232,-0.698132,-0.174533,-0.174533,-0.569608,-0.694743,-0.169407,-0.198615,0.475193,-0.189784,-0.153782,0.722467
26,40,-0.567232,-0.698132,-0.174533,-0.174533,-0.569608,-0.694743,-0.169407,-0.198615,0.475193,-0.189784,-0.153782,0.722467
26,40,-0.567232,-0.698132,-0.174533,-0.174533,-0.569608,-0.694743,-0.169407,-0.198615,0.475193,-0.189784,-0.153782,0.722467
26,40,-0.567232,-0.698132,-0.174533,-0.174533,-0.569608,-0.694743,-0.169407,-0.198615,0.475193,-0.189784,-0.153782,0.722467
26,40,-0.567232,-0.698132,-0.174533,-0.174533,-0.569608,-0.694743,-0.169407,-0.198615,0.475193,-0.189784,-0.153782,0.722467
26,40,-0.567232,-0.698132,-0.174533,-0.174533,-0.569608,-0.694743,-0.169407,-0.198615,0.475193,-0.189784,-0.153782,0.722467
26,40,-0.567232,-0.698132,-0.174533,-0.174533,-0.569608,-0.694743,-0.169407,-0.198615,0.475193,-0.189784,-0.153782,0.722467
26,40,-0.567232,-0.698132,-0.174533,-0.174533,-0.569608,-0.694743,-0.169407,-0.198615,0.475193,-0.189784,-0.153782,0.722467
26,40,-0.567232,-0.698132,-0.174533,-0.174533,-0.569608,-0.694743,-0.169407,-0.198615,0.475193,-0.189784,-0.153782,0.722467
26,40,-0.567232,-0.698132,-0.174533,-0.174533,-0.569608,-0.694743,-0.169407,-0.198615,0.475193,-0.189784,-0.153782,0.722467
26,40,-0.567232,-0.698132,-0.174533,-0.174533,-0.569608,-0.694743,-0.169407,-0.198615,0.475193,-0.189784,-0.153782,0.722467
26,40,-0.567232,-0.698132,-0.174533,-0.174533,-0.569608,-0.694743,-0.169407,-0.198615,0.475193,-0.189784,-0.153782,0.722467
26,40,-0.567232,-0.698132,-0.174533,-0.174533,-0.569608,-0.694743,-0.169407,-0.198615,0.475193,-0.189784,-0.153782,0.722467
26,40,-0.567232,-0.698132,-0.174533,-0.174533,-0.569608,-0.694743,-0.169407,-0.198615,0.475193,-0.189784,-0.153782,0.722467
26,40,-0.567232,-0.698132,-0.174533,-0.174533,-0.569608,-0.694743,-0.169407,-0.198615,0.475193,-0.189784,-0.153782,0.722467
26,40,-0.567232,-0.698132,-0.174533,-0.174533,-0.569608,-0.694743,-0.169407,-0.198615,0.475193,-0.189784,-0.153782,0.722467
26,40,-0.567232,-0.698132,-0.174533,-0.174533,-0.569608,-0.694743,-0.169407,-0.198615,0.475193,-0.189784,-0.153782,0.722467
26,40,-0.567232,-0.698132,-0.174533,-0.174533,-0.569608,-0.694743,-0.169407,-0.198615,0.475193,-0.189784,-0.153782,0.722467
26,40,-0.567232,-0.698132,-0.174533,-0.174533,-0.569608,-0.694743,-0.169407,-0.198615,0.475193,-0.189784,-0.153782,0.722467
26,40,-0.567232,-0.698132,-0.174533,-0.174533,-0.569608,-0.694743,-0.169407,-0.198615,0.475193,-0.189784,-0.153782,0.722467
26,40,-0.567232,-0.698132,-0.174533,-0.174533,-0.569608,-0.694743,-0.169407,-0.198615,0.475193,-0.189784,-0.153782,0.722467
26,40,-0.567232,-0.698132,-0.174533,-0.174533,-0.569608,-0.694743,-0.169407,-0.198615,0.475193,-0.189784,-0.153782,0.722467
26,40,-0.567232,-0.698132,-0.174533,-0.174533,-0.569608,-0.694743,-0.169407,-0.198615,0.475193,-0.189784,-0.153782,0.722467
26,40,-0.567232,-0.698132,-0.174533,-0.174533,-0.569608,-0.694743,-0.169407,-0.198615,0.475193,-0.189784,-0.153782,0.722467
26,40,-0.567232,-0.698132,-0.174533,-0.174533,-0.569608,-0.694743,-0.169407,-0.198615,0.475193,-0.189784,-0.153782,0.722467
26,40,-0.567232,-0.698132,-0.174533,-0.174533,-0.569608,-0.694743,-0.169407,-0.198615,0.475193,-0.189784,-0.153782,0.722467
26,40,-0.567232,-0.698132,-0.174533,-0.174533,-0.569608,-0.694743,-0.169407,-0.198615,0.475193,-0.189784,-0.153782,0.722467
26,40,-0.567232,-0.698132,-0.174533,-0.174533,-0.569608,-0.694743,-0.169407,-0.198615,0.475193,-0.189784,-0.153782,0.722467
26,40,-0.567232,-0.698132,-0.174533,-0.174533,-0.569608,-0.694743,-0.169407,-0.198615,0.475193,-0.189784,-0.153782,0.722467
26,40,-0.567232,-0.698132,-0.174533,-0.174533,-0.569608,-0.694743,-0.169407,-0.198615,0.475193,-0.189784,-0.153782,0.722467
26,40,-0.567232,-0.698132,-0.174533,-0.174533,-0.569608,-0.694743,-0.169407,-0.198615,0.475193,-0.189784,-0.153782,0.722467
26,40,-0.567232,-0.698132,-0.174533,-0.174533,-0.569608,-0.694743,-0.169407,-0.198615,0.475193,-0.189784,-0.153782,0.722467
26,40,-0.567232,-0.698132,-0.174533,-0.174533,-0.569608,-0.694743,-0.169407,-0.198615,0.475193,-0.189784,-0.153782,0.722467
26,40,-0.567232,-0.698132,-0.174533,-0.174533,-0.569608,-0.694743,-0.169407,-0.198615,0.475193,-0.189784,-0.153782,0.722467
26,40,-0.567232,-0.698132,-0.174533,-0.174533,-0.569608,-0.694743,-0.169407,-0.198615,0.475193,-0.189784,-0.153782,0.722467
26,40,-0.567232,-0.698132,-0.174533,-0.174533,-0.569608,-0.694743,-0.169407,-0.198615,0.475193,-0.189784,-0.153782,0.722467
26,40,-0.567232,-0.698132,-0.174533,-0.174533,-0.569608,-0.694743,-0.169407,-0.198615,0.475193,-0.189784,-0.153782,0.722467
26,40,-0.567232,-0.698132,-0.174533,-0.174533,-0.569608,-0.694743,-0.169407,-0.198615,0.475193,-0.189784,-0.153782,0.722467
26,40,-0.567232,-0.698132,-0.174533,-0.174533,-0.569608,-0.694743,-0.169407,-0.198615,0.475193,-0.189784,-0.153782,0.722467
26,40,-0.567232,-0.698132,-0.174533,-0.174533,-0.569608,-0.694743,-0.169407,-0.198615,0.475193,-0.189784,-0.153782,0.722467
26,40,-0.567232,-0.698132,-0.174533,-0.174533,-0.569608,-0.694743,-0.169407,-0.198615,0.475193,-0.189784,-0.153782,0.722467
26,40,-0.567232,-0.698132,-0.174533,-0.174533,-0.569608,-0.694743,-0.169407,-0.198615,0.475193,-0.189784,-0.153782,0.722467
26,40,-0.567232,-0.698132,-0.174533,-0.174533,-0.569608,-0.694743,-0.169407,-0.198615,0.475193,-0.189784,-0.153782,0.722467
26,40,-0.567232,-0.698132,-0.174533,-0.174533,-0.569608,-0.694743,-0.169407,-0.198615,0.475193,-0.189784,-0.153782,0.722467
26,40,-0.567232,-0.698132,-0.174533,-0.174533,-0.569608,-0.694743,-0.169407,-0.198615,0.475193,-0.189784,-0.153782,0.722467
26,40,-0.567232,-0.698132,-0.174533,-0.174533,-0.569608,-0.694743,-0.169407,-0.198615,0.475193,-0.189784,-0.153782,0.722467
26,40,-0.567232,-0.698132,-0.174533,-0.174533,-0.569608,-0.694743,-0.169407,-0.198615,0.475193,-0.189784,-0.153782,0.722467
26,40,-0.567232,-0.698132,-0.174533,-0.174533,-0.569608,-0.694743,-0.169407,-0.198615,0.475193,-0.189784,-0.153782,0.722467
26,40,-0.567232,-0.698132,-0.174533,-0.174533,-0.569608,-0.694743,-0.169407,-0.198615,0.475193,-0.189784,-0.153782,0.722467
26,40,-0.567232,-0.698132,-0.174533,-0.174533,-0.569608,-0.694743,-0.169407,-0.198615,0.475193,-0.189784,-0.153782,0.722467
26,40,-0.567232,-0.698132,-0.174533,-0.174533,-0.569608,-0.694743,-0.169407,-0.198615,0.475193,-0.189784,-0.153782,0.722467
26,40,-0.567232,-0.698132,-0.174533,-0.174533,-0.569608,-0.694743,-0.169407,-0.198615,0.475193,-0.189784,-0.153782,0.722467
26,40,-0.567232,-0.698132,-0.174533,-0.174533,-0.569608,-0.694743,-0.169407,-0.198615,0.475193,-0.189784,-0.153782,0.722467
26,40,-0.567232,-0.698132,-0.174533,-0.174533,-0.569608,-0.694743,-0.169407,-0.198615,0.475193,-0.189784,-0.153782,0.722467
26,40,-0.567232,-0.698132,-0.174533,-0.174533,-0.569608,-0.694743,-0.169407,-0.198615,0.475193,-0.189784,-0.153782,0.722467
26,40,-0.567232,-0.698132,-0.174533,-0.174533,-0.569608,-0.694743,-0.169407,-0.198615,0.475193,-0.189784,-0.153782,0.722467
26,40,-0.567232,-0.698132,-0.174533,-0.174533,-0.569608,-0.694743,-0.169407,-0.198615,0.475193,-0.189784,-0.153782,0.722467
26,40,-0.567232,-0.698132,-0.174533,-0.174533,-0.569608,-0.694743,-0.169407,-0.198615,0.475193,-0.189784,-0.153782,0.722467
26,40,-0.567232,-0.698132,-0.174533,-0.174533,-0.569608,-0.694743,-0.169407,-0.198615,0.475193,-0.189784,-0.153782,0.722467
26,40,-0.567232,-0.698132,-0.174533,-0.174533,-0.569608,-0.694743,-0.169407,-0.198615,0.475193,-0.189784,-0.153782,0.722467
26,40,-0.567232,-0.698132,-0.174533,-0.174533,-0.569608,-0.694743,-0.169407,-0.198615,0.475193,-0.189784,-0.153782,0.722467
26,40,-0.567232,-0.698132,-0.174533,-0.174533,-0.569608,-0.694743,-0.169407,-0.198615,0.475193,-0.189784,-0.153782,0.722467
26,40,-0.567232,-0.698132,-0.174533,-0.174533,-0.569608,-0.694743,-0.169407,-0.198615,0.475193,-0.189784,-0.153782,0.722467
26,40,-0.567232,-0.698132,-0.174533,-0.174533,-0.569608,-0.694743,-0.169407,-0.198615,0.475193,-0.189784,-0.153782,0.722467
26,40,-0.567232,-0.698132,-0.174533,-0.174533,-0.569608,-0.694743,-0.169407,-0.198615,0.475193,-0.189784,-0.153782,0.722467
26,40,-0.567232,-0.698132,-0.174533,-0.174533,-0.569608,-0.694743,-0.169407,-0.198615,0.475193,-0.189784,-0.153782,0.722467
26,40,-0.567232,-0.698132,-0.174533,-0.174533,-0.569608,-0.694743,-0.169407,-0.198615,0.475193,-0.189784,-0.153782,0.722467
26,40,-0.567232,-0.698132,-0.174533,-0.174533,-0.569608,-0.694743,-0.169407,-0.198615,0.475193,-0.189784,-0.153782,0.722467
26,40,-0.567232,-0.698132,-0.174533,-0.174533,-0.569608,-0.694743,-0.169407,-0.198615,0.475193,-0.189784,-0.153782,0.722467
26,40,-0.567232,-0.698132,-0.174533,-0.174533,-0.569608,-0.694743,-0.169407,-0.198615,0.475193,-0.189784,-0.153782,0.722467
26,40,-0.567232,-0.698132,-0.174533,-0.174533,-0.569608,-0.694743,-0.169407,-0.198615,0.475193,-0.189784,-0.153782,0.722467
26,40,-0.567232,-0.698132,-0.174533,-0.174533,-0.569608,-0.694743,-0.169407,-0.198615,0.475193,-0.189784,-0.153782,0.722467
26,40,-0.567232,-0.698132,-0.174533,-0.174533,-0.569608,-0.694743,-0.169407,-0.198615,0.475193,-0.189784,-0.153782,0.722467
26,40,-0.567232,-0.698132,-0.174533,-0.174533,-0.569608,-0.694743,-0.169407,-0.198615,0.475193,-0.189784,-0.153782,0.722467
26,40,-0.567232,-0.698132,-0.174533,-0.174533,-0.569608,-0.694743,-0.169407,-0.198615,0.475193,-0.189784,-0.153782,0.722467
26,40,-0.567232,-0.698132,-0.174533,-0.174533,-0.569608,-0.694743,-0.169407,-0.198615,0.475193,-0.189784,-0.153782,0.722467
26,40,-0.567232,-0.698132,-0.174533,-0.174533,-0.569608,-0.694743,-0.169407,-0.198615,0.475193,-0.189784,-0.153782,0.722467
26,40,-0.567232,-0.698132,-0.174533,-0.174533,-0.569608,-0.694743,-0.169407,-0.198615,0.475193,-0.189784,-0.153782,0.722467
26,40,-0.567232,-0.698132,-0.174533,-0.174533,-0.569608,-0.694743,-0.169407,-0.198615,0.475193,-0.189784,-0.153782,0.722467
26,40,-0.567232,-0.698132,-0.174533,-0.174533,-0.569608,-0.694743,-0.169407,-0.198615,0.475193,-0.189784,-0.153782,0.722467
26,40,-0.567232,-0.698132,-0.174533,-0.174533,-0.569608,-0.694743,-0.169407,-0.198615,0.475193,-0.189784,-0.153782,0.722467
26,40,-0.567232,-0.698132,-0.174533,-0.174533,-0.569608,-0.694743,-0.169407,-0.198615,0.475193,-0.189784,-0.153782,0.722467
26,40,-0.567232,-0.698132,-0.174533,-0.174533,-0.569608,-0.694743,-0.169407,-0.198615,0.475193,-0.189784,-0.153782,0.722467
26,40,-0.567232,-0.698132,-0.174533,-0.174533,-0.569608,-0.694743,-0.169407,-0.198615,0.475193,-0.189784,-0.153782,0.722467
26,40,-0.567232,-0.698132,-0.174533,-0.174533,-0.569608,-0.694743,-0.169407,-0.198615,0.475193,-0.189784,-0.153782,0.722467
26,40,-0.567232,-0.698132,-0.174533,-0.174533,-0.569608,-0.694743,-0.169407,-0.198615,0.475193,-0.189784,-0.153782,0.722467
26,40,-0.567232,-0.698132,-0.174533,-0.174533,-0.569608,-0.694743,-0.169407,-0.198615,0.475193,-0.189784,-0.153782,0.722467
26,40,-0.567232,-0.698132,-0.174533,-0.174533,-0.569608,-0.694743,-0.169407,-0.198615,0.475193,-0.189784,-0.153782,0.722467
26,40,-0.567232,-0.698132,-0.174533,-0.174533,-0.569608,-0.694743,-0.169407,-0.198615,0.475193,-0.189784,-0.153782,0.722467
26,40,-0.567232,-0.698132,-0.174533,-0.174533,-0.569608,-0.694743,-0.169407,-0.198615,0.475193,-0.189784,-0.153782,0.722467
26,40,-0.567232,-0.698132,-0.174533,-0.174533,-0.569608,-0.694743,-0.169407,-0.198615,0.475193,-0.189784,-0.153782,0.722467
26,40,-0.567232,-0.698132,-0.174533,-0.174533,-0.569608,-0.694743,-0.169407,-0.198615,0.475193,-0.189784,-0.153782,0.722467
26,40,-0.567232,-0.698132,-0.174533,-0.174533,-0.569608,-0.694743,-0.169407,-0.198615,0.475193,-0.189784,-0.153782,0.722467
26,40,-0.567232,-0.698132,-0.174533,-0.174533,-0.569608,-0.694743,-0.169407,-0.198615,0.475193,-0.189784,-0.153782,0.722467
26,40,-0.567232,-0.698132,-0.174533,-0.174533,-0.569608,-0.694743,-0.169407,-0.198615,0.475193,-0.189784,-0.153782,0.722467
26,40,-0.567232,-0.698132,-0.174533,-0.174533,-0.569608,-0.694743,-0.169407,-0.198615,0.475193,-0.189784,-0.153782,0.722467
26,40,-0.567232,-0.698132,-0.174533,-0.174533,-0.569608,-0.694743,-0.169407,-0.198615,0.475193,-0.189784,-0.153782,0.722467
26,40,-0.567232,-0.698132,-0.174533,-0.174533,-0.569608,-0.694743,-0.169407,-0.198615,0.475193,-0.189784,-0.153782,0.722467
26,40,-0.567232,-0.698132,-0.174533,-0.174533,-0.569608,-0.694743,-0.169407,-0.198615,0.475193,-0.189784,-0.153782,0.722467
26,40,-0.567232,-0.698132,-0.174533,-0.174533,-0.569608,-0.694743,-0.169407,-0.198615,0.475193,-0.189784,-0.153782,0.722467
26,40,-0.567232,-0.698132,-0.174533,-0.174533,-0.569608,-0.694743,-0.169407,-0.198615,0.475193,-0.189784,-0.153782,0.722467
26,40,-0.567232,-0.698132,-0.174533,-0.174533,-0.569608,-0.694743,-0.169407,-0.198615,0.475193,-0.189784,-0.153782,0.722467
26,40,-0.567232,-0.698132,-0.174533,-0.174533,-0.569608,-0.694743,-0.169407,-0.198615,0.475193,-0.189784,-0.153782,0.722467
26,40,-0.567232,-0.698132,-0.174533,-0.174533,-0.569608,-0.694743,-0.169407,-0.198615,0.475193,-0.189784,-0.153782,0.722467
26,40,-0.567232,-0.698132,-0.174533,-0.174533,-0.569608,-0.694743,-0.169407,-0.198615,0.475193,-0.189784,-0.153782,0.722467
26,40,-0.567232,-0.698132,-0.174533,-0.174533,-0.569608,-0.694743,-0.169407,-0.198615,0.475193,-0.189784,-0.153782,0.722467
26,40,-0.567232,-0.698132,-0.174533,-0.174533,-0.569608,-0.694743,-0.169407,-0.198615,0.475193,-0.189784,-0.153782,0.722467
26,40,-0.567232,-0.698132,-0.174533,-0.174533,-0.569608,-0.694743,-0.169407,-0.198615,0.475193,-0.189784,-0.153782,0.722467
26,40,-0.567232,-0.698132,-0.174533,-0.174533,-0.569608,-0.694743,-0.169407,-0.198615,0.475193,-0.189784,-0.153782,0.722467
26,40,-0.567232,-0.698132,-0.174533,-0.174533,-0.569608,-0.694743,-0.169407,-0.198615,0.475193,-0.189784,-0.153782,0.722467
26,40,-0.567232,-0.698132,-0.174533,-0.174533,-0.569608,-0.694743,-0.169407,-0.198615,0.475193,-0.189784,-0.153782,0.722467
26,40,-0.567232,-0.698132,-0.174533,-0.174533,-0.569608,-0.694743,-0.169407,-0.198615,0.475193,-0.189784,-0.153782,0.722467
26,40,-0.567232,-0.698132,-0.174533,-0.174533,-0.569608,-0.694743,-0.169407,-0.198615,0.475193,-0.189784,-0.153782,0.722467
26,40,-0.567232,-0.698132,-0.174533,-0.174533,-0.569608,-0.694743,-0.169407,-0.198615,0.475193,-0.189784,-0.153782,0.722467
26,40,-0.567232,-0.698132,-0.174533,-0.174533,-0.569608,-0.694743,-0.169407,-0.198615,0.475193,-0.189784,-0.153782,0.722467
26,40,-0.567232,-0.698132,-0.174533,-0.174533,-0.569608,-0.694743,-0.169407,-0.198615,0.475193,-0.189784,-0.153782,0.722467
26,40,-0.567232,-0.698132,-0.174533,-0.174533,-0.569608,-0.694743,-0.169407,-0.198615,0.475193,-0.189784,-0.153782,0.722467
26,40,-0.567232,-0.698132,-0.174533,-0.174533,-0.569608,-0.694743,-0.169407,-0.198615,0.475193,-0.189784,-0.153782,0.722467
26,40,-0.567232,-0.698132,-0.174533,-0.174533,-0.569608,-0.694743,-0.169407,-0.198615,0.475193,-0.189784,-0.153782,0.722467
26,40,-0.567232,-0.698132,-0.174533,-0.174533,-0.569608,-0.694743,-0.169407,-0.198615,0.475193,-0.189784,-0.153782,0.722467
26,40,-0.567232,-0.698132,-0.174533,-0.174533,-0.569608,-0.694743,-0.169407,-0.198615,0.475193,-0.189784,-0.153782,0.722467
26,40,-0.567232,-0.698132,-0.174533,-0.174533,-0.569608,-0.694743,-0.169407,-0.198615,0.475193,-0.189784,-0.153782,0.722467
26,40,-0.567232,-0.698132,-0.174533,-0.174533,-0.569608,-0.694743,-0.169407,-0.198615,0.475193,-0.189784,-0.153782,0.722467
26,40,-0.567232,-0.698132,-0.174533,-0.174533,-0.569608,-0.694743,-0.169407,-0.198615,0.475193,-0.189784,-0.153782,0.722467
26,40,-0.567232,-0.698132,-0.174533,-0.174533,-0.569608,-0.694743,-0.169407,-0.198615,0.475193,-0.189784,-0.153782,0.722467
26,40,-0.567232,-0.698132,-0.174533,-0.174533,-0.569608,-0.694743,-0.169407,-0.198615,0.475193,-0.189784,-0.153782,0.722467
26,40,-0.567232,-0.698132,-0.174533,-0.174533,-0.569608,-0.694743,-0.169407,-0.198615,0.475193,-0.189784,-0.153782,0.722467
26,40,-0.567232,-0.698132,-0.174533,-0.174533,-0.569608,-0.694743,-0.169407,-0.198615,0.475193,-0.189784,-0.153782,0.722467
26,40,-0.567232,-0.698132,-0.174533,-0.174533,-0.569608,-0.694743,-0.169407,-0.198615,0.475193,-0.189784,-0.153782,0.722467
26,40,-0.567232,-0.698132,-0.174533,-0.174533,-0.569608,-0.694743,-0.169407,-0.198615,0.475193,-0.189784,-0.153782,0.722467
26,40,-0.567232,-0.698132,-0.174533,-0.174533,-0.569608,-0.694743,-0.169407,-0.198615,0.475193,-0.189784,-0.153782,0.722467
26,40,-0.567232,-0.698132,-0.174533,-0.174533,-0.569608,-0.694743,-0.169407,-0.198615,0.475193,-0.189784,-0.153782,0.722467
26,40,-0.567232,-0.698132,-0.174533,-0.174533,-0.569608,-0.694743,-0.169407,-0.198615,0.475193,-0.189784,-0.153782,0.722467
26,40,-0.567232,-0.698132,-0.174533,-0.174533,-0.569608,-0.694743,-0.169407,-0.198615,0.475193,-0.189784,-0.153782,0.722467
26,40,-0.567232,-0.698132,-0.174533,-0.174533,-0.569608,-0.694743,-0.169407,-0.198615,0.475193,-0.189784,-0.153782,0.722467
26,40,-0.567232,-0.698132,-0.174533,-0.174533,-0.569608,-0.694743,-0.169407,-0.198615,0.475193,-0.189784,-0.153782,0.722467
26,40,-0.567232,-0.698132,-0.174533,-0.174533,-0.569608,-0.694743,-0.169407,-0.198615,0.475193,-0.189784,-0.153782,0.722467
26,40,-0.567232,-0.698132,-0.174533,-0.174533,-0.569608,-0.694743,-0.169407,-0.198615,0.475193,-0.189784,-0.153782,0.722467
26,40,-0.567232,-0.698132,-0.174533,-0.174533,-0.569608,-0.694743,-0.169407,-0.198615,0.475193,-0.189784,-0.153782,0.722467
26,40,-0.567232,-0.698132,-0.174533,-0.174533,-0.569608,-0.694743,-0.169407,-0.198615,0.475193,-0.189784,-0.153782,0.722467
26,40,-0.567232,-0.698132,-0.174533,-0.174533,-0.569608,-0.694743,-0.169407,-0.198615,0.475193,-0.189784,-0.153782,0.722467
26,40,-0.567232,-0.698132,-0.174533,-0.174533,-0.569608,-0.694743,-0.169407,-0.198615,0.475193,-0.189784,-0.153782,0.722467
26,40,-0.567232,-0.698132,-0.174533,-0.174533,-0.569608,-0.694743,-0.169407,-0.198615,0.475193,-0.189784,-0.153782,0.722467
26,40,-0.567232,-0.698132,-0.174533,-0.174533,-0.569608,-0.694743,-0.169407,-0.198615,0.475193,-0.189784,-0.153782,0.722467
26,40,-0.567232,-0.698132,-0.174533,-0.174533,-0.569608,-0.694743,-0.169407,-0.198615,0.475193,-0.189784,-0.153782,0.722467
26,40,-0.567232,-0.698132,-0.174533,-0.174533,-0.569608,-0.694743,-0.169407,-0.198615,0.475193,-0.189784,-0.153782,0.722467
26,40,-0.567232,-0.698132,-0.174533,-0.174533,-0.569608,-0.694743,-0.169407,-0.198615,0.475193,-0.189784,-0.153782,0.722467
26,40,-0.567232,-0.698132,-0.174533,-0.174533,-0.569608,-0.694743,-0.169407,-0.198615,0.475193,-0.189784,-0.153782,0.722467
26,40,-0.567232,-0.698132,-0.174533,-0.174533,-0.569608,-0.694743,-0.169407,-0.198615,0.475193,-0.189784,-0.153782,0.722467
26,40,-0.567232,-0.698132,-0.174533,-0.174533,-0.569608,-0.694743,-0.169407,-0.198615,0.475193,-0.189784,-0.153782,0.722467
26,40,-0.567232,-0.698132,-0.174533,-0.174533,-0.569608,-0.694743,-0.169407,-0.198615,0.475193,-0.189784,-0.153782,0.722467
26,40,-0.567232,-0.698132,-0.174533,-0.174533,-0.569608,-0.694743,-0.169407,-0.198615,0.475193,-0.189784,-0.153782,0.722467
26,40,-0.567232,-0.698132,-0.174533,-0.174533,-0.569608,-0.694743,-0.169407,-0.198615,0.475193,-0.189784,-0.153782,0.722467
26,40,-0.567232,-0.698132,-0.174533,-0.174533,-0.569608,-0.694743,-0.169407,-0.198615,0.475193,-0.189784,-0.153782,0.722467
26,40,-0.567232,-0.698132,-0.174533,-0.174533,-0.569608,-0.694743,-0.169407,-0.198615,0.475193,-0.189784,-0.153782,0.722467
26,40,-0.567232,-0.698132,-0.174533,-0.174533,-0.569608,-0.694743,-0.169407,-0.198615,0.475193,-0.189784,-0.153782,0.722467
26,40,-0.567232,-0.698132,-0.174533,-0.174533,-0.569608,-0.694743,-0.169407,-0.198615,0.475193,-0.189784,-0.153782,0.722467
26,40,-0.567232,-0.698132,-0.174533,-0.174533,-0.569608,-0.694743,-0.169407,-0.198615,0.475193,-0.189784,-0.153782,0.722467
26,40,-0.567232,-0.698132,-0.174533,-0.174533,-0.569608,-0.694743,-0.169407,-0.198615,0.475193,-0.189784,-0.153782,0.722467
26,40,-0.567232,-0.698132,-0.174533,-0.174533,-0.569608,-0.694743,-0.169407,-0.198615,0.475193,-0.189784,-0.153782,0.722467
26,40,-0.567232,-0.698132,-0.174533,-0.174533,-0.569608,-0.694743,-0.169407,-0.198615,0.475193,-0.189784,-0.153782,0.722467
26,40,-0.567232,-0.698132,-0.174533,-0.174533,-0.569608,-0.694743,-0.169407,-0.198615,0.475193,-0.189784,-0.153782,0.722467
26,40,-0.567232,-0.698132,-0.174533,-0.174533,-0.569608,-0.694743,-0.169407,-0.198615,0.475193,-0.189784,-0.153782,0.722467
26,40,-0.567232,-0.698132,-0.174533,-0.174533,-0.569608,-0.694743,-0.169407,-0.198615,0.475193,-0.189784,-0.153782,0.722467
26,40,-0.567232,-0.698132,-0.174533,-0.174533,-0.569608,-0.694743,-0.169407,-0.198615,0.475193,-0.189784,-0.153782,0.722467
26,40,-0.567232,-0.698132,-0.174533,-0.174533,-0.569608,-0.694743,-0.169407,-0.198615,0.475193,-0.189784,-0.153782,0.722467
26,40,-0.567232,-0.698132,-0.174533,-0.174533,-0.569608,-0.694743,-0.169407,-0.198615,0.475193,-0.189784,-0.153782,0.722467
26,40,-0.567232,-0.698132,-0.174533,-0.174533,-0.569608,-0.694743,-0.169407,-0.198615,0.475193,-0.189784,-0.153782,0.722467
26,40,-0.567232,-0.698132,-0.174533,-0.174533,-0.569608,-0.694743,-0.169407,-0.198615,0.475193,-0.189784,-0.153782,0.722467
26,40,-0.567232,-0.698132,-0.174533,-0.174533,-0.569608,-0.694743,-0.169407,-0.198615,0.475193,-0.189784,-0.153782,0.722467
26,40,-0.567232,-0.698132,-0.174533,-0.174533,-0.569608,-0.694743,-0.169407,-0.198615,0.475193,-0.189784,-0.153782,0.722467
26,40,-0.567232,-0.698132,-0.174533,-0.174533,-0.569608,-0.694743,-0.169407,-0.198615,0.475193,-0.189784,-0.153782,0.722467
26,40,-0.567232,-0.698132,-0.174533,-0.174533,-0.569608,-0.694743,-0.169407,-0.198615,0.475193,-0.189784,-0.153782,0.722467
26,40,-0.567232,-0.698132,-0.174533,-0.174533,-0.569608,-0.694743,-0.169407,-0.198615,0.475193,-0.189784,-0.153782,0.722467
26,40,-0.567232,-0.698132,-0.174533,-0.174533,-0.569608,-0.694743,-0.169407,-0.198615,0.475193,-0.189784,-0.153782,0.722467
26,40,-0.567232,-0.698132,-0.174533,-0.174533,-0.569608,-0.694743,-0.169407,-0.198615,0.475193,-0.189784,-0.153782,0.722467
26,40,-0.567232,-0.698132,-0.174533,-0.174533,-0.569608,-0.694743,-0.169407,-0.198615,0.475193,-0.189784,-0.153782,0.722467
26,40,-0.567232,-0.698132,-0.174533,-0.174533,-0.569608,-0.694743,-0.169407,-0.198615,0.475193,-0.189784,-0.153782,0.722467
26,40,-0.567232,-0.698132,-0.174533,-0.174533,-0.569608,-0.694743,-0.169407,-0.198615,0.475193,-0.189784,-0.153782,0.722467
26,40,-0.567232,-0.698132,-0.174533,-0.174533,-0.569608,-0.694743,-0.169407,-0.198615,0.475193,-0.189784,-0.153782,0.722467
26,40,-0.567232,-0.698132,-0.174533,-0.174533,-0.569608,-0.694743,-0.169407,-0.198615,0.475193,-0.189784,-0.153782,0.722467
26,40,-0.567232,-0.698132,-0.174533,-0.174533,-0.569608,-0.694743,-0.169407,-0.198615,0.475193,-0.189784,-0.153782,0.722467
26,40,-0.567232,-0.698132,-0.174533,-0.174533,-0.569608,-0.694743,-0.169407,-0.198615,0.475193,-0.189784,-0.153782,0.722467
26,40,-0.567232,-0.698132,-0.174533,-0.174533,-0.569608,-0.694743,-0.169407,-0.198615,0.475193,-0.189784,-0.153782,0.722467
26,40,-0.567232,-0.698132,-0.174533,-0.174533,-0.569608,-0.694743,-0.169407,-0.198615,0.475193,-0.189784,-0.153782,0.722467
26,40,-0.567232,-0.698132,-0.174533,-0.174533,-0.569608,-0.694743,-0.169407,-0.198615,0.475193,-0.189784,-0.153782,0.722467
26,40,-0.567232,-0.698132,-0.174533,-0.174533,-0.569608,-0.694743,-0.169407,-0.198615,0.475193,-0.189784,-0.153782,0.722467
26,40,-0.567232,-0.698132,-0.174533,-0.174533,-0.569608,-0.694743,-0.169407,-0.198615,0.475193,-0.189784,-0.153782,0.722467
26,40,-0.567232,-0.698132,-0.174533,-0.174533,-0.569608,-0.694743,-0.169407,-0.198615,0.475193,-0.189784,-0.153782,0.722467
26,40,-0.567232,-0.698132,-0.174533,-0.174533,-0.569608,-0.694743,-0.169407,-0.198615,0.475193,-0.189784,-0.153782,0.722467
26,40,-0.567232,-0.698132,-0.174533,-0.174533,-0.569608,-0.694743,-0.169407,-0.198615,0.475193,-0.189784,-0.153782,0.722467
26,40,-0.567232,-0.698132,-0.174533,-0.174533,-0.569608,-0.694743,-0.169407,-0.198615,0.475193,-0.189784,-0.153782,0.722467
26,40,-0.567232,-0.698132,-0.174533,-0.174533,-0.569608,-0.694743,-0.169407,-0.198615,0.475193,-0.189784,-0.153782,0.722467
26,40,-0.567232,-0.698132,-0.174533,-0.174533,-0.569608,-0.694743,-0.169407,-0.198615,0.475193,-0.189784,-0.153782,0.722467
26,40,-0.567232,-0.698132,-0.174533,-0.174533,-0.569608,-0.694743,-0.169407,-0.198615,0.475193,-0.189784,-0.153782,0.722467
26,40,-0.567232,-0.698132,-0.174533,-0.174533,-0.569608,-0.694743,-0.169407,-0.198615,0.475193,-0.189784,-0.153782,0.722467
26,40,-0.567232,-0.698132,-0.174533,-0.174533,-0.569608,-0.694743,-0.169407,-0.198615,0.475193,-0.189784,-0.153782,0.722467
26,40,-0.567232,-0.698132,-0.174533,-0.174533,-0.569608,-0.694743,-0.169407,-0.198615,0.475193,-0.189784,-0.153782,0.722467
26,40,-0.567232,-0.698132,-0.174533,-0.174533,-0.569608,-0.694743,-0.169407,-0.198615,0.475193,-0.189784,-0.153782,0.722467
26,40,-0.567232,-0.698132,-0.174533,-0.174533,-0.569608,-0.694743,-0.169407,-0.198615,0.475193,-0.189784,-0.153782,0.722467
26,40,-0.567232,-0.698132,-0.174533,-0.174533,-0.569608,-0.694743,-0.169407,-0.198615,0.475193,-0.189784,-0.153782,0.722467
26,40,-0.567232,-0.698132,-0.174533,-0.174533,-0.569608,-0.694743,-0.169407,-0.198615,0.475193,-0.189784,-0.153782,0.722467
26,40,-0.567232,-0.698132,-0.174533,-0.174533,-0.569608,-0.694743,-0.169407,-0.198615,0.475193,-0.189784,-0.153782,0.722467
26,40,-0.567232,-0.698132,-0.174533,-0.174533,-0.569608,-0.694743,-0.169407,-0.198615,0.475193,-0.189784,-0.153782,0.722467
26,40,-0.567232,-0.698132,-0.174533,-0.174533,-0.569608,-0.694743,-0.169407,-0.198615,0.475193,-0.189784,-0.153782,0.722467
26,40,-0.567232,-0.698132,-0.174533,-0.174533,-0.569608,-0.694743,-0.169407,-0.198615,0.475193,-0.189784,-0.153782,0.722467
26,40,-0.567232,-0.698132,-0.174533,-0.174533,-0.569608,-0.694743,-0.169407,-0.198615,0.475193,-0.189784,-0.153782,0.722467
26,40,-0.567232,-0.698132,-0.174533,-0.174533,-0.569608,-0.694743,-0.169407,-0.198615,0.475193,-0.189784,-0.153782,0.722467
26,40,-0.567232,-0.698132,-0.174533,-0.174533,-0.569608,-0.694743,-0.169407,-0.198615,0.475193,-0.189784,-0.153782,0.722467
26,40,-0.567232,-0.698132,-0.174533,-0.174533,-0.569608,-0.694743,-0.169407,-0.198615,0.475193,-0.189784,-0.153782,0.722467
26,40,-0.567232,-0.698132,-0.174533,-0.174533,-0.569608,-0.694743,-0.169407,-0.198615,0.475193,-0.189784,-0.153782,0.722467
26,40,-0.567232,-0.698132,-0.174533,-0.174533,-0.569608,-0.694743,-0.169407,-0.198615,0.475193,-0.189784,-0.153782,0.722467
26,40,-0.567232,-0.698132,-0.174533,-0.174533,-0.569608,-0.694743,-0.169407,-0.198615,0.475193,-0.189784,-0.153782,0.722467
26,40,-0.567232,-0.698132,-0.174533,-0.174533,-0.569608,-0.694743,-0.169407,-0.198615,0.475193,-0.189784,-0.153782,0.722467
26,40,-0.567232,-0.698132,-0.174533,-0.174533,-0.569608,-0.694743,-0.169407,-0.198615,0.475193,-0.189784,-0.153782,0.722467
26,40,-0.567232,-0.698132,-0.174533,-0.174533,-0.569608,-0.694743,-0.169407,-0.198615,0.475193,-0.189784,-0.153782,0.722467
26,40,-0.567232,-0.698132,-0.174533,-0.174533,-0.569608,-0.694743,-0.169407,-0.198615,0.475193,-0.189784,-0.153782,0.722467
26,40,-0.567232,-0.698132,-0.174533,-0.174533,-0.569608,-0.694743,-0.169407,-0.198615,0.475193,-0.189784,-0.153782,0.722467
26,40,-0.567232,-0.698132,-0.174533,-0.174533,-0.569608,-0.694743,-0.169407,-0.198615,0.475193,-0.189784,-0.153782,0.722467
26,40,-0.567232,-0.698132,-0.174533,-0.174533,-0.569608,-0.694743,-0.169407,-0.198615,0.475193,-0.189784,-0.153782,0.722467
26,40,-0.567232,-0.698132,-0.174533,-0.174533,-0.569608,-0.694743,-0.169407,-0.198615,0.475193,-0.189784,-0.153782,0.722467
26,40,-0.567232,-0.698132,-0.174533,-0.174533,-0.569608,-0.694743,-0.169407,-0.198615,0.475193,-0.189784,-0.153782,0.722467
26,40,-0.567232,-0.698132,-0.174533,-0.174533,-0.569608,-0.694743,-0.169407,-0.198615,0.475193,-0.189784,-0.153782,0.722467
26,40,-0.567232,-0.698132,-0.174533,-0.174533,-0.569608,-0.694743,-0.169407,-0.198615,0.475193,-0.189784,-0.153782,0.722467
26,40,-0.567232,-0.698132,-0.174533,-0.174533,-0.569608,-0.694743,-0.169407,-0.198615,0.475193,-0.189784,-0.153782,0.722467
26,40,-0.567232,-0.698132,-0.174533,-0.174533,-0.569608,-0.694743,-0.169407,-0.198615,0.475193,-0.189784,-0.153782,0.722467
26,40,-0.567232,-0.698132,-0.174533,-0.174533,-0.569608,-0.694743,-0.169407,-0.198615,0.475193,-0.189784,-0.153782,0.722467
26,40,-0.567232,-0.698132,-0.174533,-0.174533,-0.569608,-0.694743,-0.169407,-0.198615,0.475193,-0.189784,-0.153782,0.722467
26,40,-0.567232,-0.698132,-0.174533,-0.174533,-0.569608,-0.694743,-0.169407,-0.198615,0.475193,-0.189784,-0.153782,0.722467
26,40,-0.567232,-0.698132,-0.174533,-0.174533,-0.569608,-0.694743,-0.169407,-0.198615,0.475193,-0.189784,-0.153782,0.722467
26,40,-0.567232,-0.698132,-0.174533,-0.174533,-0.569608,-0.694743,-0.169407,-0.198615,0.475193,-0.189784,-0.153782,0.722467
26,40,-0.567232,-0.698132,-0.174533,-0.174533,-0.569608,-0.694743,-0.169407,-0.198615,0.475193,-0.189784,-0.153782,0.722467
26,40,-0.567232,-0.698132,-0.174533,-0.174533,-0.569608,-0.694743,-0.169407,-0.198615,0.475193,-0.189784,-0.153782,0.722467
26,40,-0.567232,-0.698132,-0.174533,-0.174533,-0.569608,-0.694743,-0.169407,-0.198615,0.475193,-0.189784,-0.153782,0.722467
26,40,-0.567232,-0.698132,-0.174533,-0.174533,-0.569608,-0.694743,-0.169407,-0.198615,0.475193,-0.189784,-0.153782,0.722467
26,40,-0.567232,-0.698132,-0.174533,-0.174533,-0.569608,-0.694743,-0.169407,-0.198615,0.475193,-0.189784,-0.153782,0.722467
26,40,-0.567232,-0.698132,-0.174533,-0.174533,-0.569608,-0.694743,-0.169407,-0.198615,0.475193,-0.189784,-0.153782,0.722467
26,40,-0.567232,-0.698132,-0.174533,-0.174533,-0.569608,-0.694743,-0.169407,-0.198615,0.475193,-0.189784,-0.153782,0.722467
26,40,-0.567232,-0.698132,-0.174533,-0.174533,-0.569608,-0.694743,-0.169407,-0.198615,0.475193,-0.189784,-0.153782,0.722467
26,40,-0.567232,-0.698132,-0.174533,-0.174533,-0.569608,-0.694743,-0.169407,-0.198615,0.475193,-0.189784,-0.153782,0.722467
26,40,-0.567232,-0.698132,-0.174533,-0.174533,-0.569608,-0.694743,-0.169407,-0.198615,0.475193,-0.189784,-0.153782,0.722467
26,40,-0.567232,-0.698132,-0.174533,-0.174533,-0.569608,-0.694743,-0.169407,-0.198615,0.475193,-0.189784,-0.153782,0.722467
26,40,-0.567232,-0.698132,-0.174533,-0.174533,-0.569608,-0.694743,-0.169407,-0.198615,0.475193,-0.189784,-0.153782,0.722467
26,40,-0.567232,-0.698132,-0.174533,-0.174533,-0.569608,-0.694743,-0.169407,-0.198615,0.475193,-0.189784,-0.153782,0.722467
26,40,-0.567232,-0.698132,-0.174533,-0.174533,-0.569608,-0.694743,-0.169407,-0.198615,0.475193,-0.189784,-0.153782,0.722467
26,40,-0.567232,-0.698132,-0.174533,-0.174533,-0.569608,-0.694743,-0.169407,-0.198615,0.475193,-0.189784,-0.153782,0.722467
26,40,-0.567232,-0.698132,-0.174533,-0.174533,-0.569608,-0.694743,-0.169407,-0.198615,0.475193,-0.189784,-0.153782,0.722467
26,40,-0.567232,-0.698132,-0.174533,-0.174533,-0.569608,-0.694743,-0.169407,-0.198615,0.475193,-0.189784,-0.153782,0.722467
26,40,-0.567232,-0.698132,-0.174533,-0.174533,-0.569608,-0.694743,-0.169407,-0.198615,0.475193,-0.189784,-0.153782,0.722467
26,40,-0.567232,-0.698132,-0.174533,-0.174533,-0.569608,-0.694743,-0.169407,-0.198615,0.475193,-0.189784,-0.153782,0.722467
26,40,-0.567232,-0.698132,-0.174533,-0.174533,-0.569608,-0.694743,-0.169407,-0.198615,0.475193,-0.189784,-0.153782,0.722467
26,40,-0.567232,-0.698132,-0.174533,-0.174533,-0.569608,-0.694743,-0.169407,-0.198615,0.475193,-0.189784,-0.153782,0.722467
26,40,-0.567232,-0.698132,-0.174533,-0.174533,-0.569608,-0.694743,-0.169407,-0.198615,0.475193,-0.189784,-0.153782,0.722467
26,40,-0.567232,-0.698132,-0.174533,-0.174533,-0.569608,-0.694743,-0.169407,-0.198615,0.475193,-0.189784,-0.153782,0.722467
26,40,-0.567232,-0.698132,-0.174533,-0.174533,-0.569608,-0.694743,-0.169407,-0.198615,0.475193,-0.189784,-0.153782,0.722467
26,40,-0.567232,-0.698132,-0.174533,-0.174533,-0.569608,-0.694743,-0.169407,-0.198615,0.475193,-0.189784,-0.153782,0.722467
26,40,-0.567232,-0.698132,-0.174533,-0.174533,-0.569608,-0.694743,-0.169407,-0.198615,0.475193,-0.189784,-0.153782,0.722467
26,40,-0.567232,-0.698132,-0.174533,-0.174533,-0.569608,-0.694743,-0.169407,-0.198615,0.475193,-0.189784,-0.153782,0.722467
26,40,-0.567232,-0.698132,-0.174533,-0.174533,-0.569608,-0.694743,-0.169407,-0.198615,0.475193,-0.189784,-0.153782,0.722467
26,40,-0.567232,-0.698132,-0.174533,-0.174533,-0.569608,-0.694743,-0.169407,-0.198615,0.475193,-0.189784,-0.153782,0.722467
26,40,-0.567232,-0.698132,-0.174533,-0.174533,-0.569608,-0.694743,-0.169407,-0.198615,0.475193,-0.189784,-0.153782,0.722467
26,40,-0.567232,-0.698132,-0.174533,-0.174533,-0.569608,-0.694743,-0.169407,-0.198615,0.475193,-0.189784,-0.153782,0.722467
26,40,-0.567232,-0.698132,-0.174533,-0.174533,-0.569608,-0.694743,-0.169407,-0.198615,0.475193,-0.189784,-0.153782,0.722467
26,40,-0.567232,-0.698132,-0.174533,-0.174533,-0.569608,-0.694743,-0.169407,-0.198615,0.475193,-0.189784,-0.153782,0.722467
26,40,-0.567232,-0.698132,-0.174533,-0.174533,-0.569608,-0.694743,-0.169407,-0.198615,0.475193,-0.189784,-0.153782,0.722467
26,40,-0.567232,-0.698132,-0.174533,-0.174533,-0.569608,-0.694743,-0.169407,-0.198615,0.475193,-0.189784,-0.153782,0.722467
26,40,-0.567232,-0.698132,-0.174533,-0.174533,-0.569608,-0.694743,-0.169407,-0.198615,0.475193,-0.189784,-0.153782,0.722467
26,40,-0.567232,-0.698132,-0.174533,-0.174533,-0.569608,-0.694743,-0.169407,-0.198615,0.475193,-0.189784,-0.153782,0.722467
26,40,-0.567232,-0.698132,-0.174533,-0.174533,-0.569608,-0.694743,-0.169407,-0.198615,0.475193,-0.189784,-0.153782,0.722467
26,40,-0.567232,-0.698132,-0.174533,-0.174533,-0.569608,-0.694743,-0.169407,-0.198615,0.475193,-0.189784,-0.153782,0.722467
26,40,-0.567232,-0.698132,-0.174533,-0.174533,-0.569608,-0.694743,-0.169407,-0.198615,0.475193,-0.189784,-0.153782,0.722467
26,40,-0.567232,-0.698132,-0.174533,-0.174533,-0.569608,-0.694743,-0.169407,-0.198615,0.475193,-0.189784,-0.153782,0.722467
26,40,-0.567232,-0.698132,-0.174533,-0.174533,-0.569608,-0.694743,-0.169407,-0.198615,0.475193,-0.189784,-0.153782,0.722467
26,40,-0.567232,-0.698132,-0.174533,-0.174533,-0.569608,-0.694743,-0.169407,-0.198615,0.475193,-0.189784,-0.153782,0.722467
26,40,-0.567232,-0.698132,-0.174533,-0.174533,-0.569608,-0.694743,-0.169407,-0.198615,0.475193,-0.189784,-0.153782,0.722467
26,40,-0.567232,-0.698132,-0.174533,-0.174533,-0.569608,-0.694743,-0.169407,-0.198615,0.475193,-0.189784,-0.153782,0.722467
26,40,-0.567232,-0.698132,-0.174533,-0.174533,-0.569608,-0.694743,-0.169407,-0.198615,0.475193,-0.189784,-0.153782,0.722467
26,40,-0.567232,-0.698132,-0.174533,-0.174533,-0.569608,-0.694743,-0.169407,-0.198615,0.475193,-0.189784,-0.153782,0.722467
26,40,-0.567232,-0.698132,-0.174533,-0.174533,-0.569608,-0.694743,-0.169407,-0.198615,0.475193,-0.189784,-0.153782,0.722467
26,40,-0.567232,-0.698132,-0.174533,-0.174533,-0.569608,-0.694743,-0.169407,-0.198615,0.475193,-0.189784,-0.153782,0.722467
26,40,-0.567232,-0.698132,-0.174533,-0.174533,-0.569608,-0.694743,-0.169407,-0.198615,0.475193,-0.189784,-0.153782,0.722467
26,40,-0.567232,-0.698132,-0.174533,-0.174533,-0.569608,-0.694743,-0.169407,-0.198615,0.475193,-0.189784,-0.153782,0.722467
26,40,-0.567232,-0.698132,-0.174533,-0.174533,-0.569608,-0.694743,-0.169407,-0.198615,0.475193,-0.189784,-0.153782,0.722467
26,40,-0.567232,-0.698132,-0.174533,-0.174533,-0.569608,-0.694743,-0.169407,-0.198615,0.475193,-0.189784,-0.153782,0.722467
26,40,-0.567232,-0.698132,-0.174533,-0.174533,-0.569608,-0.694743,-0.169407,-0.198615,0.475193,-0.189784,-0.153782,0.722467
26,40,-0.567232,-0.698132,-0.174533,-0.174533,-0.569608,-0.694743,-0.169407,-0.198615,0.475193,-0.189784,-0.153782,0.722467
26,40,-0.567232,-0.698132,-0.174533,-0.174533,-0.569608,-0.694743,-0.169407,-0.198615,0.475193,-0.189784,-0.153782,0.722467
26,40,-0.567232,-0.698132,-0.174533,-0.174533,-0.569608,-0.694743,-0.169407,-0.198615,0.475193,-0.189784,-0.153782,0.722467
26,40,-0.567232,-0.698132,-0.174533,-0.174533,-0.569608,-0.694743,-0.169407,-0.198615,0.475193,-0.189784,-0.153782,0.722467
26,40,-0.567232,-0.698132,-0.174533,-0.174533,-0.569608,-0.694743,-0.169407,-0.198615,0.475193,-0.189784,-0.153782,0.722467
26,40,-0.567232,-0.698132,-0.174533,-0.174533,-0.569608,-0.694743,-0.169407,-0.198615,0.475193,-0.189784,-0.153782,0.722467
26,40,-0.567232,-0.698132,-0.174533,-0.174533,-0.569608,-0.694743,-0.169407,-0.198615,0.475193,-0.189784,-0.153782,0.722467
26,40,-0.567232,-0.698132,-0.174533,-0.174533,-0.569608,-0.694743,-0.169407,-0.198615,0.475193,-0.189784,-0.153782,0.722467
26,40,-0.567232,-0.698132,-0.174533,-0.174533,-0.569608,-0.694743,-0.169407,-0.198615,0.475193,-0.189784,-0.153782,0.722467
26,40,-0.567232,-0.698132,-0.174533,-0.174533,-0.569608,-0.694743,-0.169407,-0.198615,0.475193,-0.189784,-0.153782,0.722467
26,40,-0.567232,-0.698132,-0.174533,-0.174533,-0.569608,-0.694743,-0.169407,-0.198615,0.475193,-0.189784,-0.153782,0.722467
26,40,-0.567232,-0.698132,-0.174533,-0.174533,-0.569608,-0.694743,-0.169407,-0.198615,0.475193,-0.189784,-0.153782,0.722467
26,40,-0.567232,-0.698132,-0.174533,-0.174533,-0.569608,-0.694743,-0.169407,-0.198615,0.475193,-0.189784,-0.153782,0.722467
26,40,-0.567232,-0.698132,-0.174533,-0.174533,-0.569608,-0.694743,-0.169407,-0.198615,0.475193,-0.189784,-0.153782,0.722467
26,40,-0.567232,-0.698132,-0.174533,-0.174533,-0.569608,-0.694743,-0.169407,-0.198615,0.475193,-0.189784,-0.153782,0.722467
26,40,-0.567232,-0.698132,-0.174533,-0.174533,-0.569608,-0.694743,-0.169407,-0.198615,0.475193,-0.189784,-0.153782,0.722467
26,40,-0.567232,-0.698132,-0.174533,-0.174533,-0.569608,-0.694743,-0.169407,-0.198615,0.475193,-0.189784,-0.153782,0.722467
26,40,-0.567232,-0.698132,-0.174533,-0.174533,-0.569608,-0.694743,-0.169407,-0.198615,0.475193,-0.189784,-0.153782,0.722467
26,40,-0.567232,-0.698132,-0.174533,-0.174533,-0.569608,-0.694743,-0.169407,-0.198615,0.475193,-0.189784,-0.153782,0.722467
26,40,-0.567232,-0.698132,-0.174533,-0.174533,-0.569608,-0.694743,-0.169407,-0.198615,0.475193,-0.189784,-0.153782,0.722467
26,40,-0.567232,-0.698132,-0.174533,-0.174533,-0.569608,-0.694743,-0.169407,-0.198615,0.475193,-0.189784,-0.153782,0.722467
26,40,-0.567232,-0.698132,-0.174533,-0.174533,-0.569608,-0.694743,-0.169407,-0.198615,0.475193,-0.189784,-0.153782,0.722467
26,40,-0.567232,-0.698132,-0.174533,-0.174533,-0.569608,-0.694743,-0.169407,-0.198615,0.475193,-0.189784,-0.153782,0.722467
26,40,-0.567232,-0.698132,-0.174533,-0.174533,-0.569608,-0.694743,-0.169407,-0.198615,0.475193,-0.189784,-0.153782,0.722467
26,40,-0.567232,-0.698132,-0.174533,-0.174533,-0.569608,-0.694743,-0.169407,-0.198615,0.475193,-0.189784,-0.153782,0.722467
26,40,-0.567232,-0.698132,-0.174533,-0.174533,-0.569608,-0.694743,-0.169407,-0.198615,0.475193,-0.189784,-0.153782,0.722467
26,40,-0.567232,-0.698132,-0.174533,-0.174533,-0.569608,-0.694743,-0.169407,-0.198615,0.475193,-0.189784,-0.153782,0.722467
26,40,-0.567232,-0.698132,-0.174533,-0.174533,-0.569608,-0.694743,-0.169407,-0.198615,0.475193,-0.189784,-0.153782,0.722467
26,40,-0.567232,-0.698132,-0.174533,-0.174533,-0.569608,-0.694743,-0.169407,-0.198615,0.475193,-0.189784,-0.153782,0.722467
26,40,-0.567232,-0.698132,-0.174533,-0.174533,-0.569608,-0.694743,-0.169407,-0.198615,0.475193,-0.189784,-0.153782,0.722467
26,40,-0.567232,-0.698132,-0.174533,-0.174533,-0.569608,-0.694743,-0.169407,-0.198615,0.475193,-0.189784,-0.153782,0.722467
26,40,-0.567232,-0.698132,-0.174533,-0.174533,-0.569608,-0.694743,-0.169407,-0.198615,0.475193,-0.189784,-0.153782,0.722467
26,40,-0.567232,-0.698132,-0.174533,-0.174533,-0.569608,-0.694743,-0.169407,-0.198615,0.475193,-0.189784,-0.153782,0.722467
26,40,-0.567232,-0.698132,-0.174533,-0.174533,-0.569608,-0.694743,-0.169407,-0.198615,0.475193,-0.189784,-0.153782,0.722467
26,40,-0.567232,-0.698132,-0.174533,-0.174533,-0.569608,-0.694743,-0.169407,-0.198615,0.475193,-0.189784,-0.153782,0.722467
26,40,-0.567232,-0.698132,-0.174533,-0.174533,-0.569608,-0.694743,-0.169407,-0.198615,0.475193,-0.189784,-0.153782,0.722467
26,40,-0.567232,-0.698132,-0.174533,-0.174533,-0.569608,-0.694743,-0.169407,-0.198615,0.475193,-0.189784,-0.153782,0.722467
26,40,-0.567232,-0.698132,-0.174533,-0.174533,-0.569608,-0.694743,-0.169407,-0.198615,0.475193,-0.189784,-0.153782,0.722467
26,40,-0.567232,-0.698132,-0.174533,-0.174533,-0.569608,-0.694743,-0.169407,-0.198615,0.475193,-0.189784,-0.153782,0.722467
26,40,-0.567232,-0.698132,-0.174533,-0.174533,-0.569608,-0.694743,-0.169407,-0.198615,0.475193,-0.189784,-0.153782,0.722467
26,40,-0.567232,-0.698132,-0.174533,-0.174533,-0.569608,-0.694743,-0.169407,-0.198615,0.475193,-0.189784,-0.153782,0.722467
26,40,-0.567232,-0.698132,-0.174533,-0.174533,-0.569608,-0.694743,-0.169407,-0.198615,0.475193,-0.189784,-0.153782,0.722467
26,40,-0.567232,-0.698132,-0.174533,-0.174533,-0.569608,-0.694743,-0.169407,-0.198615,0.475193,-0.189784,-0.153782,0.722467
26,40,-0.567232,-0.698132,-0.174533,-0.174533,-0.569608,-0.694743,-0.169407,-0.198615,0.475193,-0.189784,-0.153782,0.722467
26,40,-0.567232,-0.698132,-0.174533,-0.174533,-0.569608,-0.694743,-0.169407,-0.198615,0.475193,-0.189784,-0.153782,0.722467
26,40,-0.567232,-0.698132,-0.174533,-0.174533,-0.569608,-0.694743,-0.169407,-0.198615,0.475193,-0.189784,-0.153782,0.722467
26,40,-0.567232,-0.698132,-0.174533,-0.174533,-0.569608,-0.694743,-0.169407,-0.198615,0.475193,-0.189784,-0.153782,0.722467
26,40,-0.567232,-0.698132,-0.174533,-0.174533,-0.569608,-0.694743,-0.169407,-0.198615,0.475193,-0.189784,-0.153782,0.722467
26,40,-0.567232,-0.698132,-0.174533,-0.174533,-0.569608,-0.694743,-0.169407,-0.198615,0.475193,-0.189784,-0.153782,0.722467
26,40,-0.567232,-0.698132,-0.174533,-0.174533,-0.569608,-0.694743,-0.169407,-0.198615,0.475193,-0.189784,-0.153782,0.722467
26,40,-0.567232,-0.698132,-0.174533,-0.174533,-0.569608,-0.694743,-0.169407,-0.198615,0.475193,-0.189784,-0.153782,0.722467
26,40,-0.567232,-0.698132,-0.174533,-0.174533,-0.569608,-0.694743,-0.169407,-0.198615,0.475193,-0.189784,-0.153782,0.722467
26,40,-0.567232,-0.698132,-0.174533,-0.174533,-0.569608,-0.694743,-0.169407,-0.198615,0.475193,-0.189784,-0.153782,0.722467
26,40,-0.567232,-0.698132,-0.174533,-0.174533,-0.569608,-0.694743,-0.169407,-0.198615,0.475193,-0.189784,-0.153782,0.722467
26,40,-0.567232,-0.698132,-0.174533,-0.174533,-0.569608,-0.694743,-0.169407,-0.198615,0.475193,-0.189784,-0.153782,0.722467
26,40,-0.567232,-0.698132,-0.174533,-0.174533,-0.569608,-0.694743,-0.169407,-0.198615,0.475193,-0.189784,-0.153782,0.722467
26,40,-0.567232,-0.698132,-0.174533,-0.174533,-0.569608,-0.694743,-0.169407,-0.198615,0.475193,-0.189784,-0.153782,0.722467
26,40,-0.567232,-0.698132,-0.174533,-0.174533,-0.569608,-0.694743,-0.169407,-0.198615,0.475193,-0.189784,-0.153782,0.722467
26,40,-0.567232,-0.698132,-0.174533,-0.174533,-0.569608,-0.694743,-0.169407,-0.198615,0.475193,-0.189784,-0.153782,0.722467
26,40,-0.567232,-0.698132,-0.174533,-0.174533,-0.569608,-0.694743,-0.169407,-0.198615,0.475193,-0.189784,-0.153782,0.722467
26,40,-0.567232,-0.698132,-0.174533,-0.174533,-0.569608,-0.694743,-0.169407,-0.198615,0.475193,-0.189784,-0.153782,0.722467
26,40,-0.567232,-0.698132,-0.174533,-0.174533,-0.569608,-0.694743,-0.169407,-0.198615,0.475193,-0.189784,-0.153782,0.722467
26,40,-0.567232,-0.698132,-0.174533,-0.174533,-0.569608,-0.694743,-0.169407,-0.198615,0.475193,-0.189784,-0.153782,0.722467
26,40,-0.567232,-0.698132,-0.174533,-0.174533,-0.569608,-0.694743,-0.169407,-0.198615,0.475193,-0.189784,-0.153782,0.722467
26,40,-0.567232,-0.698132,-0.174533,-0.174533,-0.569608,-0.694743,-0.169407,-0.198615,0.475193,-0.189784,-0.153782,0.722467
26,40,-0.567232,-0.698132,-0.174533,-0.174533,-0.569608,-0.694743,-0.169407,-0.198615,0.475193,-0.189784,-0.153782,0.722467
26,40,-0.567232,-0.698132,-0.174533,-0.174533,-0.569608,-0.694743,-0.169407,-0.198615,0.475193,-0.189784,-0.153782,0.722467
26,40,-0.567232,-0.698132,-0.174533,-0.174533,-0.569608,-0.694743,-0.169407,-0.198615,0.475193,-0.189784,-0.153782,0.722467
26,40,-0.567232,-0.698132,-0.174533,-0.174533,-0.569608,-0.694743,-0.169407,-0.198615,0.475193,-0.189784,-0.153782,0.722467
26,40,-0.567232,-0.698132,-0.174533,-0.174533,-0.569608,-0.694743,-0.169407,-0.198615,0.475193,-0.189784,-0.153782,0.722467
26,40,-0.567232,-0.698132,-0.174533,-0.174533,-0.569608,-0.694743,-0.169407,-0.198615,0.475193,-0.189784,-0.153782,0.722467
26,40,-0.567232,-0.698132,-0.174533,-0.174533,-0.569608,-0.694743,-0.169407,-0.198615,0.475193,-0.189784,-0.153782,0.722467
26,40,-0.567232,-0.698132,-0.174533,-0.174533,-0.569608,-0.694743,-0.169407,-0.198615,0.475193,-0.189784,-0.153782,0.722467
26,40,-0.567232,-0.698132,-0.174533,-0.174533,-0.569608,-0.694743,-0.169407,-0.198615,0.475193,-0.189784,-0.153782,0.722467
26,40,-0.567232,-0.698132,-0.174533,-0.174533,-0.569608,-0.694743,-0.169407,-0.198615,0.475193,-0.189784,-0.153782,0.722467
26,40,-0.567232,-0.698132,-0.174533,-0.174533,-0.569608,-0.694743,-0.169407,-0.198615,0.475193,-0.189784,-0.153782,0.722467
26,40,-0.567232,-0.698132,-0.174533,-0.174533,-0.569608,-0.694743,-0.169407,-0.198615,0.475193,-0.189784,-0.153782,0.722467
26,40,-0.567232,-0.698132,-0.174533,-0.174533,-0.569608,-0.694743,-0.169407,-0.198615,0.475193,-0.189784,-0.153782,0.722467
26,40,-0.567232,-0.698132,-0.174533,-0.174533,-0.569608,-0.694743,-0.169407,-0.198615,0.475193,-0.189784,-0.153782,0.722467
26,40,-0.567232,-0.698132,-0.174533,-0.174533,-0.569608,-0.694743,-0.169407,-0.198615,0.475193,-0.189784,-0.153782,0.722467
26,40,-0.567232,-0.698132,-0.174533,-0.174533,-0.569608,-0.694743,-0.169407,-0.198615,0.475193,-0.189784,-0.153782,0.722467
26,40,-0.567232,-0.698132,-0.174533,-0.174533,-0.569608,-0.694743,-0.169407,-0.198615,0.475193,-0.189784,-0.153782,0.722467
26,40,-0.567232,-0.698132,-0.174533,-0.174533,-0.569608,-0.694743,-0.169407,-0.198615,0.475193,-0.189784,-0.153782,0.722467
26,40,-0.567232,-0.698132,-0.174533,-0.174533,-0.569608,-0.694743,-0.169407,-0.198615,0.475193,-0.189784,-0.153782,0.722467
26,40,-0.567232,-0.698132,-0.174533,-0.174533,-0.569608,-0.694743,-0.169407,-0.198615,0.475193,-0.189784,-0.153782,0.722467
26,40,-0.567232,-0.698132,-0.174533,-0.174533,-0.569608,-0.694743,-0.169407,-0.198615,0.475193,-0.189784,-0.153782,0.722467
26,40,-0.567232,-0.698132,-0.174533,-0.174533,-0.569608,-0.694743,-0.169407,-0.198615,0.475193,-0.189784,-0.153782,0.722467
26,40,-0.567232,-0.698132,-0.174533,-0.174533,-0.569608,-0.694743,-0.169407,-0.198615,0.475193,-0.189784,-0.153782,0.722467
26,40,-0.567232,-0.698132,-0.174533,-0.174533,-0.569608,-0.694743,-0.169407,-0.198615,0.475193,-0.189784,-0.153782,0.722467
26,40,-0.567232,-0.698132,-0.174533,-0.174533,-0.569608,-0.694743,-0.169407,-0.198615,0.475193,-0.189784,-0.153782,0.722467
26,40,-0.567232,-0.698132,-0.174533,-0.174533,-0.569608,-0.694743,-0.169407,-0.198615,0.475193,-0.189784,-0.153782,0.722467
26,40,-0.567232,-0.698132,-0.174533,-0.174533,-0.569608,-0.694743,-0.169407,-0.198615,0.475193,-0.189784,-0.153782,0.722467
26,40,-0.567232,-0.698132,-0.174533,-0.174533,-0.569608,-0.694743,-0.169407,-0.198615,0.475193,-0.189784,-0.153782,0.722467
26,40,-0.567232,-0.698132,-0.174533,-0.174533,-0.569608,-0.694743,-0.169407,-0.198615,0.475193,-0.189784,-0.153782,0.722467
26,40,-0.567232,-0.698132,-0.174533,-0.174533,-0.569608,-0.694743,-0.169407,-0.198615,0.475193,-0.189784,-0.153782,0.722467
26,40,-0.567232,-0.698132,-0.174533,-0.174533,-0.569608,-0.694743,-0.169407,-0.198615,0.475193,-0.189784,-0.153782,0.722467
26,40,-0.567232,-0.698132,-0.174533,-0.174533,-0.569608,-0.694743,-0.169407,-0.198615,0.475193,-0.189784,-0.153782,0.722467
26,40,-0.567232,-0.698132,-0.174533,-0.174533,-0.569608,-0.694743,-0.169407,-0.198615,0.475193,-0.189784,-0.153782,0.722467
26,40,-0.567232,-0.698132,-0.174533,-0.174533,-0.569608,-0.694743,-0.169407,-0.198615,0.475193,-0.189784,-0.153782,0.722467
26,40,-0.567232,-0.698132,-0.174533,-0.174533,-0.569608,-0.694743,-0.169407,-0.198615,0.475193,-0.189784,-0.153782,0.722467
26,40,-0.567232,-0.698132,-0.174533,-0.174533,-0.569608,-0.694743,-0.169407,-0.198615,0.475193,-0.189784,-0.153782,0.722467
26,40,-0.567232,-0.698132,-0.174533,-0.174533,-0.569608,-0.694743,-0.169407,-0.198615,0.475193,-0.189784,-0.153782,0.722467
26,40,-0.567232,-0.698132,-0.174533,-0.174533,-0.569608,-0.694743,-0.169407,-0.198615,0.475193,-0.189784,-0.153782,0.722467
26,40,-0.567232,-0.698132,-0.174533,-0.174533,-0.569608,-0.694743,-0.169407,-0.198615,0.475193,-0.189784,-0.153782,0.722467
26,40,-0.567232,-0.698132,-0.174533,-0.174533,-0.569608,-0.694743,-0.169407,-0.198615,0.475193,-0.189784,-0.153782,0.722467
26,40,-0.567232,-0.698132,-0.174533,-0.174533,-0.569608,-0.694743,-0.169407,-0.198615,0.475193,-0.189784,-0.153782,0.722467
26,40,-0.567232,-0.698132,-0.174533,-0.174533,-0.569608,-0.694743,-0.169407,-0.198615,0.475193,-0.189784,-0.153782,0.722467
26,40,-0.567232,-0.698132,-0.174533,-0.174533,-0.569608,-0.694743,-0.169407,-0.198615,0.475193,-0.189784,-0.153782,0.722467
26,40,-0.567232,-0.698132,-0.174533,-0.174533,-0.569608,-0.694743,-0.169407,-0.198615,0.475193,-0.189784,-0.153782,0.722467
26,40,-0.567232,-0.698132,-0.174533,-0.174533,-0.569608,-0.694743,-0.169407,-0.198615,0.475193,-0.189784,-0.153782,0.722467
26,40,-0.567232,-0.698132,-0.174533,-0.174533,-0.569608,-0.694743,-0.169407,-0.198615,0.475193,-0.189784,-0.153782,0.722467
26,40,-0.567232,-0.698132,-0.174533,-0.174533,-0.569608,-0.694743,-0.169407,-0.198615,0.475193,-0.189784,-0.153782,0.722467
26,40,-0.567232,-0.698132,-0.174533,-0.174533,-0.569608,-0.694743,-0.169407,-0.198615,0.475193,-0.189784,-0.153782,0.722467
26,40,-0.567232,-0.698132,-0.174533,-0.174533,-0.569608,-0.694743,-0.169407,-0.198615,0.475193,-0.189784,-0.153782,0.722467
26,40,-0.567232,-0.698132,-0.174533,-0.174533,-0.569608,-0.694743,-0.169407,-0.198615,0.475193,-0.189784,-0.153782,0.722467
26,40,-0.567232,-0.698132,-0.174533,-0.174533,-0.569608,-0.694743,-0.169407,-0.198615,0.475193,-0.189784,-0.153782,0.722467
26,40,-0.567232,-0.698132,-0.174533,-0.174533,-0.569608,-0.694743,-0.169407,-0.198615,0.475193,-0.189784,-0.153782,0.722467
26,40,-0.567232,-0.698132,-0.174533,-0.174533,-0.569608,-0.694743,-0.169407,-0.198615,0.475193,-0.189784,-0.153782,0.722467
26,40,-0.567232,-0.698132,-0.174533,-0.174533,-0.569608,-0.694743,-0.169407,-0.198615,0.475193,-0.189784,-0.153782,0.722467
26,40,-0.567232,-0.698132,-0.174533,-0.174533,-0.569608,-0.694743,-0.169407,-0.198615,0.475193,-0.189784,-0.153782,0.722467
26,40,-0.567232,-0.698132,-0.174533,-0.174533,-0.569608,-0.694743,-0.169407,-0.198615,0.475193,-0.189784,-0.153782,0.722467
26,40,-0.567232,-0.698132,-0.174533,-0.174533,-0.569608,-0.694743,-0.169407,-0.198615,0.475193,-0.189784,-0.153782,0.722467
26,40,-0.567232,-0.698132,-0.174533,-0.174533,-0.569608,-0.694743,-0.169468,-0.198596,0.475193,-0.189784,-0.151945,0.721902
26,40,-0.567232,-0.698132,-0.174533,-0.174533,-0.569608,-0.694743,-0.169468,-0.198596,0.475193,-0.189784,-0.151945,0.721902
26,40,-0.567232,-0.698132,-0.174533,-0.174533,-0.569608,-0.694743,-0.169468,-0.198596,0.475193,-0.189784,-0.151945,0.721902
26,40,-0.567232,-0.698132,-0.174533,-0.174533,-0.569608,-0.694743,-0.169468,-0.198596,0.475193,-0.189784,-0.151945,0.721902
26,40,-0.567232,-0.698132,-0.174533,-0.174533,-0.569608,-0.694743,-0.169468,-0.198596,0.475193,-0.189784,-0.151945,0.721902
26,40,-0.567232,-0.698132,-0.174533,-0.174533,-0.569608,-0.694743,-0.169468,-0.198596,0.475193,-0.189784,-0.151945,0.721902
26,40,-0.567232,-0.698132,-0.174533,-0.174533,-0.569608,-0.694743,-0.169468,-0.198596,0.475193,-0.189784,-0.151945,0.721902
26,40,-0.567232,-0.698132,-0.174533,-0.174533,-0.569608,-0.694743,-0.169468,-0.198596,0.475193,-0.189784,-0.151945,0.721902
26,40,-0.567232,-0.698132,-0.174533,-0.174533,-0.569608,-0.694743,-0.169468,-0.198596,0.475193,-0.189784,-0.151945,0.721902
26,40,-0.567232,-0.698132,-0.174533,-0.174533,-0.569608,-0.694743,-0.169468,-0.198596,0.475193,-0.189784,-0.151945,0.721902
26,40,-0.567232,-0.698132,-0.174533,-0.174533,-0.569608,-0.694743,-0.169468,-0.198596,0.475193,-0.189784,-0.151945,0.721902
26,40,-0.567232,-0.698132,-0.174533,-0.174533,-0.569608,-0.694743,-0.169468,-0.198596,0.475193,-0.189784,-0.151945,0.721902
26,40,-0.567232,-0.698132,-0.174533,-0.174533,-0.569608,-0.694743,-0.169468,-0.198596,0.475193,-0.189784,-0.151945,0.721902
26,40,-0.567232,-0.698132,-0.174533,-0.174533,-0.569608,-0.694743,-0.169468,-0.198596,0.475193,-0.189784,-0.151945,0.721902
26,40,-0.567232,-0.698132,-0.174533,-0.174533,-0.569608,-0.694743,-0.169468,-0.198596,0.475193,-0.189784,-0.151945,0.721902
26,40,-0.567232,-0.698132,-0.174533,-0.174533,-0.569608,-0.694743,-0.169468,-0.198596,0.475193,-0.189784,-0.151945,0.721902
26,40,-0.567232,-0.698132,-0.174533,-0.174533,-0.569608,-0.694743,-0.169468,-0.198596,0.475193,-0.189784,-0.151945,0.721902
26,40,-0.567232,-0.698132,-0.174533,-0.174533,-0.569608,-0.694743,-0.169468,-0.198596,0.475193,-0.189784,-0.151945,0.721902
26,40,-0.567232,-0.698132,-0.174533,-0.174533,-0.569608,-0.694743,-0.169468,-0.198596,0.475193,-0.189784,-0.151945,0.721902
26,40,-0.567232,-0.698132,-0.174533,-0.174533,-0.569608,-0.694743,-0.169468,-0.198596,0.475193,-0.189784,-0.151945,0.721902
26,40,-0.567232,-0.698132,-0.174533,-0.174533,-0.569608,-0.694743,-0.169468,-0.198596,0.475193,-0.189784,-0.151945,0.721902
26,40,-0.567232,-0.698132,-0.174533,-0.174533,-0.569608,-0.694743,-0.169468,-0.198596,0.475193,-0.189784,-0.151945,0.721902
26,40,-0.567232,-0.698132,-0.174533,-0.174533,-0.569608,-0.694743,-0.169468,-0.198596,0.475193,-0.189784,-0.151945,0.721902
26,40,-0.567232,-0.698132,-0.174533,-0.174533,-0.569608,-0.694743,-0.169468,-0.198596,0.475193,-0.189784,-0.151945,0.721902
26,40,-0.567232,-0.698132,-0.174533,-0.174533,-0.569608,-0.694743,-0.169468,-0.198596,0.475193,-0.189784,-0.151945,0.721902
26,40,-0.567232,-0.698132,-0.174533,-0.174533,-0.569608,-0.694743,-0.169468,-0.198596,0.475193,-0.189784,-0.151945,0.721902
26,40,-0.567232,-0.698132,-0.174533,-0.174533,-0.569608,-0.694743,-0.169468,-0.198596,0.475193,-0.189784,-0.151945,0.721902
26,40,-0.567232,-0.698132,-0.174533,-0.174533,-0.569608,-0.694743,-0.169468,-0.198596,0.475193,-0.189784,-0.151945,0.721902
26,40,-0.567232,-0.698132,-0.174533,-0.174533,-0.569608,-0.694743,-0.169468,-0.198596,0.475193,-0.189784,-0.151945,0.721902
26,40,-0.567232,-0.698132,-0.174533,-0.174533,-0.569608,-0.694743,-0.169468,-0.198596,0.475193,-0.189784,-0.151945,0.721902
26,40,-0.567232,-0.698132,-0.174533,-0.174533,-0.569608,-0.694743,-0.169468,-0.198596,0.475193,-0.189784,-0.151945,0.721902
26,40,-0.567232,-0.698132,-0.174533,-0.174533,-0.569608,-0.694743,-0.169468,-0.198596,0.475193,-0.189784,-0.151945,0.721902
26,40,-0.567232,-0.698132,-0.174533,-0.174533,-0.569608,-0.694743,-0.169468,-0.198596,0.475193,-0.189784,-0.151945,0.721902
26,40,-0.567232,-0.698132,-0.174533,-0.174533,-0.569608,-0.694743,-0.169468,-0.198596,0.475193,-0.189784,-0.151945,0.721902
26,40,-0.567232,-0.698132,-0.174533,-0.174533,-0.569608,-0.694743,-0.169468,-0.198596,0.475193,-0.189784,-0.151945,0.721902
26,40,-0.567232,-0.698132,-0.174533,-0.174533,-0.569608,-0.694743,-0.169468,-0.198596,0.475193,-0.189784,-0.151945,0.721902
26,40,-0.567232,-0.698132,-0.174533,-0.174533,-0.569608,-0.694743,-0.169468,-0.198596,0.475193,-0.189784,-0.151945,0.721902
26,40,-0.567232,-0.698132,-0.174533,-0.174533,-0.569608,-0.694743,-0.169468,-0.198596,0.475193,-0.189784,-0.151945,0.721902
26,40,-0.567232,-0.698132,-0.174533,-0.174533,-0.569608,-0.694743,-0.169468,-0.198596,0.475193,-0.189784,-0.151945,0.721902
26,40,-0.567232,-0.698132,-0.174533,-0.174533,-0.569608,-0.694743,-0.169468,-0.198596,0.475193,-0.189784,-0.151945,0.721902
26,40,-0.567232,-0.698132,-0.174533,-0.174533,-0.569608,-0.694743,-0.169529,-0.198578,0.475193,-0.189784,-0.150109,0.721336
26,40,-0.567232,-0.698132,-0.174533,-0.174533,-0.569608,-0.694743,-0.169529,-0.198578,0.475193,-0.189784,-0.150109,0.721336
26,40,-0.567232,-0.698132,-0.174533,-0.174533,-0.569608,-0.694743,-0.169529,-0.198578,0.475193,-0.189784,-0.150109,0.721336
26,40,-0.567232,-0.698132,-0.174533,-0.174533,-0.569608,-0.694743,-0.169529,-0.198578,0.475193,-0.189784,-0.150109,0.721336
26,40,-0.567232,-0.698132,-0.174533,-0.174533,-0.569608,-0.694743,-0.169529,-0.198578,0.475193,-0.189784,-0.150109,0.721336
26,40,-0.567232,-0.698132,-0.174533,-0.174533,-0.569608,-0.694743,-0.169529,-0.198578,0.475193,-0.189784,-0.150109,0.721336
26,40,-0.567232,-0.698132,-0.174533,-0.174533,-0.569608,-0.694743,-0.169529,-0.198578,0.475193,-0.189784,-0.150109,0.721336
26,40,-0.567232,-0.698132,-0.174533,-0.174533,-0.569608,-0.694743,-0.169529,-0.198578,0.475193,-0.189784,-0.150109,0.721336
26,40,-0.567232,-0.698132,-0.174533,-0.174533,-0.569608,-0.694743,-0.169529,-0.198578,0.475193,-0.189784,-0.150109,0.721336
26,40,-0.567232,-0.698132,-0.174533,-0.174533,-0.569608,-0.694743,-0.169529,-0.198578,0.475193,-0.189784,-0.150109,0.721336
26,40,-0.567232,-0.698132,-0.174533,-0.174533,-0.569608,-0.694743,-0.169529,-0.198578,0.475193,-0.189784,-0.150109,0.721336
26,40,-0.567232,-0.698132,-0.174533,-0.174533,-0.569608,-0.694743,-0.169529,-0.198578,0.475193,-0.189784,-0.150109,0.721336
26,40,-0.567232,-0.698132,-0.174533,-0.174533,-0.569608,-0.694743,-0.169529,-0.198578,0.475193,-0.189784,-0.150109,0.721336
26,40,-0.567232,-0.698132,-0.174533,-0.174533,-0.569608,-0.694743,-0.169529,-0.198578,0.475193,-0.189784,-0.150109,0.721336
26,40,-0.567232,-0.698132,-0.174533,-0.174533,-0.569608,-0.694743,-0.169529,-0.198578,0.475193,-0.189784,-0.150109,0.721336
26,40,-0.567232,-0.698132,-0.174533,-0.174533,-0.569608,-0.694743,-0.169529,-0.198578,0.475193,-0.189784,-0.150109,0.721336
26,40,-0.567232,-0.698132,-0.174533,-0.174533,-0.569608,-0.694743,-0.169529,-0.198578,0.475193,-0.189784,-0.150109,0.721336
26,40,-0.567232,-0.698132,-0.174533,-0.174533,-0.569608,-0.694743,-0.169529,-0.198578,0.475193,-0.189784,-0.150109,0.721336
26,40,-0.567232,-0.698132,-0.174533,-0.174533,-0.569608,-0.694743,-0.16959,-0.198559,0.475193,-0.189784,-0.148254,0.720766
26,40,-0.567232,-0.698132,-0.174533,-0.174533,-0.569608,-0.694743,-0.16959,-0.198559,0.475193,-0.189784,-0.148254,0.720766
26,40,-0.567232,-0.698132,-0.174533,-0.174533,-0.569608,-0.694743,-0.16959,-0.198559,0.475193,-0.189784,-0.148254,0.720766
26,40,-0.567232,-0.698132,-0.174533,-0.174533,-0.569608,-0.694743,-0.16959,-0.198559,0.475193,-0.189784,-0.148254,0.720766
26,40,-0.567232,-0.698132,-0.174533,-0.174533,-0.569608,-0.694743,-0.16959,-0.198559,0.475193,-0.189784,-0.148254,0.720766
26,40,-0.567232,-0.698132,-0.174533,-0.174533,-0.569608,-0.694743,-0.16959,-0.198559,0.475193,-0.189784,-0.148254,0.720766
26,40,-0.567232,-0.698132,-0.174533,-0.174533,-0.569608,-0.694743,-0.16959,-0.198559,0.475193,-0.189784,-0.148254,0.720766
26,40,-0.567232,-0.698132,-0.174533,-0.174533,-0.569608,-0.694743,-0.16959,-0.198559,0.475193,-0.189784,-0.148254,0.720766
26,40,-0.567232,-0.698132,-0.174533,-0.174533,-0.569608,-0.694743,-0.169652,-0.19854,0.475193,-0.189784,-0.14627,0.720155
26,40,-0.567232,-0.698132,-0.174533,-0.174533,-0.569608,-0.694743,-0.169652,-0.19854,0.475193,-0.189784,-0.14627,0.720155
26,40,-0.567232,-0.698132,-0.174533,-0.174533,-0.569608,-0.694743,-0.169652,-0.19854,0.475193,-0.189784,-0.14627,0.720155
26,40,-0.567232,-0.698132,-0.174533,-0.174533,-0.569608,-0.694743,-0.169652,-0.19854,0.475193,-0.189784,-0.14627,0.720155
26,40,-0.567232,-0.698132,-0.174533,-0.174533,-0.569608,-0.694743,-0.169652,-0.19854,0.475193,-0.189784,-0.14627,0.720155
26,40,-0.567232,-0.698132,-0.174533,-0.174533,-0.569608,-0.694743,-0.169652,-0.19854,0.475193,-0.189784,-0.14627,0.720155
26,40,-0.567232,-0.698132,-0.174533,-0.174533,-0.569608,-0.694743,-0.169652,-0.19854,0.475193,-0.189784,-0.14627,0.720155
26,40,-0.567232,-0.698132,-0.174533,-0.174533,-0.569608,-0.694743,-0.169652,-0.19854,0.475193,-0.189784,-0.14627,0.720155
26,40,-0.567232,-0.698132,-0.174533,-0.174533,-0.569608,-0.694743,-0.169652,-0.19854,0.475193,-0.189784,-0.14627,0.720155
26,40,-0.567232,-0.698132,-0.174533,-0.174533,-0.569608,-0.694743,-0.169652,-0.19854,0.475193,-0.189784,-0.14627,0.720155
26,40,-0.567232,-0.698132,-0.174533,-0.174533,-0.569608,-0.694743,-0.169713,-0.198521,0.475193,-0.189784,-0.144567,0.71963
26,40,-0.567232,-0.698132,-0.174533,-0.174533,-0.569608,-0.694743,-0.169713,-0.198521,0.475193,-0.189784,-0.144567,0.71963
26,40,-0.567232,-0.698132,-0.174533,-0.174533,-0.569608,-0.694743,-0.169713,-0.198521,0.475193,-0.189784,-0.144567,0.71963
26,40,-0.567232,-0.698132,-0.174533,-0.174533,-0.569608,-0.694743,-0.169713,-0.198521,0.475193,-0.189784,-0.144567,0.71963
26,40,-0.567232,-0.698132,-0.174533,-0.174533,-0.569608,-0.694743,-0.169713,-0.198521,0.475193,-0.189784,-0.144567,0.71963
26,40,-0.567232,-0.698132,-0.174533,-0.174533,-0.569608,-0.694743,-0.169713,-0.198521,0.475193,-0.189784,-0.144567,0.71963
26,40,-0.567232,-0.698132,-0.174533,-0.174533,-0.569608,-0.694743,-0.169713,-0.198521,0.475193,-0.189784,-0.144567,0.71963
26,40,-0.567232,-0.698132,-0.174533,-0.174533,-0.569608,-0.694743,-0.169713,-0.198521,0.475193,-0.189784,-0.144567,0.71963
26,40,-0.567232,-0.698132,-0.174533,-0.174533,-0.569608,-0.694743,-0.169713,-0.198521,0.475193,-0.189784,-0.144567,0.71963
26,40,-0.567232,-0.698132,-0.174533,-0.174533,-0.569608,-0.694743,-0.169774,-0.198502,0.475193,-0.189784,-0.142717,0.719061
26,40,-0.567232,-0.698132,-0.174533,-0.174533,-0.569608,-0.694743,-0.169774,-0.198502,0.475193,-0.189784,-0.142717,0.719061
26,40,-0.567232,-0.698132,-0.174533,-0.174533,-0.569608,-0.694743,-0.169774,-0.198502,0.475193,-0.189784,-0.142717,0.719061
26,40,-0.567232,-0.698132,-0.174533,-0.174533,-0.569608,-0.694743,-0.169774,-0.198502,0.475193,-0.189784,-0.142717,0.719061
26,40,-0.567232,-0.698132,-0.174533,-0.174533,-0.569608,-0.694743,-0.169774,-0.198502,0.475193,-0.189784,-0.142717,0.719061
26,40,-0.567232,-0.698132,-0.174533,-0.174533,-0.569608,-0.694743,-0.169774,-0.198502,0.475193,-0.189784,-0.142717,0.719061
26,40,-0.567232,-0.698132,-0.174533,-0.174533,-0.569608,-0.694743,-0.169774,-0.198502,0.475193,-0.189784,-0.142717,0.719061
26,40,-0.567232,-0.698132,-0.174533,-0.174533,-0.569608,-0.694743,-0.169774,-0.198502,0.475193,-0.189784,-0.142717,0.719061
26,40,-0.567232,-0.698132,-0.174533,-0.174533,-0.569608,-0.694743,-0.169774,-0.198502,0.475193,-0.189784,-0.142717,0.719061
26,40,-0.567232,-0.698132,-0.174533,-0.174533,-0.569608,-0.694743,-0.169774,-0.198502,0.475193,-0.189784,-0.142717,0.719061
26,40,-0.567232,-0.698132,-0.174533,-0.174533,-0.569608,-0.694743,-0.169774,-0.198502,0.475193,-0.189784,-0.142717,0.719061
26,40,-0.567232,-0.698132,-0.174533,-0.174533,-0.569608,-0.694743,-0.169774,-0.198502,0.475193,-0.189784,-0.142717,0.719061
26,40,-0.567232,-0.698132,-0.174533,-0.174533,-0.569608,-0.694743,-0.169774,-0.198502,0.475193,-0.189784,-0.142717,0.719061
26,40,-0.567232,-0.698132,-0.174533,-0.174533,-0.569608,-0.694743,-0.169774,-0.198502,0.475193,-0.189784,-0.142717,0.719061
26,40,-0.567232,-0.698132,-0.174533,-0.174533,-0.569608,-0.694743,-0.169774,-0.198502,0.475193,-0.189784,-0.142717,0.719061
26,40,-0.567232,-0.698132,-0.174533,-0.174533,-0.569608,-0.694743,-0.169774,-0.198502,0.475193,-0.189784,-0.142717,0.719061
26,40,-0.567232,-0.698132,-0.174533,-0.174533,-0.569608,-0.694743,-0.169774,-0.198502,0.475193,-0.189784,-0.142717,0.719061
26,40,-0.567232,-0.698132,-0.174533,-0.174533,-0.569608,-0.694743,-0.169774,-0.198502,0.475193,-0.189784,-0.142717,0.719061
26,40,-0.567232,-0.698132,-0.174533,-0.174533,-0.569608,-0.694743,-0.169774,-0.198502,0.475193,-0.189784,-0.142717,0.719061
26,40,-0.567232,-0.698132,-0.174533,-0.174533,-0.569608,-0.694743,-0.169774,-0.198502,0.475193,-0.189784,-0.142717,0.719061
26,40,-0.567232,-0.698132,-0.174533,-0.174533,-0.569608,-0.694743,-0.169774,-0.198502,0.475193,-0.189784,-0.142717,0.719061
26,40,-0.567232,-0.698132,-0.174533,-0.174533,-0.569608,-0.694743,-0.169774,-0.198502,0.475193,-0.189784,-0.142717,0.719061
26,40,-0.567232,-0.698132,-0.174533,-0.174533,-0.569608,-0.694743,-0.169774,-0.198502,0.475193,-0.189784,-0.142717,0.719061
26,40,-0.567232,-0.698132,-0.174533,-0.174533,-0.569608,-0.694743,-0.169774,-0.198502,0.475193,-0.189784,-0.142717,0.719061
26,40,-0.567232,-0.698132,-0.174533,-0.174533,-0.569608,-0.694743,-0.169774,-0.198502,0.475193,-0.189784,-0.142717,0.719061
26,40,-0.567232,-0.698132,-0.174533,-0.174533,-0.569608,-0.694743,-0.169774,-0.198502,0.475193,-0.189784,-0.142717,0.719061
26,40,-0.567232,-0.698132,-0.174533,-0.174533,-0.569608,-0.694743,-0.169774,-0.198502,0.475193,-0.189784,-0.142717,0.719061
26,40,-0.567232,-0.698132,-0.174533,-0.174533,-0.569608,-0.694743,-0.169774,-0.198502,0.475193,-0.189784,-0.142717,0.719061
26,40,-0.567232,-0.698132,-0.174533,-0.174533,-0.569608,-0.694743,-0.169774,-0.198502,0.475193,-0.189784,-0.142717,0.719061
26,40,-0.567232,-0.698132,-0.174533,-0.174533,-0.569608,-0.694743,-0.169774,-0.198502,0.475193,-0.189784,-0.142717,0.719061
26,40,-0.567232,-0.698132,-0.174533,-0.174533,-0.569608,-0.694743,-0.169774,-0.198502,0.475193,-0.189784,-0.142717,0.719061
26,40,-0.567232,-0.698132,-0.174533,-0.174533,-0.569608,-0.694743,-0.169835,-0.198483,0.475193,-0.189784,-0.140828,0.71848
26,40,-0.567232,-0.698132,-0.174533,-0.174533,-0.569608,-0.694743,-0.169835,-0.198483,0.475193,-0.189784,-0.140828,0.71848
26,40,-0.567232,-0.698132,-0.174533,-0.174533,-0.569608,-0.694743,-0.169835,-0.198483,0.475193,-0.189784,-0.140828,0.71848
26,40,-0.567232,-0.698132,-0.174533,-0.174533,-0.569608,-0.694743,-0.169835,-0.198483,0.475193,-0.189784,-0.140828,0.71848
26,40,-0.567232,-0.698132,-0.174533,-0.174533,-0.569608,-0.694743,-0.169835,-0.198483,0.475193,-0.189784,-0.140828,0.71848
26,40,-0.567232,-0.698132,-0.174533,-0.174533,-0.569608,-0.694743,-0.169835,-0.198483,0.475193,-0.189784,-0.140828,0.71848
26,40,-0.567232,-0.698132,-0.174533,-0.174533,-0.569608,-0.694743,-0.169835,-0.198483,0.475193,-0.189784,-0.140828,0.71848
26,40,-0.567232,-0.698132,-0.174533,-0.174533,-0.569608,-0.694743,-0.169835,-0.198483,0.475193,-0.189784,-0.140828,0.71848
26,40,-0.567232,-0.698132,-0.174533,-0.174533,-0.569608,-0.694743,-0.169835,-0.198483,0.475193,-0.189784,-0.140828,0.71848
26,40,-0.567232,-0.698132,-0.174533,-0.174533,-0.569608,-0.694743,-0.169835,-0.198483,0.475193,-0.189784,-0.140828,0.71848
26,40,-0.567232,-0.698132,-0.174533,-0.174533,-0.569608,-0.694743,-0.169835,-0.198483,0.475193,-0.189784,-0.140828,0.71848
26,40,-0.567232,-0.698132,-0.174533,-0.174533,-0.569608,-0.694743,-0.169835,-0.198483,0.475193,-0.189784,-0.140828,0.71848
26,40,-0.567232,-0.698132,-0.174533,-0.174533,-0.569608,-0.694743,-0.169835,-0.198483,0.475193,-0.189784,-0.140828,0.71848
26,40,-0.567232,-0.698132,-0.174533,-0.174533,-0.569608,-0.694743,-0.169835,-0.198483,0.475193,-0.189784,-0.140828,0.71848
26,40,-0.567232,-0.698132,-0.174533,-0.174533,-0.569608,-0.694743,-0.169835,-0.198483,0.475193,-0.189784,-0.140828,0.71848
26,40,-0.567232,-0.698132,-0.174533,-0.174533,-0.569608,-0.694743,-0.169835,-0.198483,0.475193,-0.189784,-0.140828,0.71848
26,40,-0.567232,-0.698132,-0.174533,-0.174533,-0.569608,-0.694743,-0.169835,-0.198483,0.475193,-0.189784,-0.140828,0.71848
26,40,-0.567232,-0.698132,-0.174533,-0.174533,-0.569608,-0.694743,-0.169835,-0.198483,0.475193,-0.189784,-0.140828,0.71848
26,40,-0.567232,-0.698132,-0.174533,-0.174533,-0.569608,-0.694743,-0.169835,-0.198483,0.475193,-0.189784,-0.140828,0.71848
26,40,-0.567232,-0.698132,-0.174533,-0.174533,-0.569608,-0.694743,-0.169835,-0.198483,0.475193,-0.189784,-0.140828,0.71848
26,40,-0.567232,-0.698132,-0.174533,-0.174533,-0.569608,-0.694743,-0.169835,-0.198483,0.475193,-0.189784,-0.140828,0.71848
26,40,-0.567232,-0.698132,-0.174533,-0.174533,-0.569608,-0.694743,-0.169835,-0.198483,0.475193,-0.189784,-0.140828,0.71848
26,40,-0.567232,-0.698132,-0.174533,-0.174533,-0.569608,-0.694743,-0.169835,-0.198483,0.475193,-0.189784,-0.140828,0.71848
26,40,-0.567232,-0.698132,-0.174533,-0.174533,-0.569608,-0.694743,-0.169835,-0.198483,0.475193,-0.189784,-0.140828,0.71848
26,40,-0.567232,-0.698132,-0.174533,-0.174533,-0.569608,-0.694743,-0.169835,-0.198483,0.475193,-0.189784,-0.140828,0.71848
26,40,-0.567232,-0.698132,-0.174533,-0.174533,-0.569608,-0.694743,-0.169835,-0.198483,0.475193,-0.189784,-0.140828,0.71848
26,40,-0.567232,-0.698132,-0.174533,-0.174533,-0.569608,-0.694743,-0.169835,-0.198483,0.475193,-0.189784,-0.140828,0.71848
26,40,-0.567232,-0.698132,-0.174533,-0.174533,-0.569608,-0.694743,-0.169835,-0.198483,0.475193,-0.189784,-0.140828,0.71848
26,40,-0.567232,-0.698132,-0.174533,-0.174533,-0.569608,-0.694743,-0.169835,-0.198483,0.475193,-0.189784,-0.140828,0.71848
26,40,-0.567232,-0.698132,-0.174533,-0.174533,-0.569608,-0.694743,-0.169835,-0.198483,0.475193,-0.189784,-0.140828,0.71848
26,40,-0.567232,-0.698132,-0.174533,-0.174533,-0.569608,-0.694743,-0.169835,-0.198483,0.475193,-0.189784,-0.140828,0.71848
26,40,-0.567232,-0.698132,-0.174533,-0.174533,-0.569608,-0.694743,-0.169835,-0.198483,0.475193,-0.189784,-0.14083,0.71848
26,40,-0.567232,-0.698132,-0.174533,-0.174533,-0.569608,-0.694743,-0.169835,-0.198483,0.475193,-0.189784,-0.140833,0.718481
26,40,-0.567232,-0.698132,-0.174533,-0.174533,-0.569608,-0.694743,-0.169835,-0.198483,0.475193,-0.189784,-0.140837,0.718482
26,40,-0.567232,-0.698132,-0.174533,-0.174533,-0.569608,-0.694743,-0.169835,-0.198483,0.475193,-0.189784,-0.140839,0.718483
26,40,-0.567232,-0.698132,-0.174533,-0.174533,-0.569608,-0.694743,-0.169835,-0.198483,0.475193,-0.189784,-0.140842,0.718484
26,40,-0.567232,-0.698132,-0.174533,-0.174533,-0.569608,-0.694743,-0.169767,-0.19844,0.475193,-0.189784,-0.142884,0.717189
26,40,-0.567232,-0.698132,-0.174533,-0.174533,-0.569608,-0.694743,-0.169767,-0.19844,0.475193,-0.189784,-0.142886,0.71719
26,40,-0.567232,-0.698132,-0.174533,-0.174533,-0.569608,-0.694743,-0.169767,-0.19844,0.475193,-0.189784,-0.142889,0.717191
26,40,-0.567232,-0.698132,-0.174533,-0.174533,-0.569608,-0.694743,-0.169767,-0.19844,0.475193,-0.189784,-0.142891,0.717191
26,40,-0.567232,-0.698132,-0.174533,-0.174533,-0.569608,-0.694743,-0.169767,-0.19844,0.475193,-0.189784,-0.142893,0.717192
26,40,-0.567232,-0.698132,-0.174533,-0.174533,-0.569608,-0.694743,-0.169767,-0.19844,0.475193,-0.189784,-0.142895,0.717193
26,40,-0.567232,-0.698132,-0.174533,-0.174533,-0.569608,-0.694743,-0.169767,-0.19844,0.475193,-0.189784,-0.142897,0.717193
26,40,-0.567232,-0.698132,-0.174533,-0.174533,-0.569608,-0.694743,-0.169767,-0.19844,0.475193,-0.189784,-0.142899,0.717194
26,40,-0.567232,-0.698132,-0.174533,-0.174533,-0.569608,-0.694743,-0.169767,-0.19844,0.475193,-0.189784,-0.1429,0.717194
26,40,-0.567232,-0.698132,-0.174533,-0.174533,-0.569608,-0.694743,-0.169767,-0.19844,0.475193,-0.189784,-0.142902,0.717195
26,40,-0.567232,-0.698132,-0.174533,-0.174533,-0.569608,-0.694743,-0.169767,-0.19844,0.475193,-0.189784,-0.142904,0.717195
26,40,-0.567232,-0.698132,-0.174533,-0.174533,-0.569608,-0.694743,-0.169767,-0.19844,0.475193,-0.189784,-0.142905,0.717196
26,40,-0.567232,-0.698132,-0.174533,-0.174533,-0.569608,-0.694743,-0.169767,-0.19844,0.475193,-0.189784,-0.142907,0.717196
26,40,-0.567232,-0.698132,-0.174533,-0.174533,-0.569608,-0.694743,-0.169767,-0.19844,0.475193,-0.189784,-0.142908,0.717197
26,40,-0.567232,-0.698132,-0.174533,-0.174533,-0.569608,-0.694743,-0.169767,-0.19844,0.475193,-0.189784,-0.142909,0.717197
26,40,-0.567232,-0.698132,-0.174533,-0.174533,-0.569608,-0.694743,-0.169767,-0.19844,0.475193,-0.189784,-0.142911,0.717198
26,40,-0.567232,-0.698132,-0.174533,-0.174533,-0.569608,-0.694743,-0.169767,-0.19844,0.475193,-0.189784,-0.142912,0.717198
26,40,-0.567232,-0.698132,-0.174533,-0.174533,-0.569608,-0.694743,-0.169767,-0.19844,0.475193,-0.189784,-0.142913,0.717198
26,40,-0.567232,-0.698132,-0.174533,-0.174533,-0.569608,-0.694743,-0.169767,-0.19844,0.475193,-0.189784,-0.142914,0.717199
26,40,-0.567232,-0.698132,-0.174533,-0.174533,-0.569608,-0.694743,-0.169767,-0.19844,0.475193,-0.189784,-0.142915,0.717199
26,40,-0.567232,-0.698132,-0.174533,-0.174533,-0.569608,-0.694743,-0.169767,-0.19844,0.475193,-0.189784,-0.142916,0.717199
26,40,-0.567232,-0.698132,-0.174533,-0.174533,-0.569608,-0.694743,-0.169767,-0.19844,0.475193,-0.189784,-0.142918,0.7172
26,40,-0.567232,-0.698132,-0.174533,-0.174533,-0.569608,-0.694743,-0.169767,-0.19844,0.475193,-0.189784,-0.142919,0.7172
26,40,-0.567232,-0.698132,-0.174533,-0.174533,-0.569608,-0.694743,-0.169828,-0.198421,0.475193,-0.189784,-0.141057,0.716627
26,40,-0.567232,-0.698132,-0.174533,-0.174533,-0.569608,-0.694743,-0.169828,-0.198421,0.475193,-0.189784,-0.141057,0.716627
26,40,-0.567232,-0.698132,-0.174533,-0.174533,-0.569608,-0.694743,-0.169828,-0.198421,0.475193,-0.189784,-0.141057,0.716627
26,40,-0.567232,-0.698132,-0.174533,-0.174533,-0.569608,-0.694743,-0.169828,-0.198421,0.475193,-0.189784,-0.141057,0.716627
26,40,-0.567232,-0.698132,-0.174533,-0.174533,-0.569608,-0.694743,-0.169828,-0.198421,0.475193,-0.189784,-0.141057,0.716627
26,40,-0.567232,-0.698132,-0.174533,-0.174533,-0.569608,-0.694743,-0.169828,-0.198421,0.475193,-0.189784,-0.141057,0.716627
26,40,-0.567232,-0.698132,-0.174533,-0.174533,-0.569608,-0.694743,-0.169828,-0.198421,0.475193,-0.189784,-0.141057,0.716627
26,40,-0.567232,-0.698132,-0.174533,-0.174533,-0.569608,-0.694743,-0.169828,-0.198421,0.475193,-0.189784,-0.141057,0.716627
26,40,-0.567232,-0.698132,-0.174533,-0.174533,-0.569608,-0.694743,-0.169828,-0.198421,0.475193,-0.189784,-0.141057,0.716627
26,40,-0.567232,-0.698132,-0.174533,-0.174533,-0.569608,-0.694743,-0.169828,-0.198421,0.475193,-0.189784,-0.141057,0.716627
26,40,-0.567232,-0.698132,-0.174533,-0.174533,-0.569608,-0.694743,-0.169828,-0.198421,0.475193,-0.189784,-0.141057,0.716627
26,40,-0.567232,-0.698132,-0.174533,-0.174533,-0.569608,-0.694743,-0.169828,-0.198421,0.475193,-0.189784,-0.141057,0.716627
26,40,-0.567232,-0.698132,-0.174533,-0.174533,-0.569608,-0.694743,-0.169828,-0.198421,0.475193,-0.189784,-0.141057,0.716627
26,40,-0.567232,-0.698132,-0.174533,-0.174533,-0.569608,-0.694743,-0.169828,-0.198421,0.475193,-0.189784,-0.141057,0.716627
26,40,-0.567232,-0.698132,-0.174533,-0.174533,-0.569608,-0.694743,-0.169828,-0.198421,0.475193,-0.189784,-0.141057,0.716627
26,40,-0.567232,-0.698132,-0.174533,-0.174533,-0.569608,-0.694743,-0.169828,-0.198421,0.475193,-0.189784,-0.141057,0.716627
26,40,-0.567232,-0.698132,-0.174533,-0.174533,-0.569608,-0.694743,-0.169828,-0.198421,0.475193,-0.189784,-0.141057,0.716627
26,40,-0.567232,-0.698132,-0.174533,-0.174533,-0.569608,-0.694743,-0.169828,-0.198421,0.475193,-0.189784,-0.141057,0.716627
26,40,-0.567232,-0.698132,-0.174533,-0.174533,-0.569608,-0.694743,-0.169828,-0.198421,0.475193,-0.189784,-0.141057,0.716627
26,40,-0.567232,-0.698132,-0.174533,-0.174533,-0.569608,-0.694743,-0.169828,-0.198421,0.475193,-0.189784,-0.141057,0.716627
26,40,-0.567232,-0.698132,-0.174533,-0.174533,-0.569608,-0.694743,-0.169828,-0.198421,0.475193,-0.189784,-0.141057,0.716627
26,40,-0.567232,-0.698132,-0.174533,-0.174533,-0.569608,-0.694743,-0.169828,-0.198421,0.475193,-0.189784,-0.141057,0.716627
26,40,-0.567232,-0.698132,-0.174533,-0.174533,-0.569608,-0.694743,-0.169828,-0.198421,0.475193,-0.189784,-0.141057,0.716627
26,40,-0.567232,-0.698132,-0.174533,-0.174533,-0.569608,-0.694743,-0.169828,-0.198421,0.475193,-0.189784,-0.141057,0.716627
26,40,-0.567232,-0.698132,-0.174533,-0.174533,-0.569608,-0.694743,-0.169828,-0.198421,0.475193,-0.189784,-0.141057,0.716627
26,40,-0.567232,-0.698132,-0.174533,-0.174533,-0.569608,-0.694743,-0.169828,-0.198421,0.475193,-0.189784,-0.141057,0.716627
26,40,-0.567232,-0.698132,-0.174533,-0.174533,-0.569608,-0.694743,-0.169828,-0.198421,0.475193,-0.189784,-0.141057,0.716627
26,40,-0.567232,-0.698132,-0.174533,-0.174533,-0.569608,-0.694743,-0.169828,-0.198421,0.475193,-0.189784,-0.141057,0.716627
26,40,-0.567232,-0.698132,-0.174533,-0.174533,-0.569608,-0.694743,-0.169828,-0.198421,0.475193,-0.189784,-0.141057,0.716627
26,40,-0.567232,-0.698132,-0.174533,-0.174533,-0.569608,-0.694743,-0.169828,-0.198421,0.475193,-0.189784,-0.141057,0.716627
26,40,-0.567232,-0.698132,-0.174533,-0.174533,-0.569608,-0.694743,-0.169828,-0.198421,0.475193,-0.189784,-0.141057,0.716627
26,40,-0.567232,-0.698132,-0.174533,-0.174533,-0.569608,-0.694743,-0.169828,-0.198421,0.475193,-0.189784,-0.141057,0.716627
26,40,-0.567232,-0.698132,-0.174533,-0.174533,-0.569608,-0.694743,-0.169828,-0.198421,0.475193,-0.189784,-0.141057,0.716627
26,40,-0.567232,-0.698132,-0.174533,-0.174533,-0.569608,-0.694743,-0.169828,-0.198421,0.475193,-0.189784,-0.141057,0.716627
26,40,-0.567232,-0.698132,-0.174533,-0.174533,-0.569608,-0.694743,-0.169828,-0.198421,0.475193,-0.189784,-0.141057,0.716627
26,40,-0.567232,-0.698132,-0.174533,-0.174533,-0.569608,-0.694743,-0.169828,-0.198421,0.475193,-0.189784,-0.141057,0.716627
26,40,-0.567232,-0.698132,-0.174533,-0.174533,-0.569608,-0.694743,-0.169828,-0.198421,0.475193,-0.189784,-0.141057,0.716627
26,40,-0.567232,-0.698132,-0.174533,-0.174533,-0.569608,-0.694743,-0.169828,-0.198421,0.475193,-0.189784,-0.141057,0.716627
26,40,-0.567232,-0.698132,-0.174533,-0.174533,-0.569608,-0.694743,-0.169828,-0.198421,0.475193,-0.189784,-0.141057,0.716627
26,40,-0.567232,-0.698132,-0.174533,-0.174533,-0.569608,-0.694743,-0.169828,-0.198421,0.475193,-0.189784,-0.141057,0.716627
26,40,-0.567232,-0.698132,-0.174533,-0.174533,-0.569608,-0.694743,-0.169828,-0.198421,0.475193,-0.189784,-0.141058,0.716627
26,40,-0.567232,-0.698132,-0.174533,-0.174533,-0.569608,-0.694743,-0.169828,-0.198421,0.475193,-0.189784,-0.14106,0.716628
26,40,-0.567232,-0.698132,-0.174533,-0.174533,-0.569608,-0.694743,-0.169828,-0.198421,0.475193,-0.189784,-0.141062,0.716628
26,40,-0.567232,-0.698132,-0.174533,-0.174533,-0.569608,-0.694743,-0.169828,-0.198421,0.475193,-0.189784,-0.141064,0.716629
26,40,-0.567232,-0.698132,-0.174533,-0.174533,-0.569608,-0.694743,-0.169828,-0.198421,0.475193,-0.189784,-0.141065,0.716629
26,40,-0.567232,-0.698132,-0.174533,-0.174533,-0.569608,-0.694743,-0.169828,-0.198421,0.475193,-0.189784,-0.141067,0.71663
