stim_pw [us],stim_amp [mA],com_elbow_fe [rad],com_forearm_ps [rad],com_wrist_fe [rad],com_wrist_ru [rad],act_elbow_fe [rad],act_forearm_ps [rad],act_wrist_fe [rad],act_wrist_ru [rad],elbow_fe_trq [Nm],forearm_ps_trq [Nm],wrist_fe_trq [Nm],wrist_ru_trq [Nm]
26,45,-1.0472,-0.698132,-0.174533,-0.174533,-1.03441,-0.684625,-0.163318,-0.165273,-1.53398,-0.540255,-0.280305,-0.231509
26,45,-1.0472,-0.698132,-0.174533,-0.174533,-1.03441,-0.684625,-0.163318,-0.165273,-1.53398,-0.540255,-0.280305,-0.231509
26,45,-1.0472,-0.698132,-0.174533,-0.174533,-1.03441,-0.684625,-0.163318,-0.165273,-1.53398,-0.540255,-0.280305,-0.231509
26,45,-1.0472,-0.698132,-0.174533,-0.174533,-1.03441,-0.684625,-0.163318,-0.165273,-1.53398,-0.540255,-0.280305,-0.231509
26,45,-1.0472,-0.698132,-0.174533,-0.174533,-1.03441,-0.684625,-0.163318,-0.165273,-1.53398,-0.540255,-0.280305,-0.231509
26,45,-1.0472,-0.698132,-0.174533,-0.174533,-1.03441,-0.684625,-0.163318,-0.165273,-1.53398,-0.540255,-0.280305,-0.231509
26,45,-1.0472,-0.698132,-0.174533,-0.174533,-1.03441,-0.684625,-0.163318,-0.165273,-1.53398,-0.540255,-0.280305,-0.231509
26,45,-1.0472,-0.698132,-0.174533,-0.174533,-1.03441,-0.684625,-0.163318,-0.165273,-1.53398,-0.540255,-0.280305,-0.231509
26,45,-1.0472,-0.698132,-0.174533,-0.174533,-1.03441,-0.684625,-0.163318,-0.165273,-1.53398,-0.540255,-0.280305,-0.231509
26,45,-1.0472,-0.698132,-0.174533,-0.174533,-1.03441,-0.684625,-0.163318,-0.165273,-1.53398,-0.540255,-0.280305,-0.231509
26,45,-1.0472,-0.698132,-0.174533,-0.174533,-1.03441,-0.684625,-0.163318,-0.165273,-1.53398,-0.540255,-0.280305,-0.231509
26,45,-1.0472,-0.698132,-0.174533,-0.174533,-1.03441,-0.684625,-0.163318,-0.165273,-1.53398,-0.540255,-0.280305,-0.231509
26,45,-1.0472,-0.698132,-0.174533,-0.174533,-1.03441,-0.684625,-0.163318,-0.165273,-1.53398,-0.540255,-0.280305,-0.231509
26,45,-1.0472,-0.698132,-0.174533,-0.174533,-1.03441,-0.684625,-0.163318,-0.165273,-1.53398,-0.540255,-0.280305,-0.231509
26,45,-1.0472,-0.698132,-0.174533,-0.174533,-1.03441,-0.684625,-0.163318,-0.165273,-1.53398,-0.540255,-0.280305,-0.231509
26,45,-1.0472,-0.698132,-0.174533,-0.174533,-1.03441,-0.684625,-0.163318,-0.165273,-1.53398,-0.540255,-0.280305,-0.231509
26,45,-1.0472,-0.698132,-0.174533,-0.174533,-1.03441,-0.684625,-0.163318,-0.165273,-1.53398,-0.540255,-0.280305,-0.231509
26,45,-1.0472,-0.698132,-0.174533,-0.174533,-1.03441,-0.684625,-0.163318,-0.165273,-1.53398,-0.540255,-0.280305,-0.231509
26,45,-1.0472,-0.698132,-0.174533,-0.174533,-1.03441,-0.684625,-0.163377,-0.165254,-1.53398,-0.540255,-0.278833,-0.232001
26,45,-1.0472,-0.698132,-0.174533,-0.174533,-1.03441,-0.684625,-0.163377,-0.165254,-1.53398,-0.540255,-0.278833,-0.232001
26,45,-1.0472,-0.698132,-0.174533,-0.174533,-1.03441,-0.684625,-0.163377,-0.165254,-1.53398,-0.540255,-0.278833,-0.232001
26,45,-1.0472,-0.698132,-0.174533,-0.174533,-1.03441,-0.684625,-0.163377,-0.165254,-1.53398,-0.540255,-0.278833,-0.232001
26,45,-1.0472,-0.698132,-0.174533,-0.174533,-1.03441,-0.684625,-0.163377,-0.165254,-1.53398,-0.540255,-0.278833,-0.232001
26,45,-1.0472,-0.698132,-0.174533,-0.174533,-1.03441,-0.684625,-0.163377,-0.165254,-1.53398,-0.540255,-0.278833,-0.232001
26,45,-1.0472,-0.698132,-0.174533,-0.174533,-1.03441,-0.684625,-0.163377,-0.165254,-1.53398,-0.540255,-0.278833,-0.232001
26,45,-1.0472,-0.698132,-0.174533,-0.174533,-1.03441,-0.684625,-0.163377,-0.165254,-1.53398,-0.540255,-0.278833,-0.232001
26,45,-1.0472,-0.698132,-0.174533,-0.174533,-1.03441,-0.684625,-0.163377,-0.165254,-1.53398,-0.540255,-0.278833,-0.232001
26,45,-1.0472,-0.698132,-0.174533,-0.174533,-1.03441,-0.684625,-0.163377,-0.165254,-1.53398,-0.540255,-0.278833,-0.232001
26,45,-1.0472,-0.698132,-0.174533,-0.174533,-1.03441,-0.684625,-0.163377,-0.165254,-1.53398,-0.540255,-0.278833,-0.232001
26,45,-1.0472,-0.698132,-0.174533,-0.174533,-1.03441,-0.684625,-0.163436,-0.165234,-1.53398,-0.540255,-0.277354,-0.232496
26,45,-1.0472,-0.698132,-0.174533,-0.174533,-1.03441,-0.684625,-0.163436,-0.165234,-1.53398,-0.540255,-0.277354,-0.232496
26,45,-1.0472,-0.698132,-0.174533,-0.174533,-1.03441,-0.684625,-0.163436,-0.165234,-1.53398,-0.540255,-0.277354,-0.232496
26,45,-1.0472,-0.698132,-0.174533,-0.174533,-1.03441,-0.684625,-0.163436,-0.165234,-1.53398,-0.540255,-0.277354,-0.232496
26,45,-1.0472,-0.698132,-0.174533,-0.174533,-1.03441,-0.684625,-0.163436,-0.165234,-1.53398,-0.540255,-0.277354,-0.232496
26,45,-1.0472,-0.698132,-0.174533,-0.174533,-1.03441,-0.684625,-0.163436,-0.165234,-1.53398,-0.540255,-0.277354,-0.232496
26,45,-1.0472,-0.698132,-0.174533,-0.174533,-1.03441,-0.684625,-0.163436,-0.165234,-1.53398,-0.540255,-0.277354,-0.232496
26,45,-1.0472,-0.698132,-0.174533,-0.174533,-1.03441,-0.684625,-0.163436,-0.165234,-1.53398,-0.540255,-0.277354,-0.232496
26,45,-1.0472,-0.698132,-0.174533,-0.174533,-1.03441,-0.684625,-0.163436,-0.165234,-1.53398,-0.540255,-0.277354,-0.232496
26,45,-1.0472,-0.698132,-0.174533,-0.174533,-1.03441,-0.684625,-0.163436,-0.165234,-1.53398,-0.540255,-0.277354,-0.232496
26,45,-1.0472,-0.698132,-0.174533,-0.174533,-1.03441,-0.684625,-0.163436,-0.165234,-1.53398,-0.540255,-0.277354,-0.232496
26,45,-1.0472,-0.698132,-0.174533,-0.174533,-1.03441,-0.684625,-0.163495,-0.165214,-1.53398,-0.540255,-0.275862,-0.232994
26,45,-1.0472,-0.698132,-0.174533,-0.174533,-1.03441,-0.684625,-0.163495,-0.165214,-1.53398,-0.540255,-0.275862,-0.232994
26,45,-1.0472,-0.698132,-0.174533,-0.174533,-1.03441,-0.684625,-0.163495,-0.165214,-1.53398,-0.540255,-0.275862,-0.232994
26,45,-1.0472,-0.698132,-0.174533,-0.174533,-1.03441,-0.684625,-0.163495,-0.165214,-1.53398,-0.540255,-0.275862,-0.232994
26,45,-1.0472,-0.698132,-0.174533,-0.174533,-1.03441,-0.684625,-0.163495,-0.165214,-1.53398,-0.540255,-0.275862,-0.232994
26,45,-1.0472,-0.698132,-0.174533,-0.174533,-1.03441,-0.684625,-0.163495,-0.165214,-1.53398,-0.540255,-0.275862,-0.232994
26,45,-1.0472,-0.698132,-0.174533,-0.174533,-1.03441,-0.684625,-0.163495,-0.165214,-1.53398,-0.540255,-0.275862,-0.232994
26,45,-1.0472,-0.698132,-0.174533,-0.174533,-1.03441,-0.684625,-0.163495,-0.165214,-1.53398,-0.540255,-0.275862,-0.232994
26,45,-1.0472,-0.698132,-0.174533,-0.174533,-1.03441,-0.684625,-0.163495,-0.165214,-1.53398,-0.540255,-0.275862,-0.232994
26,45,-1.0472,-0.698132,-0.174533,-0.174533,-1.03441,-0.684625,-0.163495,-0.165214,-1.53398,-0.540255,-0.275862,-0.232994
26,45,-1.0472,-0.698132,-0.174533,-0.174533,-1.03441,-0.684625,-0.163495,-0.165214,-1.53398,-0.540255,-0.275862,-0.232994
26,45,-1.0472,-0.698132,-0.174533,-0.174533,-1.03441,-0.684625,-0.163554,-0.165194,-1.53398,-0.540255,-0.274374,-0.233491
26,45,-1.0472,-0.698132,-0.174533,-0.174533,-1.03441,-0.684625,-0.163554,-0.165194,-1.53398,-0.540255,-0.274374,-0.233491
26,45,-1.0472,-0.698132,-0.174533,-0.174533,-1.03441,-0.684625,-0.163554,-0.165194,-1.53398,-0.540255,-0.274374,-0.233491
26,45,-1.0472,-0.698132,-0.174533,-0.174533,-1.03441,-0.684625,-0.163554,-0.165194,-1.53398,-0.540255,-0.274374,-0.233491
26,45,-1.0472,-0.698132,-0.174533,-0.174533,-1.03441,-0.684625,-0.163554,-0.165194,-1.53398,-0.540255,-0.274374,-0.233491
26,45,-1.0472,-0.698132,-0.174533,-0.174533,-1.03441,-0.684625,-0.163554,-0.165194,-1.53398,-0.540255,-0.274374,-0.233491
26,45,-1.0472,-0.698132,-0.174533,-0.174533,-1.03441,-0.684625,-0.163554,-0.165194,-1.53398,-0.540255,-0.274374,-0.233491
26,45,-1.0472,-0.698132,-0.174533,-0.174533,-1.03441,-0.684625,-0.163554,-0.165194,-1.53398,-0.540255,-0.274374,-0.233491
26,45,-1.0472,-0.698132,-0.174533,-0.174533,-1.03441,-0.684625,-0.163554,-0.165194,-1.53398,-0.540255,-0.274374,-0.233491
26,45,-1.0472,-0.698132,-0.174533,-0.174533,-1.03441,-0.684625,-0.163554,-0.165194,-1.53398,-0.540255,-0.274374,-0.233491
26,45,-1.0472,-0.698132,-0.174533,-0.174533,-1.03441,-0.684625,-0.163554,-0.165194,-1.53398,-0.540255,-0.274374,-0.233491
26,45,-1.0472,-0.698132,-0.174533,-0.174533,-1.03441,-0.684625,-0.163554,-0.165194,-1.53398,-0.540255,-0.274374,-0.233491
26,45,-1.0472,-0.698132,-0.174533,-0.174533,-1.03441,-0.684625,-0.163554,-0.165194,-1.53398,-0.540255,-0.274374,-0.233491
26,45,-1.0472,-0.698132,-0.174533,-0.174533,-1.03441,-0.684625,-0.163554,-0.165194,-1.53398,-0.540255,-0.274374,-0.233491
26,45,-1.0472,-0.698132,-0.174533,-0.174533,-1.03441,-0.684625,-0.163554,-0.165194,-1.53398,-0.540255,-0.274374,-0.233491
26,45,-1.0472,-0.698132,-0.174533,-0.174533,-1.03441,-0.684625,-0.163554,-0.165194,-1.53398,-0.540255,-0.274374,-0.233491
26,45,-1.0472,-0.698132,-0.174533,-0.174533,-1.03441,-0.684625,-0.163554,-0.165194,-1.53398,-0.540255,-0.274374,-0.233491
26,45,-1.0472,-0.698132,-0.174533,-0.174533,-1.03441,-0.684625,-0.163554,-0.165194,-1.53398,-0.540255,-0.274374,-0.233491
26,45,-1.0472,-0.698132,-0.174533,-0.174533,-1.03441,-0.684625,-0.163554,-0.165194,-1.53398,-0.540255,-0.274374,-0.233491
26,45,-1.0472,-0.698132,-0.174533,-0.174533,-1.03441,-0.684625,-0.163554,-0.165194,-1.53398,-0.540255,-0.274374,-0.233491
26,45,-1.0472,-0.698132,-0.174533,-0.174533,-1.03441,-0.684625,-0.163554,-0.165194,-1.53398,-0.540255,-0.274374,-0.233491
26,45,-1.0472,-0.698132,-0.174533,-0.174533,-1.03441,-0.684625,-0.163554,-0.165194,-1.53398,-0.540255,-0.274374,-0.233491
26,45,-1.0472,-0.698132,-0.174533,-0.174533,-1.03441,-0.684625,-0.163554,-0.165194,-1.53398,-0.540255,-0.274374,-0.233491
26,45,-1.0472,-0.698132,-0.174533,-0.174533,-1.03441,-0.684625,-0.163554,-0.165194,-1.53398,-0.540255,-0.274374,-0.233491
26,45,-1.0472,-0.698132,-0.174533,-0.174533,-1.03441,-0.684625,-0.163554,-0.165194,-1.53398,-0.540255,-0.274374,-0.233491
26,45,-1.0472,-0.698132,-0.174533,-0.174533,-1.03441,-0.684625,-0.163554,-0.165194,-1.53398,-0.540255,-0.274374,-0.233491
26,45,-1.0472,-0.698132,-0.174533,-0.174533,-1.03441,-0.684625,-0.163554,-0.165194,-1.53398,-0.540255,-0.274374,-0.233491
26,45,-1.0472,-0.698132,-0.174533,-0.174533,-1.03441,-0.684625,-0.163554,-0.165194,-1.53398,-0.540255,-0.274374,-0.233491
26,45,-1.0472,-0.698132,-0.174533,-0.174533,-1.03441,-0.684625,-0.163554,-0.165194,-1.53398,-0.540255,-0.274374,-0.233491
26,45,-1.0472,-0.698132,-0.174533,-0.174533,-1.03441,-0.684625,-0.163554,-0.165194,-1.53398,-0.540255,-0.274374,-0.233491
26,45,-1.0472,-0.698132,-0.174533,-0.174533,-1.03441,-0.684625,-0.163554,-0.165194,-1.53398,-0.540255,-0.274374,-0.233491
26,45,-1.0472,-0.698132,-0.174533,-0.174533,-1.03441,-0.684625,-0.163554,-0.165194,-1.53398,-0.540255,-0.274374,-0.233491
26,45,-1.0472,-0.698132,-0.174533,-0.174533,-1.03441,-0.684625,-0.163614,-0.165175,-1.53398,-0.540255,-0.272912,-0.23398
26,45,-1.0472,-0.698132,-0.174533,-0.174533,-1.03441,-0.684625,-0.163614,-0.165175,-1.53398,-0.540255,-0.272912,-0.23398
26,45,-1.0472,-0.698132,-0.174533,-0.174533,-1.03441,-0.684625,-0.163614,-0.165175,-1.53398,-0.540255,-0.272912,-0.23398
26,45,-1.0472,-0.698132,-0.174533,-0.174533,-1.03441,-0.684625,-0.163614,-0.165175,-1.53398,-0.540255,-0.272912,-0.23398
26,45,-1.0472,-0.698132,-0.174533,-0.174533,-1.03441,-0.684625,-0.163614,-0.165175,-1.53398,-0.540255,-0.272912,-0.23398
26,45,-1.0472,-0.698132,-0.174533,-0.174533,-1.03441,-0.684625,-0.163614,-0.165175,-1.53398,-0.540255,-0.272912,-0.23398
26,45,-1.0472,-0.698132,-0.174533,-0.174533,-1.03441,-0.684625,-0.163614,-0.165175,-1.53398,-0.540255,-0.272912,-0.23398
26,45,-1.0472,-0.698132,-0.174533,-0.174533,-1.03441,-0.684625,-0.163614,-0.165175,-1.53398,-0.540255,-0.272912,-0.23398
26,45,-1.0472,-0.698132,-0.174533,-0.174533,-1.03441,-0.684625,-0.163614,-0.165175,-1.53398,-0.540255,-0.272912,-0.23398
26,45,-1.0472,-0.698132,-0.174533,-0.174533,-1.03441,-0.684625,-0.163614,-0.165175,-1.53398,-0.540255,-0.272912,-0.23398
26,45,-1.0472,-0.698132,-0.174533,-0.174533,-1.03441,-0.684625,-0.163614,-0.165175,-1.53398,-0.540255,-0.272912,-0.23398
26,45,-1.0472,-0.698132,-0.174533,-0.174533,-1.03441,-0.684625,-0.163614,-0.165175,-1.53398,-0.540255,-0.272912,-0.23398
26,45,-1.0472,-0.698132,-0.174533,-0.174533,-1.03441,-0.684625,-0.163614,-0.165175,-1.53398,-0.540255,-0.272912,-0.23398
26,45,-1.0472,-0.698132,-0.174533,-0.174533,-1.03441,-0.684625,-0.163614,-0.165175,-1.53398,-0.540255,-0.272912,-0.23398
26,45,-1.0472,-0.698132,-0.174533,-0.174533,-1.03441,-0.684625,-0.163614,-0.165175,-1.53398,-0.540255,-0.272912,-0.23398
26,45,-1.0472,-0.698132,-0.174533,-0.174533,-1.03441,-0.684625,-0.163614,-0.165175,-1.53398,-0.540255,-0.272912,-0.23398
26,45,-1.0472,-0.698132,-0.174533,-0.174533,-1.03441,-0.684625,-0.163614,-0.165175,-1.53398,-0.540255,-0.272912,-0.23398
26,45,-1.0472,-0.698132,-0.174533,-0.174533,-1.03441,-0.684625,-0.163614,-0.165175,-1.53398,-0.540255,-0.272912,-0.23398
26,45,-1.0472,-0.698132,-0.174533,-0.174533,-1.03441,-0.684625,-0.163614,-0.165175,-1.53398,-0.540255,-0.272912,-0.23398
26,45,-1.0472,-0.698132,-0.174533,-0.174533,-1.03441,-0.684625,-0.163614,-0.165175,-1.53398,-0.540255,-0.272912,-0.23398
26,45,-1.0472,-0.698132,-0.174533,-0.174533,-1.03441,-0.684625,-0.163614,-0.165175,-1.53398,-0.540255,-0.272912,-0.23398
26,45,-1.0472,-0.698132,-0.174533,-0.174533,-1.03441,-0.684625,-0.163614,-0.165175,-1.53398,-0.540255,-0.272912,-0.23398
26,45,-1.0472,-0.698132,-0.174533,-0.174533,-1.03441,-0.684625,-0.163614,-0.165175,-1.53398,-0.540255,-0.272912,-0.23398
26,45,-1.0472,-0.698132,-0.174533,-0.174533,-1.03441,-0.684625,-0.163614,-0.165175,-1.53398,-0.540255,-0.272912,-0.23398
26,45,-1.0472,-0.698132,-0.174533,-0.174533,-1.03441,-0.684625,-0.163614,-0.165175,-1.53398,-0.540255,-0.272912,-0.23398
26,45,-1.0472,-0.698132,-0.174533,-0.174533,-1.03441,-0.684625,-0.163614,-0.165175,-1.53398,-0.540255,-0.272912,-0.23398
26,45,-1.0472,-0.698132,-0.174533,-0.174533,-1.03441,-0.684625,-0.163614,-0.165175,-1.53398,-0.540255,-0.272912,-0.23398
26,45,-1.0472,-0.698132,-0.174533,-0.174533,-1.03441,-0.684625,-0.163614,-0.165175,-1.53398,-0.540255,-0.272912,-0.23398
26,45,-1.0472,-0.698132,-0.174533,-0.174533,-1.03441,-0.684625,-0.163614,-0.165175,-1.53398,-0.540255,-0.272912,-0.23398
26,45,-1.0472,-0.698132,-0.174533,-0.174533,-1.03441,-0.684625,-0.163614,-0.165175,-1.53398,-0.540255,-0.272912,-0.23398
26,45,-1.0472,-0.698132,-0.174533,-0.174533,-1.03441,-0.684625,-0.163614,-0.165175,-1.53398,-0.540255,-0.272912,-0.23398
26,45,-1.0472,-0.698132,-0.174533,-0.174533,-1.03441,-0.684625,-0.163614,-0.165175,-1.53398,-0.540255,-0.272912,-0.23398
26,45,-1.0472,-0.698132,-0.174533,-0.174533,-1.03441,-0.684625,-0.163614,-0.165175,-1.53398,-0.540255,-0.272912,-0.23398
26,45,-1.0472,-0.698132,-0.174533,-0.174533,-1.03441,-0.684625,-0.163614,-0.165175,-1.53398,-0.540255,-0.272912,-0.23398
26,45,-1.0472,-0.698132,-0.174533,-0.174533,-1.03441,-0.684625,-0.163614,-0.165175,-1.53398,-0.540255,-0.272912,-0.23398
26,45,-1.0472,-0.698132,-0.174533,-0.174533,-1.03441,-0.684625,-0.163614,-0.165175,-1.53398,-0.540255,-0.272912,-0.23398
26,45,-1.0472,-0.698132,-0.174533,-0.174533,-1.03441,-0.684625,-0.163614,-0.165175,-1.53398,-0.540255,-0.272912,-0.23398
26,45,-1.0472,-0.698132,-0.174533,-0.174533,-1.03441,-0.684625,-0.163614,-0.165175,-1.53398,-0.540255,-0.272912,-0.23398
26,45,-1.0472,-0.698132,-0.174533,-0.174533,-1.03441,-0.684625,-0.163614,-0.165175,-1.53398,-0.540255,-0.272912,-0.23398
26,45,-1.0472,-0.698132,-0.174533,-0.174533,-1.03441,-0.684625,-0.163673,-0.165155,-1.53398,-0.540255,-0.271507,-0.234449
26,45,-1.0472,-0.698132,-0.174533,-0.174533,-1.03441,-0.684625,-0.163673,-0.165155,-1.53398,-0.540255,-0.271507,-0.234449
26,45,-1.0472,-0.698132,-0.174533,-0.174533,-1.03441,-0.684625,-0.163673,-0.165155,-1.53398,-0.540255,-0.271507,-0.234449
26,45,-1.0472,-0.698132,-0.174533,-0.174533,-1.03441,-0.684625,-0.163673,-0.165155,-1.53398,-0.540255,-0.271507,-0.234449
26,45,-1.0472,-0.698132,-0.174533,-0.174533,-1.03441,-0.684625,-0.163673,-0.165155,-1.53398,-0.540255,-0.271507,-0.234449
26,45,-1.0472,-0.698132,-0.174533,-0.174533,-1.03441,-0.684625,-0.163673,-0.165155,-1.53398,-0.540255,-0.271507,-0.234449
26,45,-1.0472,-0.698132,-0.174533,-0.174533,-1.03441,-0.684625,-0.163673,-0.165155,-1.53398,-0.540255,-0.271507,-0.234449
26,45,-1.0472,-0.698132,-0.174533,-0.174533,-1.03441,-0.684625,-0.163673,-0.165155,-1.53398,-0.540255,-0.271507,-0.234449
26,45,-1.0472,-0.698132,-0.174533,-0.174533,-1.03441,-0.684625,-0.163673,-0.165155,-1.53398,-0.540255,-0.271507,-0.234449
26,45,-1.0472,-0.698132,-0.174533,-0.174533,-1.03441,-0.684625,-0.163609,-0.165113,-1.53398,-0.540255,-0.273099,-0.23549
26,45,-1.0472,-0.698132,-0.174533,-0.174533,-1.03441,-0.684625,-0.163609,-0.165113,-1.53398,-0.540255,-0.273099,-0.23549
26,45,-1.0472,-0.698132,-0.174533,-0.174533,-1.03441,-0.684625,-0.163609,-0.165113,-1.53398,-0.540255,-0.273099,-0.23549
26,45,-1.0472,-0.698132,-0.174533,-0.174533,-1.03441,-0.684625,-0.163609,-0.165113,-1.53398,-0.540255,-0.273099,-0.23549
26,45,-1.0472,-0.698132,-0.174533,-0.174533,-1.03441,-0.684625,-0.163609,-0.165113,-1.53398,-0.540255,-0.273099,-0.23549
26,45,-1.0472,-0.698132,-0.174533,-0.174533,-1.03441,-0.684625,-0.163609,-0.165113,-1.53398,-0.540255,-0.273099,-0.23549
26,45,-1.0472,-0.698132,-0.174533,-0.174533,-1.03441,-0.684625,-0.163609,-0.165113,-1.53398,-0.540255,-0.273099,-0.23549
26,45,-1.0472,-0.698132,-0.174533,-0.174533,-1.03441,-0.684625,-0.163609,-0.165113,-1.53398,-0.540255,-0.273099,-0.23549
26,45,-1.0472,-0.698132,-0.174533,-0.174533,-1.03441,-0.684625,-0.163609,-0.165113,-1.53398,-0.540255,-0.273099,-0.23549
26,45,-1.0472,-0.698132,-0.174533,-0.174533,-1.03441,-0.684625,-0.163609,-0.165113,-1.53398,-0.540255,-0.273099,-0.23549
26,45,-1.0472,-0.698132,-0.174533,-0.174533,-1.03441,-0.684625,-0.163609,-0.165113,-1.53398,-0.540255,-0.273099,-0.23549
26,45,-1.0472,-0.698132,-0.174533,-0.174533,-1.03441,-0.684625,-0.163609,-0.165113,-1.53398,-0.540255,-0.273099,-0.23549
26,45,-1.0472,-0.698132,-0.174533,-0.174533,-1.03441,-0.684625,-0.163609,-0.165113,-1.53398,-0.540255,-0.273099,-0.23549
26,45,-1.0472,-0.698132,-0.174533,-0.174533,-1.03441,-0.684625,-0.163668,-0.165094,-1.53398,-0.540255,-0.271622,-0.235983
26,45,-1.0472,-0.698132,-0.174533,-0.174533,-1.03441,-0.684625,-0.163668,-0.165094,-1.53398,-0.540255,-0.271622,-0.235983
26,45,-1.0472,-0.698132,-0.174533,-0.174533,-1.03441,-0.684625,-0.163668,-0.165094,-1.53398,-0.540255,-0.271622,-0.235983
26,45,-1.0472,-0.698132,-0.174533,-0.174533,-1.03441,-0.684625,-0.163668,-0.165094,-1.53398,-0.540255,-0.271622,-0.235983
26,45,-1.0472,-0.698132,-0.174533,-0.174533,-1.03441,-0.684625,-0.163668,-0.165094,-1.53398,-0.540255,-0.271622,-0.235983
26,45,-1.0472,-0.698132,-0.174533,-0.174533,-1.03441,-0.684625,-0.163668,-0.165094,-1.53398,-0.540255,-0.271622,-0.235983
26,45,-1.0472,-0.698132,-0.174533,-0.174533,-1.03441,-0.684625,-0.163668,-0.165094,-1.53398,-0.540255,-0.271622,-0.235983
26,45,-1.0472,-0.698132,-0.174533,-0.174533,-1.03441,-0.684625,-0.163668,-0.165094,-1.53398,-0.540255,-0.271622,-0.235983
26,45,-1.0472,-0.698132,-0.174533,-0.174533,-1.03441,-0.684625,-0.163668,-0.165094,-1.53398,-0.540255,-0.271622,-0.235983
26,45,-1.0472,-0.698132,-0.174533,-0.174533,-1.03441,-0.684625,-0.163668,-0.165094,-1.53398,-0.540255,-0.271622,-0.235983
26,45,-1.0472,-0.698132,-0.174533,-0.174533,-1.03441,-0.684625,-0.163668,-0.165094,-1.53398,-0.540255,-0.271622,-0.235983
26,45,-1.0472,-0.698132,-0.174533,-0.174533,-1.03441,-0.684625,-0.163668,-0.165094,-1.53398,-0.540255,-0.271622,-0.235983
26,45,-1.0472,-0.698132,-0.174533,-0.174533,-1.03441,-0.684625,-0.163668,-0.165094,-1.53398,-0.540255,-0.271622,-0.235983
26,45,-1.0472,-0.698132,-0.174533,-0.174533,-1.03441,-0.684625,-0.163668,-0.165094,-1.53398,-0.540255,-0.271622,-0.235983
26,45,-1.0472,-0.698132,-0.174533,-0.174533,-1.03441,-0.684625,-0.163668,-0.165094,-1.53398,-0.540255,-0.271622,-0.235983
26,45,-1.0472,-0.698132,-0.174533,-0.174533,-1.03441,-0.684625,-0.163668,-0.165094,-1.53398,-0.540255,-0.271622,-0.235983
26,45,-1.0472,-0.698132,-0.174533,-0.174533,-1.03441,-0.684625,-0.163668,-0.165094,-1.53398,-0.540255,-0.271622,-0.235983
26,45,-1.0472,-0.698132,-0.174533,-0.174533,-1.03441,-0.684625,-0.163668,-0.165094,-1.53398,-0.540255,-0.271622,-0.235983
26,45,-1.0472,-0.698132,-0.174533,-0.174533,-1.03441,-0.684625,-0.163668,-0.165094,-1.53398,-0.540255,-0.271622,-0.235983
26,45,-1.0472,-0.698132,-0.174533,-0.174533,-1.03441,-0.684625,-0.163668,-0.165094,-1.53398,-0.540255,-0.271622,-0.235983
26,45,-1.0472,-0.698132,-0.174533,-0.174533,-1.03441,-0.684625,-0.163668,-0.165094,-1.53398,-0.540255,-0.271622,-0.235983
26,45,-1.0472,-0.698132,-0.174533,-0.174533,-1.03441,-0.684625,-0.163668,-0.165094,-1.53398,-0.540255,-0.271622,-0.235983
26,45,-1.0472,-0.698132,-0.174533,-0.174533,-1.03441,-0.684625,-0.163668,-0.165094,-1.53398,-0.540255,-0.271622,-0.235983
26,45,-1.0472,-0.698132,-0.174533,-0.174533,-1.03441,-0.684625,-0.163668,-0.165094,-1.53398,-0.540255,-0.271622,-0.235983
26,45,-1.0472,-0.698132,-0.174533,-0.174533,-1.03441,-0.684625,-0.163668,-0.165094,-1.53398,-0.540255,-0.271622,-0.235983
26,45,-1.0472,-0.698132,-0.174533,-0.174533,-1.03441,-0.684625,-0.163668,-0.165094,-1.53398,-0.540255,-0.271622,-0.235983
26,45,-1.0472,-0.698132,-0.174533,-0.174533,-1.03441,-0.684625,-0.163668,-0.165094,-1.53398,-0.540255,-0.271622,-0.235983
26,45,-1.0472,-0.698132,-0.174533,-0.174533,-1.03441,-0.684625,-0.163668,-0.165094,-1.53398,-0.540255,-0.271622,-0.235983
26,45,-1.0472,-0.698132,-0.174533,-0.174533,-1.03441,-0.684625,-0.163668,-0.165094,-1.53398,-0.540255,-0.271622,-0.235983
26,45,-1.0472,-0.698132,-0.174533,-0.174533,-1.03441,-0.684625,-0.163668,-0.165094,-1.53398,-0.540255,-0.271622,-0.235983
26,45,-1.0472,-0.698132,-0.174533,-0.174533,-1.03441,-0.684625,-0.163668,-0.165094,-1.53398,-0.540255,-0.271622,-0.235983
26,45,-1.0472,-0.698132,-0.174533,-0.174533,-1.03441,-0.684625,-0.163668,-0.165094,-1.53398,-0.540255,-0.271622,-0.235983
26,45,-1.0472,-0.698132,-0.174533,-0.174533,-1.03441,-0.684625,-0.163668,-0.165094,-1.53398,-0.540255,-0.271622,-0.235983
26,45,-1.0472,-0.698132,-0.174533,-0.174533,-1.03441,-0.684625,-0.163668,-0.165094,-1.53398,-0.540255,-0.271622,-0.235983
26,45,-1.0472,-0.698132,-0.174533,-0.174533,-1.03441,-0.684625,-0.163668,-0.165094,-1.53398,-0.540255,-0.271622,-0.235983
26,45,-1.0472,-0.698132,-0.174533,-0.174533,-1.03441,-0.684625,-0.163668,-0.165094,-1.53398,-0.540255,-0.271622,-0.235983
26,45,-1.0472,-0.698132,-0.174533,-0.174533,-1.03441,-0.684625,-0.163668,-0.165094,-1.53398,-0.540255,-0.271622,-0.235983
26,45,-1.0472,-0.698132,-0.174533,-0.174533,-1.03441,-0.684625,-0.163668,-0.165094,-1.53398,-0.540255,-0.271622,-0.235983
26,45,-1.0472,-0.698132,-0.174533,-0.174533,-1.03441,-0.684625,-0.163668,-0.165094,-1.53398,-0.540255,-0.271622,-0.235983
26,45,-1.0472,-0.698132,-0.174533,-0.174533,-1.03441,-0.684625,-0.163668,-0.165094,-1.53398,-0.540255,-0.271622,-0.235983
26,45,-1.0472,-0.698132,-0.174533,-0.174533,-1.03441,-0.684625,-0.163668,-0.165094,-1.53398,-0.540255,-0.271622,-0.235983
26,45,-1.0472,-0.698132,-0.174533,-0.174533,-1.03441,-0.684625,-0.163668,-0.165094,-1.53398,-0.540255,-0.271622,-0.235983
26,45,-1.0472,-0.698132,-0.174533,-0.174533,-1.03441,-0.684625,-0.163668,-0.165094,-1.53398,-0.540255,-0.271622,-0.235983
26,45,-1.0472,-0.698132,-0.174533,-0.174533,-1.03441,-0.684625,-0.163668,-0.165094,-1.53398,-0.540255,-0.271622,-0.235983
26,45,-1.0472,-0.698132,-0.174533,-0.174533,-1.03441,-0.684625,-0.163668,-0.165094,-1.53398,-0.540255,-0.271622,-0.235983
26,45,-1.0472,-0.698132,-0.174533,-0.174533,-1.03441,-0.684625,-0.163668,-0.165094,-1.53398,-0.540255,-0.271622,-0.235983
26,45,-1.0472,-0.698132,-0.174533,-0.174533,-1.03441,-0.684625,-0.163668,-0.165094,-1.53398,-0.540255,-0.271622,-0.235983
26,45,-1.0472,-0.698132,-0.174533,-0.174533,-1.03441,-0.684625,-0.163668,-0.165094,-1.53398,-0.540255,-0.271622,-0.235983
26,45,-1.0472,-0.698132,-0.174533,-0.174533,-1.03441,-0.684625,-0.163668,-0.165094,-1.53398,-0.540255,-0.271622,-0.235983
26,45,-1.0472,-0.698132,-0.174533,-0.174533,-1.03441,-0.684625,-0.163668,-0.165094,-1.53398,-0.540255,-0.271622,-0.235983
26,45,-1.0472,-0.698132,-0.174533,-0.174533,-1.03441,-0.684625,-0.163727,-0.165074,-1.53398,-0.540255,-0.270144,-0.236477
26,45,-1.0472,-0.698132,-0.174533,-0.174533,-1.03441,-0.684625,-0.163727,-0.165074,-1.53398,-0.540255,-0.270144,-0.236477
26,45,-1.0472,-0.698132,-0.174533,-0.174533,-1.03441,-0.684625,-0.163727,-0.165074,-1.53398,-0.540255,-0.270144,-0.236477
26,45,-1.0472,-0.698132,-0.174533,-0.174533,-1.03441,-0.684625,-0.163727,-0.165074,-1.53398,-0.540255,-0.270144,-0.236477
26,45,-1.0472,-0.698132,-0.174533,-0.174533,-1.03441,-0.684625,-0.163727,-0.165074,-1.53398,-0.540255,-0.270144,-0.236477
26,45,-1.0472,-0.698132,-0.174533,-0.174533,-1.03441,-0.684625,-0.163727,-0.165074,-1.53398,-0.540255,-0.270144,-0.236477
26,45,-1.0472,-0.698132,-0.174533,-0.174533,-1.03441,-0.684625,-0.163727,-0.165074,-1.53398,-0.540255,-0.270144,-0.236477
26,45,-1.0472,-0.698132,-0.174533,-0.174533,-1.03441,-0.684625,-0.163727,-0.165074,-1.53398,-0.540255,-0.270144,-0.236477
26,45,-1.0472,-0.698132,-0.174533,-0.174533,-1.03441,-0.684625,-0.163727,-0.165074,-1.53398,-0.540255,-0.270144,-0.236477
26,45,-1.0472,-0.698132,-0.174533,-0.174533,-1.03441,-0.684625,-0.163727,-0.165074,-1.53398,-0.540255,-0.270144,-0.236477
26,45,-1.0472,-0.698132,-0.174533,-0.174533,-1.03441,-0.684625,-0.163727,-0.165074,-1.53398,-0.540255,-0.270144,-0.236477
26,45,-1.0472,-0.698132,-0.174533,-0.174533,-1.03441,-0.684625,-0.163727,-0.165074,-1.53398,-0.540255,-0.270144,-0.236477
26,45,-1.0472,-0.698132,-0.174533,-0.174533,-1.03441,-0.684625,-0.163727,-0.165074,-1.53398,-0.540255,-0.270144,-0.236477
26,45,-1.0472,-0.698132,-0.174533,-0.174533,-1.03441,-0.684625,-0.163727,-0.165074,-1.53398,-0.540255,-0.270144,-0.236477
26,45,-1.0472,-0.698132,-0.174533,-0.174533,-1.03441,-0.684625,-0.163727,-0.165074,-1.53398,-0.540255,-0.270144,-0.236477
26,45,-1.0472,-0.698132,-0.174533,-0.174533,-1.03441,-0.684625,-0.163727,-0.165074,-1.53398,-0.540255,-0.270144,-0.236477
26,45,-1.0472,-0.698132,-0.174533,-0.174533,-1.03441,-0.684625,-0.163727,-0.165074,-1.53398,-0.540255,-0.270144,-0.236477
26,45,-1.0472,-0.698132,-0.174533,-0.174533,-1.03441,-0.684625,-0.163727,-0.165074,-1.53398,-0.540255,-0.270144,-0.236477
26,45,-1.0472,-0.698132,-0.174533,-0.174533,-1.03441,-0.684625,-0.163727,-0.165074,-1.53398,-0.540255,-0.270144,-0.236477
26,45,-1.0472,-0.698132,-0.174533,-0.174533,-1.03441,-0.684625,-0.163727,-0.165074,-1.53398,-0.540255,-0.270144,-0.236477
26,45,-1.0472,-0.698132,-0.174533,-0.174533,-1.03441,-0.684625,-0.163727,-0.165074,-1.53398,-0.540255,-0.270144,-0.236477
26,45,-1.0472,-0.698132,-0.174533,-0.174533,-1.03441,-0.684625,-0.163727,-0.165074,-1.53398,-0.540255,-0.270144,-0.236477
26,45,-1.0472,-0.698132,-0.174533,-0.174533,-1.03441,-0.684625,-0.163727,-0.165074,-1.53398,-0.540255,-0.270144,-0.236477
26,45,-1.0472,-0.698132,-0.174533,-0.174533,-1.03441,-0.684625,-0.163727,-0.165074,-1.53398,-0.540255,-0.270144,-0.236477
26,45,-1.0472,-0.698132,-0.174533,-0.174533,-1.03441,-0.684625,-0.163727,-0.165074,-1.53398,-0.540255,-0.270144,-0.236477
26,45,-1.0472,-0.698132,-0.174533,-0.174533,-1.03441,-0.684625,-0.163727,-0.165074,-1.53398,-0.540255,-0.270144,-0.236477
26,45,-1.0472,-0.698132,-0.174533,-0.174533,-1.03441,-0.684625,-0.163727,-0.165074,-1.53398,-0.540255,-0.270144,-0.236477
26,45,-1.0472,-0.698132,-0.174533,-0.174533,-1.03441,-0.684625,-0.163727,-0.165074,-1.53398,-0.540255,-0.270144,-0.236477
26,45,-1.0472,-0.698132,-0.174533,-0.174533,-1.03441,-0.684625,-0.163727,-0.165074,-1.53398,-0.540255,-0.270144,-0.236477
26,45,-1.0472,-0.698132,-0.174533,-0.174533,-1.03441,-0.684625,-0.163727,-0.165074,-1.53398,-0.540255,-0.270144,-0.236477
26,45,-1.0472,-0.698132,-0.174533,-0.174533,-1.03441,-0.684625,-0.163727,-0.165074,-1.53398,-0.540255,-0.270144,-0.236477
26,45,-1.0472,-0.698132,-0.174533,-0.174533,-1.03441,-0.684625,-0.163727,-0.165074,-1.53398,-0.540255,-0.270144,-0.236477
26,45,-1.0472,-0.698132,-0.174533,-0.174533,-1.03441,-0.684625,-0.163723,-0.165012,-1.53398,-0.540255,-0.270259,-0.238011
26,45,-1.0472,-0.698132,-0.174533,-0.174533,-1.03441,-0.684625,-0.163723,-0.165012,-1.53398,-0.540255,-0.270259,-0.238011
26,45,-1.0472,-0.698132,-0.174533,-0.174533,-1.03441,-0.684625,-0.163723,-0.165012,-1.53398,-0.540255,-0.270259,-0.238011
26,45,-1.0472,-0.698132,-0.174533,-0.174533,-1.03441,-0.684625,-0.163723,-0.165012,-1.53398,-0.540255,-0.270259,-0.238011
26,45,-1.0472,-0.698132,-0.174533,-0.174533,-1.03441,-0.684625,-0.163723,-0.165012,-1.53398,-0.540255,-0.270259,-0.238011
26,45,-1.0472,-0.698132,-0.174533,-0.174533,-1.03441,-0.684625,-0.163723,-0.165012,-1.53398,-0.540255,-0.270259,-0.238011
26,45,-1.0472,-0.698132,-0.174533,-0.174533,-1.03441,-0.684625,-0.163723,-0.165012,-1.53398,-0.540255,-0.270259,-0.238011
26,45,-1.0472,-0.698132,-0.174533,-0.174533,-1.03441,-0.684625,-0.163723,-0.165012,-1.53398,-0.540255,-0.270259,-0.238011
26,45,-1.0472,-0.698132,-0.174533,-0.174533,-1.03441,-0.684625,-0.163723,-0.165012,-1.53398,-0.540255,-0.270259,-0.238011
26,45,-1.0472,-0.698132,-0.174533,-0.174533,-1.03441,-0.684625,-0.163723,-0.165012,-1.53398,-0.540255,-0.270259,-0.238011
26,45,-1.0472,-0.698132,-0.174533,-0.174533,-1.03441,-0.684625,-0.163723,-0.165012,-1.53398,-0.540255,-0.270259,-0.238011
26,45,-1.0472,-0.698132,-0.174533,-0.174533,-1.03441,-0.684625,-0.163723,-0.165012,-1.53398,-0.540255,-0.270259,-0.238011
26,45,-1.0472,-0.698132,-0.174533,-0.174533,-1.03441,-0.684625,-0.163723,-0.165012,-1.53398,-0.540255,-0.270259,-0.238011
26,45,-1.0472,-0.698132,-0.174533,-0.174533,-1.03441,-0.684625,-0.163723,-0.165012,-1.53398,-0.540255,-0.270259,-0.238011
26,45,-1.0472,-0.698132,-0.174533,-0.174533,-1.03441,-0.684625,-0.163723,-0.165012,-1.53398,-0.540255,-0.270259,-0.238011
26,45,-1.0472,-0.698132,-0.174533,-0.174533,-1.03441,-0.684625,-0.163723,-0.165012,-1.53398,-0.540255,-0.270259,-0.238011
26,45,-1.0472,-0.698132,-0.174533,-0.174533,-1.03441,-0.684625,-0.163723,-0.165012,-1.53398,-0.540255,-0.270259,-0.238011
26,45,-1.0472,-0.698132,-0.174533,-0.174533,-1.03441,-0.684625,-0.163723,-0.165012,-1.53398,-0.540255,-0.270259,-0.238011
26,45,-1.0472,-0.698132,-0.174533,-0.174533,-1.03441,-0.684625,-0.163723,-0.165012,-1.53398,-0.540255,-0.270259,-0.238011
26,45,-1.0472,-0.698132,-0.174533,-0.174533,-1.03441,-0.684625,-0.163723,-0.165012,-1.53398,-0.540255,-0.270259,-0.238011
26,45,-1.0472,-0.698132,-0.174533,-0.174533,-1.03441,-0.684625,-0.163723,-0.165012,-1.53398,-0.540255,-0.270259,-0.238011
26,45,-1.0472,-0.698132,-0.174533,-0.174533,-1.03441,-0.684625,-0.163723,-0.165012,-1.53398,-0.540255,-0.270259,-0.238011
26,45,-1.0472,-0.698132,-0.174533,-0.174533,-1.03441,-0.684625,-0.163723,-0.165012,-1.53398,-0.540255,-0.270259,-0.238011
26,45,-1.0472,-0.698132,-0.174533,-0.174533,-1.03441,-0.684625,-0.163723,-0.165012,-1.53398,-0.540255,-0.270259,-0.238011
26,45,-1.0472,-0.698132,-0.174533,-0.174533,-1.03441,-0.684625,-0.163723,-0.165012,-1.53398,-0.540255,-0.270259,-0.238011
26,45,-1.0472,-0.698132,-0.174533,-0.174533,-1.03441,-0.684625,-0.163723,-0.165012,-1.53398,-0.540255,-0.270259,-0.238011
26,45,-1.0472,-0.698132,-0.174533,-0.174533,-1.03441,-0.684625,-0.163723,-0.165012,-1.53398,-0.540255,-0.270259,-0.238011
26,45,-1.0472,-0.698132,-0.174533,-0.174533,-1.03441,-0.684625,-0.163723,-0.165012,-1.53398,-0.540255,-0.270259,-0.238011
26,45,-1.0472,-0.698132,-0.174533,-0.174533,-1.03441,-0.684625,-0.163723,-0.165012,-1.53398,-0.540255,-0.270259,-0.238011
26,45,-1.0472,-0.698132,-0.174533,-0.174533,-1.03441,-0.684625,-0.163723,-0.165012,-1.53398,-0.540255,-0.270259,-0.238011
26,45,-1.0472,-0.698132,-0.174533,-0.174533,-1.03441,-0.684625,-0.163723,-0.165012,-1.53398,-0.540255,-0.270259,-0.238011
26,45,-1.0472,-0.698132,-0.174533,-0.174533,-1.03441,-0.684625,-0.163723,-0.165012,-1.53398,-0.540255,-0.270259,-0.238011
26,45,-1.0472,-0.698132,-0.174533,-0.174533,-1.03441,-0.684625,-0.163718,-0.164951,-1.53398,-0.540255,-0.270373,-0.239545
26,45,-1.0472,-0.698132,-0.174533,-0.174533,-1.03441,-0.684625,-0.163718,-0.164951,-1.53398,-0.540255,-0.270373,-0.239545
26,45,-1.0472,-0.698132,-0.174533,-0.174533,-1.03441,-0.684625,-0.163718,-0.164951,-1.53398,-0.540255,-0.270373,-0.239545
26,45,-1.0472,-0.698132,-0.174533,-0.174533,-1.03441,-0.684625,-0.163718,-0.164951,-1.53398,-0.540255,-0.270373,-0.239545
26,45,-1.0472,-0.698132,-0.174533,-0.174533,-1.03441,-0.684625,-0.163718,-0.164951,-1.53398,-0.540255,-0.270373,-0.239545
26,45,-1.0472,-0.698132,-0.174533,-0.174533,-1.03441,-0.684625,-0.163718,-0.164951,-1.53398,-0.540255,-0.270373,-0.239545
26,45,-1.0472,-0.698132,-0.174533,-0.174533,-1.03441,-0.684625,-0.163718,-0.164951,-1.53398,-0.540255,-0.270373,-0.239545
26,45,-1.0472,-0.698132,-0.174533,-0.174533,-1.03441,-0.684625,-0.163718,-0.164951,-1.53398,-0.540255,-0.270373,-0.239545
26,45,-1.0472,-0.698132,-0.174533,-0.174533,-1.03441,-0.684625,-0.163718,-0.164951,-1.53398,-0.540255,-0.270373,-0.239545
26,45,-1.0472,-0.698132,-0.174533,-0.174533,-1.03441,-0.684625,-0.163718,-0.164951,-1.53398,-0.540255,-0.270373,-0.239545
26,45,-1.0472,-0.698132,-0.174533,-0.174533,-1.03441,-0.684625,-0.163718,-0.164951,-1.53398,-0.540255,-0.270373,-0.239545
26,45,-1.0472,-0.698132,-0.174533,-0.174533,-1.03441,-0.684625,-0.163718,-0.164951,-1.53398,-0.540255,-0.270373,-0.239545
26,45,-1.0472,-0.698132,-0.174533,-0.174533,-1.03441,-0.684625,-0.163718,-0.164951,-1.53398,-0.540255,-0.270373,-0.239545
26,45,-1.0472,-0.698132,-0.174533,-0.174533,-1.03441,-0.684625,-0.163718,-0.164951,-1.53398,-0.540255,-0.270373,-0.239545
26,45,-1.0472,-0.698132,-0.174533,-0.174533,-1.03441,-0.684625,-0.163718,-0.164951,-1.53398,-0.540255,-0.270373,-0.239545
26,45,-1.0472,-0.698132,-0.174533,-0.174533,-1.03441,-0.684625,-0.163718,-0.164951,-1.53398,-0.540255,-0.270373,-0.239545
26,45,-1.0472,-0.698132,-0.174533,-0.174533,-1.03441,-0.684625,-0.163718,-0.164951,-1.53398,-0.540255,-0.270373,-0.239545
26,45,-1.0472,-0.698132,-0.174533,-0.174533,-1.03441,-0.684625,-0.163718,-0.164951,-1.53398,-0.540255,-0.270373,-0.239545
26,45,-1.0472,-0.698132,-0.174533,-0.174533,-1.03441,-0.684625,-0.163718,-0.164951,-1.53398,-0.540255,-0.270373,-0.239545
26,45,-1.0472,-0.698132,-0.174533,-0.174533,-1.03441,-0.684625,-0.163718,-0.164951,-1.53398,-0.540255,-0.270373,-0.239545
26,45,-1.0472,-0.698132,-0.174533,-0.174533,-1.03441,-0.684625,-0.163718,-0.164951,-1.53398,-0.540255,-0.270373,-0.239545
26,45,-1.0472,-0.698132,-0.174533,-0.174533,-1.03441,-0.684625,-0.163718,-0.164951,-1.53398,-0.540255,-0.270373,-0.239545
26,45,-1.0472,-0.698132,-0.174533,-0.174533,-1.03441,-0.684625,-0.163718,-0.164951,-1.53398,-0.540255,-0.270373,-0.239545
26,45,-1.0472,-0.698132,-0.174533,-0.174533,-1.03441,-0.684625,-0.163718,-0.164951,-1.53398,-0.540255,-0.270373,-0.239545
26,45,-1.0472,-0.698132,-0.174533,-0.174533,-1.03441,-0.684625,-0.163718,-0.164951,-1.53398,-0.540255,-0.270373,-0.239545
26,45,-1.0472,-0.698132,-0.174533,-0.174533,-1.03441,-0.684625,-0.163718,-0.164951,-1.53398,-0.540255,-0.270373,-0.239545
26,45,-1.0472,-0.698132,-0.174533,-0.174533,-1.03441,-0.684625,-0.163718,-0.164951,-1.53398,-0.540255,-0.270373,-0.239545
26,45,-1.0472,-0.698132,-0.174533,-0.174533,-1.03441,-0.684625,-0.163718,-0.164951,-1.53398,-0.540255,-0.270373,-0.239545
26,45,-1.0472,-0.698132,-0.174533,-0.174533,-1.03441,-0.684625,-0.163718,-0.164951,-1.53398,-0.540255,-0.270373,-0.239545
26,45,-1.0472,-0.698132,-0.174533,-0.174533,-1.03441,-0.684625,-0.163777,-0.164931,-1.53398,-0.540255,-0.268896,-0.240038
26,45,-1.0472,-0.698132,-0.174533,-0.174533,-1.03441,-0.684625,-0.163777,-0.164931,-1.53398,-0.540255,-0.268896,-0.240038
26,45,-1.0472,-0.698132,-0.174533,-0.174533,-1.03441,-0.684625,-0.163777,-0.164931,-1.53398,-0.540255,-0.268896,-0.240038
26,45,-1.0472,-0.698132,-0.174533,-0.174533,-1.03441,-0.684625,-0.163777,-0.164931,-1.53398,-0.540255,-0.268896,-0.240038
26,45,-1.0472,-0.698132,-0.174533,-0.174533,-1.03441,-0.684625,-0.163777,-0.164931,-1.53398,-0.540255,-0.268896,-0.240038
26,45,-1.0472,-0.698132,-0.174533,-0.174533,-1.03441,-0.684625,-0.163713,-0.16489,-1.53398,-0.540255,-0.270487,-0.241079
26,45,-1.0472,-0.698132,-0.174533,-0.174533,-1.03441,-0.684625,-0.163713,-0.16489,-1.53398,-0.540255,-0.270487,-0.241079
26,45,-1.0472,-0.698132,-0.174533,-0.174533,-1.03441,-0.684625,-0.163713,-0.16489,-1.53398,-0.540255,-0.270487,-0.241079
26,45,-1.0472,-0.698132,-0.174533,-0.174533,-1.03441,-0.684625,-0.163713,-0.16489,-1.53398,-0.540255,-0.270487,-0.241079
26,45,-1.0472,-0.698132,-0.174533,-0.174533,-1.03441,-0.684625,-0.163713,-0.16489,-1.53398,-0.540255,-0.270487,-0.241079
26,45,-1.0472,-0.698132,-0.174533,-0.174533,-1.03441,-0.684625,-0.163713,-0.16489,-1.53398,-0.540255,-0.270487,-0.241079
26,45,-1.0472,-0.698132,-0.174533,-0.174533,-1.03441,-0.684625,-0.163713,-0.16489,-1.53398,-0.540255,-0.270487,-0.241079
26,45,-1.0472,-0.698132,-0.174533,-0.174533,-1.03441,-0.684625,-0.163713,-0.16489,-1.53398,-0.540255,-0.270487,-0.241079
26,45,-1.0472,-0.698132,-0.174533,-0.174533,-1.03441,-0.684625,-0.163713,-0.16489,-1.53398,-0.540255,-0.270487,-0.241079
26,45,-1.0472,-0.698132,-0.174533,-0.174533,-1.03441,-0.684625,-0.163713,-0.16489,-1.53398,-0.540255,-0.270487,-0.241079
26,45,-1.0472,-0.698132,-0.174533,-0.174533,-1.03441,-0.684625,-0.163713,-0.16489,-1.53398,-0.540255,-0.270487,-0.241079
26,45,-1.0472,-0.698132,-0.174533,-0.174533,-1.03441,-0.684625,-0.163713,-0.16489,-1.53398,-0.540255,-0.270487,-0.241079
26,45,-1.0472,-0.698132,-0.174533,-0.174533,-1.03441,-0.684625,-0.163713,-0.16489,-1.53398,-0.540255,-0.270487,-0.241079
26,45,-1.0472,-0.698132,-0.174533,-0.174533,-1.03441,-0.684625,-0.163713,-0.16489,-1.53398,-0.540255,-0.270487,-0.241079
26,45,-1.0472,-0.698132,-0.174533,-0.174533,-1.03441,-0.684625,-0.163713,-0.16489,-1.53398,-0.540255,-0.270487,-0.241079
26,45,-1.0472,-0.698132,-0.174533,-0.174533,-1.03441,-0.684625,-0.163713,-0.16489,-1.53398,-0.540255,-0.270487,-0.241079
26,45,-1.0472,-0.698132,-0.174533,-0.174533,-1.03441,-0.684625,-0.163713,-0.16489,-1.53398,-0.540255,-0.270487,-0.241079
26,45,-1.0472,-0.698132,-0.174533,-0.174533,-1.03441,-0.684625,-0.163713,-0.16489,-1.53398,-0.540255,-0.270487,-0.241079
26,45,-1.0472,-0.698132,-0.174533,-0.174533,-1.03441,-0.684625,-0.163713,-0.16489,-1.53398,-0.540255,-0.270487,-0.241079
26,45,-1.0472,-0.698132,-0.174533,-0.174533,-1.03441,-0.684625,-0.163713,-0.16489,-1.53398,-0.540255,-0.270487,-0.241079
26,45,-1.0472,-0.698132,-0.174533,-0.174533,-1.03441,-0.684625,-0.163713,-0.16489,-1.53398,-0.540255,-0.270487,-0.241079
26,45,-1.0472,-0.698132,-0.174533,-0.174533,-1.03441,-0.684625,-0.163713,-0.16489,-1.53398,-0.540255,-0.270487,-0.241079
26,45,-1.0472,-0.698132,-0.174533,-0.174533,-1.03441,-0.684625,-0.163713,-0.16489,-1.53398,-0.540255,-0.270487,-0.241079
26,45,-1.0472,-0.698132,-0.174533,-0.174533,-1.03441,-0.684625,-0.163713,-0.16489,-1.53398,-0.540255,-0.270487,-0.241079
26,45,-1.0472,-0.698132,-0.174533,-0.174533,-1.03441,-0.684625,-0.163713,-0.16489,-1.53398,-0.540255,-0.270487,-0.241079
26,45,-1.0472,-0.698132,-0.174533,-0.174533,-1.03441,-0.684625,-0.163713,-0.16489,-1.53398,-0.540255,-0.270487,-0.241079
26,45,-1.0472,-0.698132,-0.174533,-0.174533,-1.03441,-0.684625,-0.163713,-0.16489,-1.53398,-0.540255,-0.270487,-0.241079
26,45,-1.0472,-0.698132,-0.174533,-0.174533,-1.03441,-0.684625,-0.163713,-0.16489,-1.53398,-0.540255,-0.270487,-0.241079
26,45,-1.0472,-0.698132,-0.174533,-0.174533,-1.03441,-0.684625,-0.163713,-0.16489,-1.53398,-0.540255,-0.270487,-0.241079
26,45,-1.0472,-0.698132,-0.174533,-0.174533,-1.03441,-0.684625,-0.16365,-0.164848,-1.53398,-0.540255,-0.272077,-0.242119
26,45,-1.0472,-0.698132,-0.174533,-0.174533,-1.03441,-0.684625,-0.16365,-0.164848,-1.53398,-0.540255,-0.272077,-0.242119
26,45,-1.0472,-0.698132,-0.174533,-0.174533,-1.03441,-0.684625,-0.16365,-0.164848,-1.53398,-0.540255,-0.272077,-0.242119
26,45,-1.0472,-0.698132,-0.174533,-0.174533,-1.03441,-0.684625,-0.16365,-0.164848,-1.53398,-0.540255,-0.272077,-0.242119
26,45,-1.0472,-0.698132,-0.174533,-0.174533,-1.03441,-0.684625,-0.16365,-0.164848,-1.53398,-0.540255,-0.272077,-0.242119
26,45,-1.0472,-0.698132,-0.174533,-0.174533,-1.03441,-0.684625,-0.16365,-0.164848,-1.53398,-0.540255,-0.272077,-0.242119
26,45,-1.0472,-0.698132,-0.174533,-0.174533,-1.03441,-0.684625,-0.163709,-0.164828,-1.53398,-0.540255,-0.270601,-0.242613
26,45,-1.0472,-0.698132,-0.174533,-0.174533,-1.03441,-0.684625,-0.163709,-0.164828,-1.53398,-0.540255,-0.270601,-0.242613
26,45,-1.0472,-0.698132,-0.174533,-0.174533,-1.03441,-0.684625,-0.163709,-0.164828,-1.53398,-0.540255,-0.270601,-0.242613
26,45,-1.0472,-0.698132,-0.174533,-0.174533,-1.03441,-0.684625,-0.163709,-0.164828,-1.53398,-0.540255,-0.270601,-0.242613
26,45,-1.0472,-0.698132,-0.174533,-0.174533,-1.03441,-0.684625,-0.163709,-0.164828,-1.53398,-0.540255,-0.270601,-0.242613
26,45,-1.0472,-0.698132,-0.174533,-0.174533,-1.03441,-0.684625,-0.163709,-0.164828,-1.53398,-0.540255,-0.270601,-0.242613
26,45,-1.0472,-0.698132,-0.174533,-0.174533,-1.03441,-0.684625,-0.163709,-0.164828,-1.53398,-0.540255,-0.270601,-0.242613
26,45,-1.0472,-0.698132,-0.174533,-0.174533,-1.03441,-0.684625,-0.163709,-0.164828,-1.53398,-0.540255,-0.270601,-0.242613
26,45,-1.0472,-0.698132,-0.174533,-0.174533,-1.03441,-0.684625,-0.163709,-0.164828,-1.53398,-0.540255,-0.270601,-0.242613
26,45,-1.0472,-0.698132,-0.174533,-0.174533,-1.03441,-0.684625,-0.163709,-0.164828,-1.53398,-0.540255,-0.270601,-0.242613
26,45,-1.0472,-0.698132,-0.174533,-0.174533,-1.03441,-0.684625,-0.163709,-0.164828,-1.53398,-0.540255,-0.270601,-0.242613
26,45,-1.0472,-0.698132,-0.174533,-0.174533,-1.03441,-0.684625,-0.163709,-0.164828,-1.53398,-0.540255,-0.270601,-0.242613
26,45,-1.0472,-0.698132,-0.174533,-0.174533,-1.03441,-0.684625,-0.163709,-0.164828,-1.53398,-0.540255,-0.270601,-0.242613
26,45,-1.0472,-0.698132,-0.174533,-0.174533,-1.03441,-0.684625,-0.163709,-0.164828,-1.53398,-0.540255,-0.270601,-0.242613
26,45,-1.0472,-0.698132,-0.174533,-0.174533,-1.03441,-0.684625,-0.163709,-0.164828,-1.53398,-0.540255,-0.270601,-0.242613
26,45,-1.0472,-0.698132,-0.174533,-0.174533,-1.03441,-0.684625,-0.163709,-0.164828,-1.53398,-0.540255,-0.270601,-0.242613
26,45,-1.0472,-0.698132,-0.174533,-0.174533,-1.03441,-0.684625,-0.163709,-0.164828,-1.53398,-0.540255,-0.270601,-0.242613
26,45,-1.0472,-0.698132,-0.174533,-0.174533,-1.03441,-0.684625,-0.163709,-0.164828,-1.53398,-0.540255,-0.270601,-0.242613
26,45,-1.0472,-0.698132,-0.174533,-0.174533,-1.03441,-0.684625,-0.163709,-0.164828,-1.53398,-0.540255,-0.270601,-0.242613
26,45,-1.0472,-0.698132,-0.174533,-0.174533,-1.03441,-0.684625,-0.163645,-0.164787,-1.53398,-0.540255,-0.272191,-0.243653
26,45,-1.0472,-0.698132,-0.174533,-0.174533,-1.03441,-0.684625,-0.163645,-0.164787,-1.53398,-0.540255,-0.272191,-0.243653
26,45,-1.0472,-0.698132,-0.174533,-0.174533,-1.03441,-0.684625,-0.163645,-0.164787,-1.53398,-0.540255,-0.272191,-0.243653
26,45,-1.0472,-0.698132,-0.174533,-0.174533,-1.03441,-0.684625,-0.163645,-0.164787,-1.53398,-0.540255,-0.272191,-0.243653
26,45,-1.0472,-0.698132,-0.174533,-0.174533,-1.03441,-0.684625,-0.163704,-0.164767,-1.53398,-0.540255,-0.270715,-0.244147
26,45,-1.0472,-0.698132,-0.174533,-0.174533,-1.03441,-0.684625,-0.163704,-0.164767,-1.53398,-0.540255,-0.270715,-0.244147
26,45,-1.0472,-0.698132,-0.174533,-0.174533,-1.03441,-0.684625,-0.163704,-0.164767,-1.53398,-0.540255,-0.270715,-0.244147
26,45,-1.0472,-0.698132,-0.174533,-0.174533,-1.03441,-0.684625,-0.163704,-0.164767,-1.53398,-0.540255,-0.270715,-0.244147
26,45,-1.0472,-0.698132,-0.174533,-0.174533,-1.03441,-0.684625,-0.163704,-0.164767,-1.53398,-0.540255,-0.270715,-0.244147
26,45,-1.0472,-0.698132,-0.174533,-0.174533,-1.03441,-0.684625,-0.163704,-0.164767,-1.53398,-0.540255,-0.270715,-0.244147
26,45,-1.0472,-0.698132,-0.174533,-0.174533,-1.03441,-0.684625,-0.163704,-0.164767,-1.53398,-0.540255,-0.270715,-0.244147
26,45,-1.0472,-0.698132,-0.174533,-0.174533,-1.03441,-0.684625,-0.163704,-0.164767,-1.53398,-0.540255,-0.270715,-0.244147
26,45,-1.0472,-0.698132,-0.174533,-0.174533,-1.03441,-0.684625,-0.163704,-0.164767,-1.53398,-0.540255,-0.270715,-0.244147
26,45,-1.0472,-0.698132,-0.174533,-0.174533,-1.03441,-0.684625,-0.163704,-0.164767,-1.53398,-0.540255,-0.270715,-0.244147
26,45,-1.0472,-0.698132,-0.174533,-0.174533,-1.03441,-0.684625,-0.163704,-0.164767,-1.53398,-0.540255,-0.270715,-0.244147
26,45,-1.0472,-0.698132,-0.174533,-0.174533,-1.03441,-0.684625,-0.163704,-0.164767,-1.53398,-0.540255,-0.270715,-0.244147
26,45,-1.0472,-0.698132,-0.174533,-0.174533,-1.03441,-0.684625,-0.163704,-0.164767,-1.53398,-0.540255,-0.270715,-0.244147
26,45,-1.0472,-0.698132,-0.174533,-0.174533,-1.03441,-0.684625,-0.163704,-0.164767,-1.53398,-0.540255,-0.270715,-0.244147
26,45,-1.0472,-0.698132,-0.174533,-0.174533,-1.03441,-0.684625,-0.163704,-0.164767,-1.53398,-0.540255,-0.270715,-0.244147
26,45,-1.0472,-0.698132,-0.174533,-0.174533,-1.03441,-0.684625,-0.163704,-0.164767,-1.53398,-0.540255,-0.270715,-0.244147
26,45,-1.0472,-0.698132,-0.174533,-0.174533,-1.03441,-0.684625,-0.163704,-0.164767,-1.53398,-0.540255,-0.270715,-0.244147
26,45,-1.0472,-0.698132,-0.174533,-0.174533,-1.03441,-0.684625,-0.163704,-0.164767,-1.53398,-0.540255,-0.270715,-0.244147
26,45,-1.0472,-0.698132,-0.174533,-0.174533,-1.03441,-0.684625,-0.163704,-0.164767,-1.53398,-0.540255,-0.270715,-0.244147
26,45,-1.0472,-0.698132,-0.174533,-0.174533,-1.03441,-0.684625,-0.163704,-0.164767,-1.53398,-0.540255,-0.270715,-0.244147
26,45,-1.0472,-0.698132,-0.174533,-0.174533,-1.03441,-0.684625,-0.163704,-0.164767,-1.53398,-0.540255,-0.270715,-0.244147
26,45,-1.0472,-0.698132,-0.174533,-0.174533,-1.03441,-0.684625,-0.163704,-0.164767,-1.53398,-0.540255,-0.270715,-0.244147
26,45,-1.0472,-0.698132,-0.174533,-0.174533,-1.03441,-0.684625,-0.163704,-0.164767,-1.53398,-0.540255,-0.270715,-0.244147
26,45,-1.0472,-0.698132,-0.174533,-0.174533,-1.03441,-0.684625,-0.163704,-0.164767,-1.53398,-0.540255,-0.270715,-0.244147
26,45,-1.0472,-0.698132,-0.174533,-0.174533,-1.03441,-0.684625,-0.163704,-0.164767,-1.53398,-0.540255,-0.270715,-0.244147
26,45,-1.0472,-0.698132,-0.174533,-0.174533,-1.03441,-0.684625,-0.163704,-0.164767,-1.53398,-0.540255,-0.270715,-0.244147
26,45,-1.0472,-0.698132,-0.174533,-0.174533,-1.03441,-0.684625,-0.163704,-0.164767,-1.53398,-0.540255,-0.270715,-0.244147
26,45,-1.0472,-0.698132,-0.174533,-0.174533,-1.03441,-0.684625,-0.163704,-0.164767,-1.53398,-0.540255,-0.270715,-0.244147
26,45,-1.0472,-0.698132,-0.174533,-0.174533,-1.03441,-0.684625,-0.163704,-0.164767,-1.53398,-0.540255,-0.270715,-0.244147
26,45,-1.0472,-0.698132,-0.174533,-0.174533,-1.03441,-0.684625,-0.163704,-0.164767,-1.53398,-0.540255,-0.270715,-0.244147
26,45,-1.0472,-0.698132,-0.174533,-0.174533,-1.03441,-0.684625,-0.163704,-0.164767,-1.53398,-0.540255,-0.270715,-0.244147
26,45,-1.0472,-0.698132,-0.174533,-0.174533,-1.03441,-0.684625,-0.163704,-0.164767,-1.53398,-0.540255,-0.270715,-0.244147
26,45,-1.0472,-0.698132,-0.174533,-0.174533,-1.03441,-0.684625,-0.163704,-0.164767,-1.53398,-0.540255,-0.270715,-0.244147
26,45,-1.0472,-0.698132,-0.174533,-0.174533,-1.03441,-0.684625,-0.163704,-0.164767,-1.53398,-0.540255,-0.270715,-0.244147
26,45,-1.0472,-0.698132,-0.174533,-0.174533,-1.03441,-0.684625,-0.163704,-0.164767,-1.53398,-0.540255,-0.270715,-0.244147
26,45,-1.0472,-0.698132,-0.174533,-0.174533,-1.03441,-0.684625,-0.163704,-0.164767,-1.53398,-0.540255,-0.270715,-0.244147
26,45,-1.0472,-0.698132,-0.174533,-0.174533,-1.03441,-0.684625,-0.163704,-0.164767,-1.53398,-0.540255,-0.270715,-0.244147
26,45,-1.0472,-0.698132,-0.174533,-0.174533,-1.03441,-0.684625,-0.163704,-0.164767,-1.53398,-0.540255,-0.270715,-0.244147
26,45,-1.0472,-0.698132,-0.174533,-0.174533,-1.03441,-0.684625,-0.163704,-0.164767,-1.53398,-0.540255,-0.270715,-0.244147
26,45,-1.0472,-0.698132,-0.174533,-0.174533,-1.03441,-0.684625,-0.163704,-0.164767,-1.53398,-0.540255,-0.270715,-0.244147
26,45,-1.0472,-0.698132,-0.174533,-0.174533,-1.03441,-0.684625,-0.163704,-0.164767,-1.53398,-0.540255,-0.270715,-0.244147
26,45,-1.0472,-0.698132,-0.174533,-0.174533,-1.03441,-0.684625,-0.163763,-0.164747,-1.53398,-0.540255,-0.269238,-0.24464
26,45,-1.0472,-0.698132,-0.174533,-0.174533,-1.03441,-0.684625,-0.163763,-0.164747,-1.53398,-0.540255,-0.269238,-0.24464
26,45,-1.0472,-0.698132,-0.174533,-0.174533,-1.03441,-0.684625,-0.1637,-0.164706,-1.53398,-0.540255,-0.270828,-0.245681
26,45,-1.0472,-0.698132,-0.174533,-0.174533,-1.03441,-0.684625,-0.1637,-0.164706,-1.53398,-0.540255,-0.270828,-0.245681
26,45,-1.0472,-0.698132,-0.174533,-0.174533,-1.03441,-0.684625,-0.1637,-0.164706,-1.53398,-0.540255,-0.270828,-0.245681
26,45,-1.0472,-0.698132,-0.174533,-0.174533,-1.03441,-0.684625,-0.1637,-0.164706,-1.53398,-0.540255,-0.270828,-0.245681
26,45,-1.0472,-0.698132,-0.174533,-0.174533,-1.03441,-0.684625,-0.1637,-0.164706,-1.53398,-0.540255,-0.270828,-0.245681
26,45,-1.0472,-0.698132,-0.174533,-0.174533,-1.03441,-0.684625,-0.1637,-0.164706,-1.53398,-0.540255,-0.270828,-0.245681
26,45,-1.0472,-0.698132,-0.174533,-0.174533,-1.03441,-0.684625,-0.1637,-0.164706,-1.53398,-0.540255,-0.270828,-0.245681
26,45,-1.0472,-0.698132,-0.174533,-0.174533,-1.03441,-0.684625,-0.1637,-0.164706,-1.53398,-0.540255,-0.270828,-0.245681
26,45,-1.0472,-0.698132,-0.174533,-0.174533,-1.03441,-0.684625,-0.1637,-0.164706,-1.53398,-0.540255,-0.270828,-0.245681
26,45,-1.0472,-0.698132,-0.174533,-0.174533,-1.03441,-0.684625,-0.1637,-0.164706,-1.53398,-0.540255,-0.270828,-0.245681
26,45,-1.0472,-0.698132,-0.174533,-0.174533,-1.03441,-0.684625,-0.1637,-0.164706,-1.53398,-0.540255,-0.270828,-0.245681
26,45,-1.0472,-0.698132,-0.174533,-0.174533,-1.03441,-0.684625,-0.1637,-0.164706,-1.53398,-0.540255,-0.270828,-0.245681
26,45,-1.0472,-0.698132,-0.174533,-0.174533,-1.03441,-0.684625,-0.1637,-0.164706,-1.53398,-0.540255,-0.270828,-0.245681
26,45,-1.0472,-0.698132,-0.174533,-0.174533,-1.03441,-0.684625,-0.1637,-0.164706,-1.53398,-0.540255,-0.270828,-0.245681
26,45,-1.0472,-0.698132,-0.174533,-0.174533,-1.03441,-0.684625,-0.1637,-0.164706,-1.53398,-0.540255,-0.270828,-0.245681
26,45,-1.0472,-0.698132,-0.174533,-0.174533,-1.03441,-0.684625,-0.1637,-0.164706,-1.53398,-0.540255,-0.270828,-0.245681
26,45,-1.0472,-0.698132,-0.174533,-0.174533,-1.03441,-0.684625,-0.1637,-0.164706,-1.53398,-0.540255,-0.270828,-0.245681
26,45,-1.0472,-0.698132,-0.174533,-0.174533,-1.03441,-0.684625,-0.1637,-0.164706,-1.53398,-0.540255,-0.270828,-0.245681
26,45,-1.0472,-0.698132,-0.174533,-0.174533,-1.03441,-0.684625,-0.1637,-0.164706,-1.53398,-0.540255,-0.270828,-0.245681
26,45,-1.0472,-0.698132,-0.174533,-0.174533,-1.03441,-0.684625,-0.1637,-0.164706,-1.53398,-0.540255,-0.270828,-0.245681
26,45,-1.0472,-0.698132,-0.174533,-0.174533,-1.03441,-0.684625,-0.1637,-0.164706,-1.53398,-0.540255,-0.270828,-0.245681
26,45,-1.0472,-0.698132,-0.174533,-0.174533,-1.03441,-0.684625,-0.1637,-0.164706,-1.53398,-0.540255,-0.270828,-0.245681
26,45,-1.0472,-0.698132,-0.174533,-0.174533,-1.03441,-0.684625,-0.1637,-0.164706,-1.53398,-0.540255,-0.270828,-0.245681
26,45,-1.0472,-0.698132,-0.174533,-0.174533,-1.03441,-0.684625,-0.1637,-0.164706,-1.53398,-0.540255,-0.270828,-0.245681
26,45,-1.0472,-0.698132,-0.174533,-0.174533,-1.03441,-0.684625,-0.1637,-0.164706,-1.53398,-0.540255,-0.270828,-0.245681
26,45,-1.0472,-0.698132,-0.174533,-0.174533,-1.03441,-0.684625,-0.1637,-0.164706,-1.53398,-0.540255,-0.270828,-0.245681
26,45,-1.0472,-0.698132,-0.174533,-0.174533,-1.03441,-0.684625,-0.1637,-0.164706,-1.53398,-0.540255,-0.270828,-0.245681
26,45,-1.0472,-0.698132,-0.174533,-0.174533,-1.03441,-0.684625,-0.1637,-0.164706,-1.53398,-0.540255,-0.270828,-0.245681
26,45,-1.0472,-0.698132,-0.174533,-0.174533,-1.03441,-0.684625,-0.1637,-0.164706,-1.53398,-0.540255,-0.270828,-0.245681
26,45,-1.0472,-0.698132,-0.174533,-0.174533,-1.03441,-0.684625,-0.1637,-0.164706,-1.53398,-0.540255,-0.270828,-0.245681
26,45,-1.0472,-0.698132,-0.174533,-0.174533,-1.03441,-0.684625,-0.1637,-0.164706,-1.53398,-0.540255,-0.270828,-0.245681
26,45,-1.0472,-0.698132,-0.174533,-0.174533,-1.03441,-0.684625,-0.1637,-0.164706,-1.53398,-0.540255,-0.270828,-0.245681
26,45,-1.0472,-0.698132,-0.174533,-0.174533,-1.03441,-0.684625,-0.1637,-0.164706,-1.53398,-0.540255,-0.270828,-0.245681
26,45,-1.0472,-0.698132,-0.174533,-0.174533,-1.03441,-0.684625,-0.1637,-0.164706,-1.53398,-0.540255,-0.270828,-0.245681
26,45,-1.0472,-0.698132,-0.174533,-0.174533,-1.03441,-0.684625,-0.1637,-0.164706,-1.53398,-0.540255,-0.270828,-0.245681
26,45,-1.0472,-0.698132,-0.174533,-0.174533,-1.03441,-0.684625,-0.1637,-0.164706,-1.53398,-0.540255,-0.270828,-0.245681
26,45,-1.0472,-0.698132,-0.174533,-0.174533,-1.03441,-0.684625,-0.1637,-0.164706,-1.53398,-0.540255,-0.270828,-0.245681
26,45,-1.0472,-0.698132,-0.174533,-0.174533,-1.03441,-0.684625,-0.1637,-0.164706,-1.53398,-0.540255,-0.270828,-0.245681
26,45,-1.0472,-0.698132,-0.174533,-0.174533,-1.03441,-0.684625,-0.1637,-0.164706,-1.53398,-0.540255,-0.270828,-0.245681
26,45,-1.0472,-0.698132,-0.174533,-0.174533,-1.03441,-0.684625,-0.1637,-0.164706,-1.53398,-0.540255,-0.270828,-0.245681
26,45,-1.0472,-0.698132,-0.174533,-0.174533,-1.03441,-0.684625,-0.1637,-0.164706,-1.53398,-0.540255,-0.270828,-0.245681
26,45,-1.0472,-0.698132,-0.174533,-0.174533,-1.03441,-0.684625,-0.1637,-0.164706,-1.53398,-0.540255,-0.270828,-0.245681
26,45,-1.0472,-0.698132,-0.174533,-0.174533,-1.03441,-0.684625,-0.1637,-0.164706,-1.53398,-0.540255,-0.270828,-0.245681
26,45,-1.0472,-0.698132,-0.174533,-0.174533,-1.03441,-0.684625,-0.1637,-0.164706,-1.53398,-0.540255,-0.270828,-0.245681
26,45,-1.0472,-0.698132,-0.174533,-0.174533,-1.03441,-0.684625,-0.1637,-0.164706,-1.53398,-0.540255,-0.270828,-0.245681
26,45,-1.0472,-0.698132,-0.174533,-0.174533,-1.03441,-0.684625,-0.1637,-0.164706,-1.53398,-0.540255,-0.270828,-0.245681
26,45,-1.0472,-0.698132,-0.174533,-0.174533,-1.03441,-0.684625,-0.1637,-0.164706,-1.53398,-0.540255,-0.270828,-0.245681
26,45,-1.0472,-0.698132,-0.174533,-0.174533,-1.03441,-0.684625,-0.1637,-0.164706,-1.53398,-0.540255,-0.270828,-0.245681
26,45,-1.0472,-0.698132,-0.174533,-0.174533,-1.03441,-0.684625,-0.1637,-0.164706,-1.53398,-0.540255,-0.270828,-0.245681
26,45,-1.0472,-0.698132,-0.174533,-0.174533,-1.03441,-0.684625,-0.1637,-0.164706,-1.53398,-0.540255,-0.270828,-0.245681
26,45,-1.0472,-0.698132,-0.174533,-0.174533,-1.03441,-0.684625,-0.1637,-0.164706,-1.53398,-0.540255,-0.270828,-0.245681
26,45,-1.0472,-0.698132,-0.174533,-0.174533,-1.03441,-0.684625,-0.1637,-0.164706,-1.53398,-0.540255,-0.270828,-0.245681
26,45,-1.0472,-0.698132,-0.174533,-0.174533,-1.03441,-0.684625,-0.1637,-0.164706,-1.53398,-0.540255,-0.270828,-0.245681
26,45,-1.0472,-0.698132,-0.174533,-0.174533,-1.03441,-0.684625,-0.1637,-0.164706,-1.53398,-0.540255,-0.270828,-0.245681
26,45,-1.0472,-0.698132,-0.174533,-0.174533,-1.03441,-0.684625,-0.1637,-0.164706,-1.53398,-0.540255,-0.270828,-0.245681
26,45,-1.0472,-0.698132,-0.174533,-0.174533,-1.03441,-0.684625,-0.1637,-0.164706,-1.53398,-0.540255,-0.270828,-0.245681
26,45,-1.0472,-0.698132,-0.174533,-0.174533,-1.03441,-0.684625,-0.1637,-0.164706,-1.53398,-0.540255,-0.270828,-0.245681
26,45,-1.0472,-0.698132,-0.174533,-0.174533,-1.03441,-0.684625,-0.1637,-0.164706,-1.53398,-0.540255,-0.270828,-0.245681
26,45,-1.0472,-0.698132,-0.174533,-0.174533,-1.03441,-0.684625,-0.1637,-0.164706,-1.53398,-0.540255,-0.270828,-0.245681
26,45,-1.0472,-0.698132,-0.174533,-0.174533,-1.03441,-0.684625,-0.1637,-0.164706,-1.53398,-0.540255,-0.270828,-0.245681
26,45,-1.0472,-0.698132,-0.174533,-0.174533,-1.03441,-0.684625,-0.1637,-0.164706,-1.53398,-0.540255,-0.270828,-0.245681
26,45,-1.0472,-0.698132,-0.174533,-0.174533,-1.03441,-0.684625,-0.1637,-0.164706,-1.53398,-0.540255,-0.270828,-0.245681
26,45,-1.0472,-0.698132,-0.174533,-0.174533,-1.03441,-0.684625,-0.1637,-0.164706,-1.53398,-0.540255,-0.270828,-0.245681
26,45,-1.0472,-0.698132,-0.174533,-0.174533,-1.03441,-0.684625,-0.1637,-0.164706,-1.53398,-0.540255,-0.270828,-0.245681
26,45,-1.0472,-0.698132,-0.174533,-0.174533,-1.03441,-0.684625,-0.1637,-0.164706,-1.53398,-0.540255,-0.270828,-0.245681
26,45,-1.0472,-0.698132,-0.174533,-0.174533,-1.03441,-0.684625,-0.1637,-0.164706,-1.53398,-0.540255,-0.270828,-0.245681
26,45,-1.0472,-0.698132,-0.174533,-0.174533,-1.03441,-0.684625,-0.1637,-0.164706,-1.53398,-0.540255,-0.270828,-0.245681
26,45,-1.0472,-0.698132,-0.174533,-0.174533,-1.03441,-0.684625,-0.1637,-0.164706,-1.53398,-0.540255,-0.270828,-0.245681
26,45,-1.0472,-0.698132,-0.174533,-0.174533,-1.03441,-0.684625,-0.1637,-0.164706,-1.53398,-0.540255,-0.270828,-0.245681
26,45,-1.0472,-0.698132,-0.174533,-0.174533,-1.03441,-0.684625,-0.1637,-0.164706,-1.53398,-0.540255,-0.270828,-0.245681
26,45,-1.0472,-0.698132,-0.174533,-0.174533,-1.03441,-0.684625,-0.1637,-0.164706,-1.53398,-0.540255,-0.270828,-0.245681
26,45,-1.0472,-0.698132,-0.174533,-0.174533,-1.03441,-0.684625,-0.1637,-0.164706,-1.53398,-0.540255,-0.270828,-0.245681
26,45,-1.0472,-0.698132,-0.174533,-0.174533,-1.03441,-0.684625,-0.1637,-0.164706,-1.53398,-0.540255,-0.270828,-0.245681
26,45,-1.0472,-0.698132,-0.174533,-0.174533,-1.03441,-0.684625,-0.1637,-0.164706,-1.53398,-0.540255,-0.270828,-0.245681
26,45,-1.0472,-0.698132,-0.174533,-0.174533,-1.03441,-0.684625,-0.1637,-0.164706,-1.53398,-0.540255,-0.270828,-0.245681
26,45,-1.0472,-0.698132,-0.174533,-0.174533,-1.03441,-0.684625,-0.1637,-0.164706,-1.53398,-0.540255,-0.270828,-0.245681
26,45,-1.0472,-0.698132,-0.174533,-0.174533,-1.03441,-0.684625,-0.163759,-0.164686,-1.53398,-0.540255,-0.269352,-0.246174
26,45,-1.0472,-0.698132,-0.174533,-0.174533,-1.03441,-0.684625,-0.163759,-0.164686,-1.53398,-0.540255,-0.269352,-0.246174
26,45,-1.0472,-0.698132,-0.174533,-0.174533,-1.03441,-0.684625,-0.163759,-0.164686,-1.53398,-0.540255,-0.269352,-0.246174
26,45,-1.0472,-0.698132,-0.174533,-0.174533,-1.03441,-0.684625,-0.163759,-0.164686,-1.53398,-0.540255,-0.269352,-0.246174
26,45,-1.0472,-0.698132,-0.174533,-0.174533,-1.03441,-0.684625,-0.163759,-0.164686,-1.53398,-0.540255,-0.269352,-0.246174
26,45,-1.0472,-0.698132,-0.174533,-0.174533,-1.03441,-0.684625,-0.163695,-0.164644,-1.53398,-0.540255,-0.270942,-0.247215
26,45,-1.0472,-0.698132,-0.174533,-0.174533,-1.03441,-0.684625,-0.163695,-0.164644,-1.53398,-0.540255,-0.270942,-0.247215
26,45,-1.0472,-0.698132,-0.174533,-0.174533,-1.03441,-0.684625,-0.163695,-0.164644,-1.53398,-0.540255,-0.270942,-0.247215
26,45,-1.0472,-0.698132,-0.174533,-0.174533,-1.03441,-0.684625,-0.163695,-0.164644,-1.53398,-0.540255,-0.270942,-0.247215
26,45,-1.0472,-0.698132,-0.174533,-0.174533,-1.03441,-0.684625,-0.163695,-0.164644,-1.53398,-0.540255,-0.270942,-0.247215
26,45,-1.0472,-0.698132,-0.174533,-0.174533,-1.03441,-0.684625,-0.163695,-0.164644,-1.53398,-0.540255,-0.270942,-0.247215
26,45,-1.0472,-0.698132,-0.174533,-0.174533,-1.03441,-0.684625,-0.163695,-0.164644,-1.53398,-0.540255,-0.270942,-0.247215
26,45,-1.0472,-0.698132,-0.174533,-0.174533,-1.03441,-0.684625,-0.163695,-0.164644,-1.53398,-0.540255,-0.270942,-0.247215
26,45,-1.0472,-0.698132,-0.174533,-0.174533,-1.03441,-0.684625,-0.163695,-0.164644,-1.53398,-0.540255,-0.270942,-0.247215
26,45,-1.0472,-0.698132,-0.174533,-0.174533,-1.03441,-0.684625,-0.163695,-0.164644,-1.53398,-0.540255,-0.270942,-0.247215
26,45,-1.0472,-0.698132,-0.174533,-0.174533,-1.03441,-0.684625,-0.163695,-0.164644,-1.53398,-0.540255,-0.270942,-0.247215
26,45,-1.0472,-0.698132,-0.174533,-0.174533,-1.03441,-0.684625,-0.163695,-0.164644,-1.53398,-0.540255,-0.270942,-0.247215
26,45,-1.0472,-0.698132,-0.174533,-0.174533,-1.03441,-0.684625,-0.163695,-0.164644,-1.53398,-0.540255,-0.270942,-0.247215
26,45,-1.0472,-0.698132,-0.174533,-0.174533,-1.03441,-0.684625,-0.163695,-0.164644,-1.53398,-0.540255,-0.270942,-0.247215
26,45,-1.0472,-0.698132,-0.174533,-0.174533,-1.03441,-0.684625,-0.163695,-0.164644,-1.53398,-0.540255,-0.270942,-0.247215
26,45,-1.0472,-0.698132,-0.174533,-0.174533,-1.03441,-0.684625,-0.163695,-0.164644,-1.53398,-0.540255,-0.270942,-0.247215
26,45,-1.0472,-0.698132,-0.174533,-0.174533,-1.03441,-0.684625,-0.163695,-0.164644,-1.53398,-0.540255,-0.270942,-0.247215
26,45,-1.0472,-0.698132,-0.174533,-0.174533,-1.03441,-0.684625,-0.163695,-0.164644,-1.53398,-0.540255,-0.270942,-0.247215
26,45,-1.0472,-0.698132,-0.174533,-0.174533,-1.03441,-0.684625,-0.163695,-0.164644,-1.53398,-0.540255,-0.270942,-0.247215
26,45,-1.0472,-0.698132,-0.174533,-0.174533,-1.03441,-0.684625,-0.163695,-0.164644,-1.53398,-0.540255,-0.270942,-0.247215
26,45,-1.0472,-0.698132,-0.174533,-0.174533,-1.03441,-0.684625,-0.163695,-0.164644,-1.53398,-0.540255,-0.270942,-0.247215
26,45,-1.0472,-0.698132,-0.174533,-0.174533,-1.03441,-0.684625,-0.163695,-0.164644,-1.53398,-0.540255,-0.270942,-0.247215
26,45,-1.0472,-0.698132,-0.174533,-0.174533,-1.03441,-0.684625,-0.163695,-0.164644,-1.53398,-0.540255,-0.270942,-0.247215
26,45,-1.0472,-0.698132,-0.174533,-0.174533,-1.03441,-0.684625,-0.163695,-0.164644,-1.53398,-0.540255,-0.270942,-0.247215
26,45,-1.0472,-0.698132,-0.174533,-0.174533,-1.03441,-0.684625,-0.163695,-0.164644,-1.53398,-0.540255,-0.270942,-0.247215
26,45,-1.0472,-0.698132,-0.174533,-0.174533,-1.03441,-0.684625,-0.163695,-0.164644,-1.53398,-0.540255,-0.270942,-0.247215
26,45,-1.0472,-0.698132,-0.174533,-0.174533,-1.03441,-0.684625,-0.163695,-0.164644,-1.53398,-0.540255,-0.270942,-0.247215
26,45,-1.0472,-0.698132,-0.174533,-0.174533,-1.03441,-0.684625,-0.163695,-0.164644,-1.53398,-0.540255,-0.270942,-0.247215
26,45,-1.0472,-0.698132,-0.174533,-0.174533,-1.03441,-0.684625,-0.163695,-0.164644,-1.53398,-0.540255,-0.270942,-0.247215
26,45,-1.0472,-0.698132,-0.174533,-0.174533,-1.03441,-0.684625,-0.163695,-0.164644,-1.53398,-0.540255,-0.270942,-0.247215
26,45,-1.0472,-0.698132,-0.174533,-0.174533,-1.03441,-0.684625,-0.163695,-0.164644,-1.53398,-0.540255,-0.270942,-0.247215
26,45,-1.0472,-0.698132,-0.174533,-0.174533,-1.03441,-0.684625,-0.163695,-0.164644,-1.53398,-0.540255,-0.270942,-0.247215
26,45,-1.0472,-0.698132,-0.174533,-0.174533,-1.03441,-0.684625,-0.163695,-0.164644,-1.53398,-0.540255,-0.270942,-0.247215
26,45,-1.0472,-0.698132,-0.174533,-0.174533,-1.03441,-0.684625,-0.163695,-0.164644,-1.53398,-0.540255,-0.270942,-0.247215
26,45,-1.0472,-0.698132,-0.174533,-0.174533,-1.03441,-0.684625,-0.163695,-0.164644,-1.53398,-0.540255,-0.270942,-0.247215
26,45,-1.0472,-0.698132,-0.174533,-0.174533,-1.03441,-0.684625,-0.163695,-0.164644,-1.53398,-0.540255,-0.270942,-0.247215
26,45,-1.0472,-0.698132,-0.174533,-0.174533,-1.03441,-0.684625,-0.163695,-0.164644,-1.53398,-0.540255,-0.270942,-0.247215
26,45,-1.0472,-0.698132,-0.174533,-0.174533,-1.03441,-0.684625,-0.163695,-0.164644,-1.53398,-0.540255,-0.270942,-0.247215
26,45,-1.0472,-0.698132,-0.174533,-0.174533,-1.03441,-0.684625,-0.163695,-0.164644,-1.53398,-0.540255,-0.270942,-0.247215
26,45,-1.0472,-0.698132,-0.174533,-0.174533,-1.03441,-0.684625,-0.163695,-0.164644,-1.53398,-0.540255,-0.270942,-0.247215
26,45,-1.0472,-0.698132,-0.174533,-0.174533,-1.03441,-0.684625,-0.163695,-0.164644,-1.53398,-0.540255,-0.270942,-0.247215
26,45,-1.0472,-0.698132,-0.174533,-0.174533,-1.03441,-0.684625,-0.163695,-0.164644,-1.53398,-0.540255,-0.270942,-0.247215
26,45,-1.0472,-0.698132,-0.174533,-0.174533,-1.03441,-0.684625,-0.163695,-0.164644,-1.53398,-0.540255,-0.270942,-0.247215
26,45,-1.0472,-0.698132,-0.174533,-0.174533,-1.03441,-0.684625,-0.163695,-0.164644,-1.53398,-0.540255,-0.270942,-0.247215
26,45,-1.0472,-0.698132,-0.174533,-0.174533,-1.03441,-0.684625,-0.163695,-0.164644,-1.53398,-0.540255,-0.270942,-0.247215
26,45,-1.0472,-0.698132,-0.174533,-0.174533,-1.03441,-0.684625,-0.163754,-0.164625,-1.53398,-0.540255,-0.269466,-0.247708
26,45,-1.0472,-0.698132,-0.174533,-0.174533,-1.03441,-0.684625,-0.163754,-0.164625,-1.53398,-0.540255,-0.269466,-0.247708
26,45,-1.0472,-0.698132,-0.174533,-0.174533,-1.03441,-0.684625,-0.163754,-0.164625,-1.53398,-0.540255,-0.269466,-0.247708
26,45,-1.0472,-0.698132,-0.174533,-0.174533,-1.03441,-0.684625,-0.163754,-0.164625,-1.53398,-0.540255,-0.269466,-0.247708
26,45,-1.0472,-0.698132,-0.174533,-0.174533,-1.03441,-0.684625,-0.163754,-0.164625,-1.53398,-0.540255,-0.269466,-0.247708
26,45,-1.0472,-0.698132,-0.174533,-0.174533,-1.03441,-0.684625,-0.163754,-0.164625,-1.53398,-0.540255,-0.269466,-0.247708
26,45,-1.0472,-0.698132,-0.174533,-0.174533,-1.03441,-0.684625,-0.163754,-0.164625,-1.53398,-0.540255,-0.269466,-0.247708
26,45,-1.0472,-0.698132,-0.174533,-0.174533,-1.03441,-0.684625,-0.163754,-0.164625,-1.53398,-0.540255,-0.269466,-0.247708
26,45,-1.0472,-0.698132,-0.174533,-0.174533,-1.03441,-0.684625,-0.163754,-0.164625,-1.53398,-0.540255,-0.269466,-0.247708
26,45,-1.0472,-0.698132,-0.174533,-0.174533,-1.03441,-0.684625,-0.163754,-0.164625,-1.53398,-0.540255,-0.269466,-0.247708
26,45,-1.0472,-0.698132,-0.174533,-0.174533,-1.03441,-0.684625,-0.163754,-0.164625,-1.53398,-0.540255,-0.269466,-0.247708
26,45,-1.0472,-0.698132,-0.174533,-0.174533,-1.03441,-0.684625,-0.163754,-0.164625,-1.53398,-0.540255,-0.269466,-0.247708
26,45,-1.0472,-0.698132,-0.174533,-0.174533,-1.03441,-0.684625,-0.163754,-0.164625,-1.53398,-0.540255,-0.269466,-0.247708
26,45,-1.0472,-0.698132,-0.174533,-0.174533,-1.03441,-0.684625,-0.163754,-0.164625,-1.53398,-0.540255,-0.269466,-0.247708
26,45,-1.0472,-0.698132,-0.174533,-0.174533,-1.03441,-0.684625,-0.163754,-0.164625,-1.53398,-0.540255,-0.269466,-0.247708
26,45,-1.0472,-0.698132,-0.174533,-0.174533,-1.03441,-0.684625,-0.163754,-0.164625,-1.53398,-0.540255,-0.269466,-0.247708
26,45,-1.0472,-0.698132,-0.174533,-0.174533,-1.03441,-0.684625,-0.163754,-0.164625,-1.53398,-0.540255,-0.269466,-0.247708
26,45,-1.0472,-0.698132,-0.174533,-0.174533,-1.03441,-0.684625,-0.163754,-0.164625,-1.53398,-0.540255,-0.269466,-0.247708
26,45,-1.0472,-0.698132,-0.174533,-0.174533,-1.03441,-0.684625,-0.163754,-0.164625,-1.53398,-0.540255,-0.269466,-0.247708
26,45,-1.0472,-0.698132,-0.174533,-0.174533,-1.03441,-0.684625,-0.163754,-0.164625,-1.53398,-0.540255,-0.269466,-0.247708
26,45,-1.0472,-0.698132,-0.174533,-0.174533,-1.03441,-0.684625,-0.163754,-0.164625,-1.53398,-0.540255,-0.269466,-0.247708
26,45,-1.0472,-0.698132,-0.174533,-0.174533,-1.03441,-0.684625,-0.163754,-0.164625,-1.53398,-0.540255,-0.269466,-0.247708
26,45,-1.0472,-0.698132,-0.174533,-0.174533,-1.03441,-0.684625,-0.163754,-0.164625,-1.53398,-0.540255,-0.269466,-0.247708
26,45,-1.0472,-0.698132,-0.174533,-0.174533,-1.03441,-0.684625,-0.163754,-0.164625,-1.53398,-0.540255,-0.269466,-0.247708
26,45,-1.0472,-0.698132,-0.174533,-0.174533,-1.03441,-0.684625,-0.163754,-0.164625,-1.53398,-0.540255,-0.269466,-0.247708
26,45,-1.0472,-0.698132,-0.174533,-0.174533,-1.03441,-0.684625,-0.163754,-0.164625,-1.53398,-0.540255,-0.269466,-0.247708
26,45,-1.0472,-0.698132,-0.174533,-0.174533,-1.03441,-0.684625,-0.163754,-0.164625,-1.53398,-0.540255,-0.269466,-0.247708
26,45,-1.0472,-0.698132,-0.174533,-0.174533,-1.03441,-0.684625,-0.163754,-0.164625,-1.53398,-0.540255,-0.269466,-0.247708
26,45,-1.0472,-0.698132,-0.174533,-0.174533,-1.03441,-0.684625,-0.163754,-0.164625,-1.53398,-0.540255,-0.269466,-0.247708
26,45,-1.0472,-0.698132,-0.174533,-0.174533,-1.03441,-0.684625,-0.163754,-0.164625,-1.53398,-0.540255,-0.269466,-0.247708
26,45,-1.0472,-0.698132,-0.174533,-0.174533,-1.03441,-0.684625,-0.163754,-0.164625,-1.53398,-0.540255,-0.269466,-0.247708
26,45,-1.0472,-0.698132,-0.174533,-0.174533,-1.03441,-0.684625,-0.163754,-0.164625,-1.53398,-0.540255,-0.269466,-0.247708
26,45,-1.0472,-0.698132,-0.174533,-0.174533,-1.03441,-0.684625,-0.163754,-0.164625,-1.53398,-0.540255,-0.269466,-0.247708
26,45,-1.0472,-0.698132,-0.174533,-0.174533,-1.03441,-0.684625,-0.163754,-0.164625,-1.53398,-0.540255,-0.269466,-0.247708
26,45,-1.0472,-0.698132,-0.174533,-0.174533,-1.03441,-0.684625,-0.163754,-0.164625,-1.53398,-0.540255,-0.269466,-0.247708
26,45,-1.0472,-0.698132,-0.174533,-0.174533,-1.03441,-0.684625,-0.163754,-0.164625,-1.53398,-0.540255,-0.269466,-0.247708
26,45,-1.0472,-0.698132,-0.174533,-0.174533,-1.03441,-0.684625,-0.163754,-0.164625,-1.53398,-0.540255,-0.269466,-0.247708
26,45,-1.0472,-0.698132,-0.174533,-0.174533,-1.03441,-0.684625,-0.163754,-0.164625,-1.53398,-0.540255,-0.269466,-0.247708
26,45,-1.0472,-0.698132,-0.174533,-0.174533,-1.03441,-0.684625,-0.163754,-0.164625,-1.53398,-0.540255,-0.269466,-0.247708
26,45,-1.0472,-0.698132,-0.174533,-0.174533,-1.03441,-0.684625,-0.163754,-0.164625,-1.53398,-0.540255,-0.269466,-0.247708
26,45,-1.0472,-0.698132,-0.174533,-0.174533,-1.03441,-0.684625,-0.163754,-0.164625,-1.53398,-0.540255,-0.269466,-0.247708
26,45,-1.0472,-0.698132,-0.174533,-0.174533,-1.03441,-0.684625,-0.163754,-0.164625,-1.53398,-0.540255,-0.269466,-0.247708
26,45,-1.0472,-0.698132,-0.174533,-0.174533,-1.03441,-0.684625,-0.163754,-0.164625,-1.53398,-0.540255,-0.269466,-0.247708
26,45,-1.0472,-0.698132,-0.174533,-0.174533,-1.03441,-0.684625,-0.163754,-0.164625,-1.53398,-0.540255,-0.269466,-0.247708
26,45,-1.0472,-0.698132,-0.174533,-0.174533,-1.03441,-0.684625,-0.163754,-0.164625,-1.53398,-0.540255,-0.269466,-0.247708
26,45,-1.0472,-0.698132,-0.174533,-0.174533,-1.03441,-0.684625,-0.163754,-0.164625,-1.53398,-0.540255,-0.269466,-0.247708
26,45,-1.0472,-0.698132,-0.174533,-0.174533,-1.03441,-0.684625,-0.163754,-0.164625,-1.53398,-0.540255,-0.269466,-0.247708
26,45,-1.0472,-0.698132,-0.174533,-0.174533,-1.03441,-0.684625,-0.163754,-0.164625,-1.53398,-0.540255,-0.269466,-0.247708
26,45,-1.0472,-0.698132,-0.174533,-0.174533,-1.03441,-0.684625,-0.163754,-0.164625,-1.53398,-0.540255,-0.269466,-0.247708
26,45,-1.0472,-0.698132,-0.174533,-0.174533,-1.03441,-0.684625,-0.163754,-0.164625,-1.53398,-0.540255,-0.269466,-0.247708
26,45,-1.0472,-0.698132,-0.174533,-0.174533,-1.03441,-0.684625,-0.163754,-0.164625,-1.53398,-0.540255,-0.269466,-0.247708
26,45,-1.0472,-0.698132,-0.174533,-0.174533,-1.03441,-0.684625,-0.163754,-0.164625,-1.53398,-0.540255,-0.269466,-0.247708
26,45,-1.0472,-0.698132,-0.174533,-0.174533,-1.03441,-0.684625,-0.163754,-0.164625,-1.53398,-0.540255,-0.269466,-0.247708
26,45,-1.0472,-0.698132,-0.174533,-0.174533,-1.03441,-0.684625,-0.163754,-0.164625,-1.53398,-0.540255,-0.269466,-0.247708
26,45,-1.0472,-0.698132,-0.174533,-0.174533,-1.03441,-0.684625,-0.163754,-0.164625,-1.53398,-0.540255,-0.269466,-0.247708
26,45,-1.0472,-0.698132,-0.174533,-0.174533,-1.03441,-0.684625,-0.163754,-0.164625,-1.53398,-0.540255,-0.269466,-0.247708
26,45,-1.0472,-0.698132,-0.174533,-0.174533,-1.03441,-0.684625,-0.163754,-0.164625,-1.53398,-0.540255,-0.269466,-0.247708
26,45,-1.0472,-0.698132,-0.174533,-0.174533,-1.03441,-0.684625,-0.163754,-0.164625,-1.53398,-0.540255,-0.269466,-0.247708
26,45,-1.0472,-0.698132,-0.174533,-0.174533,-1.03441,-0.684625,-0.163754,-0.164625,-1.53398,-0.540255,-0.269466,-0.247708
26,45,-1.0472,-0.698132,-0.174533,-0.174533,-1.03441,-0.684625,-0.163754,-0.164625,-1.53398,-0.540255,-0.269466,-0.247708
26,45,-1.0472,-0.698132,-0.174533,-0.174533,-1.03441,-0.684625,-0.163754,-0.164625,-1.53398,-0.540255,-0.269466,-0.247708
26,45,-1.0472,-0.698132,-0.174533,-0.174533,-1.03441,-0.684625,-0.163754,-0.164625,-1.53398,-0.540255,-0.269466,-0.247708
26,45,-1.0472,-0.698132,-0.174533,-0.174533,-1.03441,-0.684625,-0.163754,-0.164625,-1.53398,-0.540255,-0.269466,-0.247708
26,45,-1.0472,-0.698132,-0.174533,-0.174533,-1.03441,-0.684625,-0.163754,-0.164625,-1.53398,-0.540255,-0.269466,-0.247708
26,45,-1.0472,-0.698132,-0.174533,-0.174533,-1.03441,-0.684625,-0.163754,-0.164625,-1.53398,-0.540255,-0.269466,-0.247708
26,45,-1.0472,-0.698132,-0.174533,-0.174533,-1.03441,-0.684625,-0.163754,-0.164625,-1.53398,-0.540255,-0.269466,-0.247708
26,45,-1.0472,-0.698132,-0.174533,-0.174533,-1.03441,-0.684625,-0.163754,-0.164625,-1.53398,-0.540255,-0.269466,-0.247708
26,45,-1.0472,-0.698132,-0.174533,-0.174533,-1.03441,-0.684625,-0.163754,-0.164625,-1.53398,-0.540255,-0.269466,-0.247708
26,45,-1.0472,-0.698132,-0.174533,-0.174533,-1.03441,-0.684625,-0.163754,-0.164625,-1.53398,-0.540255,-0.269466,-0.247708
26,45,-1.0472,-0.698132,-0.174533,-0.174533,-1.03441,-0.684625,-0.163754,-0.164625,-1.53398,-0.540255,-0.269466,-0.247708
26,45,-1.0472,-0.698132,-0.174533,-0.174533,-1.03441,-0.684625,-0.16375,-0.164563,-1.53398,-0.540255,-0.269579,-0.249242
26,45,-1.0472,-0.698132,-0.174533,-0.174533,-1.03441,-0.684625,-0.16375,-0.164563,-1.53398,-0.540255,-0.269579,-0.249242
26,45,-1.0472,-0.698132,-0.174533,-0.174533,-1.03441,-0.684625,-0.16375,-0.164563,-1.53398,-0.540255,-0.269579,-0.249242
26,45,-1.0472,-0.698132,-0.174533,-0.174533,-1.03441,-0.684625,-0.16375,-0.164563,-1.53398,-0.540255,-0.269579,-0.249242
26,45,-1.0472,-0.698132,-0.174533,-0.174533,-1.03441,-0.684625,-0.16375,-0.164563,-1.53398,-0.540255,-0.269579,-0.249242
26,45,-1.0472,-0.698132,-0.174533,-0.174533,-1.03441,-0.684625,-0.16375,-0.164563,-1.53398,-0.540255,-0.269579,-0.249242
26,45,-1.0472,-0.698132,-0.174533,-0.174533,-1.03441,-0.684625,-0.16375,-0.164563,-1.53398,-0.540255,-0.269579,-0.249242
26,45,-1.0472,-0.698132,-0.174533,-0.174533,-1.03441,-0.684625,-0.16375,-0.164563,-1.53398,-0.540255,-0.269579,-0.249242
26,45,-1.0472,-0.698132,-0.174533,-0.174533,-1.03441,-0.684625,-0.16375,-0.164563,-1.53398,-0.540255,-0.269579,-0.249242
26,45,-1.0472,-0.698132,-0.174533,-0.174533,-1.03441,-0.684625,-0.16375,-0.164563,-1.53398,-0.540255,-0.269579,-0.249242
26,45,-1.0472,-0.698132,-0.174533,-0.174533,-1.03441,-0.684625,-0.16375,-0.164563,-1.53398,-0.540255,-0.269579,-0.249242
26,45,-1.0472,-0.698132,-0.174533,-0.174533,-1.03441,-0.684625,-0.16375,-0.164563,-1.53398,-0.540255,-0.269579,-0.249242
26,45,-1.0472,-0.698132,-0.174533,-0.174533,-1.03441,-0.684625,-0.16375,-0.164563,-1.53398,-0.540255,-0.269579,-0.249242
26,45,-1.0472,-0.698132,-0.174533,-0.174533,-1.03441,-0.684625,-0.16375,-0.164563,-1.53398,-0.540255,-0.269579,-0.249242
26,45,-1.0472,-0.698132,-0.174533,-0.174533,-1.03441,-0.684625,-0.16375,-0.164563,-1.53398,-0.540255,-0.269579,-0.249242
26,45,-1.0472,-0.698132,-0.174533,-0.174533,-1.03441,-0.684625,-0.16375,-0.164563,-1.53398,-0.540255,-0.269579,-0.249242
26,45,-1.0472,-0.698132,-0.174533,-0.174533,-1.03441,-0.684625,-0.16375,-0.164563,-1.53398,-0.540255,-0.269579,-0.249242
26,45,-1.0472,-0.698132,-0.174533,-0.174533,-1.03441,-0.684625,-0.16375,-0.164563,-1.53398,-0.540255,-0.269579,-0.249242
26,45,-1.0472,-0.698132,-0.174533,-0.174533,-1.03441,-0.684625,-0.16375,-0.164563,-1.53398,-0.540255,-0.269579,-0.249242
26,45,-1.0472,-0.698132,-0.174533,-0.174533,-1.03441,-0.684625,-0.16375,-0.164563,-1.53398,-0.540255,-0.269579,-0.249242
26,45,-1.0472,-0.698132,-0.174533,-0.174533,-1.03441,-0.684625,-0.16375,-0.164563,-1.53398,-0.540255,-0.269579,-0.249242
26,45,-1.0472,-0.698132,-0.174533,-0.174533,-1.03441,-0.684625,-0.16375,-0.164563,-1.53398,-0.540255,-0.269579,-0.249242
26,45,-1.0472,-0.698132,-0.174533,-0.174533,-1.03441,-0.684625,-0.16375,-0.164563,-1.53398,-0.540255,-0.269579,-0.249242
26,45,-1.0472,-0.698132,-0.174533,-0.174533,-1.03441,-0.684625,-0.16375,-0.164563,-1.53398,-0.540255,-0.269579,-0.249242
26,45,-1.0472,-0.698132,-0.174533,-0.174533,-1.03441,-0.684625,-0.16375,-0.164563,-1.53398,-0.540255,-0.269579,-0.249242
26,45,-1.0472,-0.698132,-0.174533,-0.174533,-1.03441,-0.684625,-0.16375,-0.164563,-1.53398,-0.540255,-0.269579,-0.249242
26,45,-1.0472,-0.698132,-0.174533,-0.174533,-1.03441,-0.684625,-0.16375,-0.164563,-1.53398,-0.540255,-0.269579,-0.249242
26,45,-1.0472,-0.698132,-0.174533,-0.174533,-1.03441,-0.684625,-0.16375,-0.164563,-1.53398,-0.540255,-0.269579,-0.249242
26,45,-1.0472,-0.698132,-0.174533,-0.174533,-1.03441,-0.684625,-0.16375,-0.164563,-1.53398,-0.540255,-0.269579,-0.249242
26,45,-1.0472,-0.698132,-0.174533,-0.174533,-1.03441,-0.684625,-0.16375,-0.164563,-1.53398,-0.540255,-0.269579,-0.249242
26,45,-1.0472,-0.698132,-0.174533,-0.174533,-1.03441,-0.684625,-0.16375,-0.164563,-1.53398,-0.540255,-0.269579,-0.249242
26,45,-1.0472,-0.698132,-0.174533,-0.174533,-1.03441,-0.684625,-0.16375,-0.164563,-1.53398,-0.540255,-0.269579,-0.249242
26,45,-1.0472,-0.698132,-0.174533,-0.174533,-1.03441,-0.684625,-0.16375,-0.164563,-1.53398,-0.540255,-0.269579,-0.249242
26,45,-1.0472,-0.698132,-0.174533,-0.174533,-1.03441,-0.684625,-0.16375,-0.164563,-1.53398,-0.540255,-0.269579,-0.249242
26,45,-1.0472,-0.698132,-0.174533,-0.174533,-1.03441,-0.684625,-0.16375,-0.164563,-1.53398,-0.540255,-0.269579,-0.249242
26,45,-1.0472,-0.698132,-0.174533,-0.174533,-1.03441,-0.684625,-0.16375,-0.164563,-1.53398,-0.540255,-0.269579,-0.249242
26,45,-1.0472,-0.698132,-0.174533,-0.174533,-1.03441,-0.684625,-0.16375,-0.164563,-1.53398,-0.540255,-0.269579,-0.249242
26,45,-1.0472,-0.698132,-0.174533,-0.174533,-1.03441,-0.684625,-0.16375,-0.164563,-1.53398,-0.540255,-0.269579,-0.249242
26,45,-1.0472,-0.698132,-0.174533,-0.174533,-1.03441,-0.684625,-0.16375,-0.164563,-1.53398,-0.540255,-0.269579,-0.249242
26,45,-1.0472,-0.698132,-0.174533,-0.174533,-1.03441,-0.684625,-0.16375,-0.164563,-1.53398,-0.540255,-0.269579,-0.249242
26,45,-1.0472,-0.698132,-0.174533,-0.174533,-1.03441,-0.684625,-0.16375,-0.164563,-1.53398,-0.540255,-0.269579,-0.249242
26,45,-1.0472,-0.698132,-0.174533,-0.174533,-1.03441,-0.684625,-0.16375,-0.164563,-1.53398,-0.540255,-0.269579,-0.249242
26,45,-1.0472,-0.698132,-0.174533,-0.174533,-1.03441,-0.684625,-0.16375,-0.164563,-1.53398,-0.540255,-0.269579,-0.249242
26,45,-1.0472,-0.698132,-0.174533,-0.174533,-1.03441,-0.684625,-0.16375,-0.164563,-1.53398,-0.540255,-0.269579,-0.249242
26,45,-1.0472,-0.698132,-0.174533,-0.174533,-1.03441,-0.684625,-0.16375,-0.164563,-1.53398,-0.540255,-0.269579,-0.249242
26,45,-1.0472,-0.698132,-0.174533,-0.174533,-1.03441,-0.684625,-0.16375,-0.164563,-1.53398,-0.540255,-0.269579,-0.249242
26,45,-1.0472,-0.698132,-0.174533,-0.174533,-1.03441,-0.684625,-0.16375,-0.164563,-1.53398,-0.540255,-0.269579,-0.249242
26,45,-1.0472,-0.698132,-0.174533,-0.174533,-1.03441,-0.684625,-0.16375,-0.164563,-1.53398,-0.540255,-0.269579,-0.249242
26,45,-1.0472,-0.698132,-0.174533,-0.174533,-1.03441,-0.684625,-0.16375,-0.164563,-1.53398,-0.540255,-0.269579,-0.249242
26,45,-1.0472,-0.698132,-0.174533,-0.174533,-1.03441,-0.684625,-0.16375,-0.164563,-1.53398,-0.540255,-0.269579,-0.249242
26,45,-1.0472,-0.698132,-0.174533,-0.174533,-1.03441,-0.684625,-0.16375,-0.164563,-1.53398,-0.540255,-0.269579,-0.249242
26,45,-1.0472,-0.698132,-0.174533,-0.174533,-1.03441,-0.684625,-0.16375,-0.164563,-1.53398,-0.540255,-0.269579,-0.249242
26,45,-1.0472,-0.698132,-0.174533,-0.174533,-1.03441,-0.684625,-0.16375,-0.164563,-1.53398,-0.540255,-0.269579,-0.249242
26,45,-1.0472,-0.698132,-0.174533,-0.174533,-1.03441,-0.684625,-0.16375,-0.164563,-1.53398,-0.540255,-0.269579,-0.249242
26,45,-1.0472,-0.698132,-0.174533,-0.174533,-1.03441,-0.684625,-0.16375,-0.164563,-1.53398,-0.540255,-0.269579,-0.249242
26,45,-1.0472,-0.698132,-0.174533,-0.174533,-1.03441,-0.684625,-0.16375,-0.164563,-1.53398,-0.540255,-0.269579,-0.249242
26,45,-1.0472,-0.698132,-0.174533,-0.174533,-1.03441,-0.684625,-0.16375,-0.164563,-1.53398,-0.540255,-0.269579,-0.249242
26,45,-1.0472,-0.698132,-0.174533,-0.174533,-1.03441,-0.684625,-0.16375,-0.164563,-1.53398,-0.540255,-0.269579,-0.249242
26,45,-1.0472,-0.698132,-0.174533,-0.174533,-1.03441,-0.684625,-0.16375,-0.164563,-1.53398,-0.540255,-0.269579,-0.249242
26,45,-1.0472,-0.698132,-0.174533,-0.174533,-1.03441,-0.684625,-0.16375,-0.164563,-1.53398,-0.540255,-0.269579,-0.249242
26,45,-1.0472,-0.698132,-0.174533,-0.174533,-1.03441,-0.684625,-0.16375,-0.164563,-1.53398,-0.540255,-0.269579,-0.249242
26,45,-1.0472,-0.698132,-0.174533,-0.174533,-1.03441,-0.684625,-0.16375,-0.164563,-1.53398,-0.540255,-0.269579,-0.249242
26,45,-1.0472,-0.698132,-0.174533,-0.174533,-1.03441,-0.684625,-0.16375,-0.164563,-1.53398,-0.540255,-0.269579,-0.249242
26,45,-1.0472,-0.698132,-0.174533,-0.174533,-1.03441,-0.684625,-0.16375,-0.164563,-1.53398,-0.540255,-0.269579,-0.249242
26,45,-1.0472,-0.698132,-0.174533,-0.174533,-1.03441,-0.684625,-0.16375,-0.164563,-1.53398,-0.540255,-0.269579,-0.249242
26,45,-1.0472,-0.698132,-0.174533,-0.174533,-1.03441,-0.684625,-0.163809,-0.164543,-1.53398,-0.540255,-0.268103,-0.249736
26,45,-1.0472,-0.698132,-0.174533,-0.174533,-1.03441,-0.684625,-0.163809,-0.164543,-1.53398,-0.540255,-0.268103,-0.249736
26,45,-1.0472,-0.698132,-0.174533,-0.174533,-1.03441,-0.684625,-0.163809,-0.164543,-1.53398,-0.540255,-0.268103,-0.249736
26,45,-1.0472,-0.698132,-0.174533,-0.174533,-1.03441,-0.684625,-0.163809,-0.164543,-1.53398,-0.540255,-0.268103,-0.249736
26,45,-1.0472,-0.698132,-0.174533,-0.174533,-1.03441,-0.684625,-0.163809,-0.164543,-1.53398,-0.540255,-0.268103,-0.249736
26,45,-1.0472,-0.698132,-0.174533,-0.174533,-1.03441,-0.684625,-0.163809,-0.164543,-1.53398,-0.540255,-0.268103,-0.249736
26,45,-1.0472,-0.698132,-0.174533,-0.174533,-1.03441,-0.684625,-0.163809,-0.164543,-1.53398,-0.540255,-0.268103,-0.249736
26,45,-1.0472,-0.698132,-0.174533,-0.174533,-1.03441,-0.684625,-0.163809,-0.164543,-1.53398,-0.540255,-0.268103,-0.249736
26,45,-1.0472,-0.698132,-0.174533,-0.174533,-1.03441,-0.684625,-0.163809,-0.164543,-1.53398,-0.540255,-0.268103,-0.249736
26,45,-1.0472,-0.698132,-0.174533,-0.174533,-1.03441,-0.684625,-0.163809,-0.164543,-1.53398,-0.540255,-0.268103,-0.249736
26,45,-1.0472,-0.698132,-0.174533,-0.174533,-1.03441,-0.684625,-0.163809,-0.164543,-1.53398,-0.540255,-0.268103,-0.249736
26,45,-1.0472,-0.698132,-0.174533,-0.174533,-1.03441,-0.684625,-0.163809,-0.164543,-1.53398,-0.540255,-0.268103,-0.249736
26,45,-1.0472,-0.698132,-0.174533,-0.174533,-1.03441,-0.684625,-0.163809,-0.164543,-1.53398,-0.540255,-0.268103,-0.249736
26,45,-1.0472,-0.698132,-0.174533,-0.174533,-1.03441,-0.684625,-0.163809,-0.164543,-1.53398,-0.540255,-0.268103,-0.249736
26,45,-1.0472,-0.698132,-0.174533,-0.174533,-1.03441,-0.684625,-0.163809,-0.164543,-1.53398,-0.540255,-0.268103,-0.249736
26,45,-1.0472,-0.698132,-0.174533,-0.174533,-1.03441,-0.684625,-0.163809,-0.164543,-1.53398,-0.540255,-0.268103,-0.249736
26,45,-1.0472,-0.698132,-0.174533,-0.174533,-1.03441,-0.684625,-0.163809,-0.164543,-1.53398,-0.540255,-0.268103,-0.249736
26,45,-1.0472,-0.698132,-0.174533,-0.174533,-1.03441,-0.684625,-0.163809,-0.164543,-1.53398,-0.540255,-0.268103,-0.249736
26,45,-1.0472,-0.698132,-0.174533,-0.174533,-1.03441,-0.684625,-0.163809,-0.164543,-1.53398,-0.540255,-0.268103,-0.249736
26,45,-1.0472,-0.698132,-0.174533,-0.174533,-1.03441,-0.684625,-0.163809,-0.164543,-1.53398,-0.540255,-0.268103,-0.249736
26,45,-1.0472,-0.698132,-0.174533,-0.174533,-1.03441,-0.684625,-0.163809,-0.164543,-1.53398,-0.540255,-0.268103,-0.249736
26,45,-1.0472,-0.698132,-0.174533,-0.174533,-1.03441,-0.684625,-0.163745,-0.164502,-1.53398,-0.540255,-0.269693,-0.250776
26,45,-1.0472,-0.698132,-0.174533,-0.174533,-1.03441,-0.684625,-0.163745,-0.164502,-1.53398,-0.540255,-0.269693,-0.250776
26,45,-1.0472,-0.698132,-0.174533,-0.174533,-1.03441,-0.684625,-0.163745,-0.164502,-1.53398,-0.540255,-0.269693,-0.250776
26,45,-1.0472,-0.698132,-0.174533,-0.174533,-1.03441,-0.684625,-0.163745,-0.164502,-1.53398,-0.540255,-0.269693,-0.250776
26,45,-1.0472,-0.698132,-0.174533,-0.174533,-1.03441,-0.684625,-0.163745,-0.164502,-1.53398,-0.540255,-0.269693,-0.250776
26,45,-1.0472,-0.698132,-0.174533,-0.174533,-1.03441,-0.684625,-0.163745,-0.164502,-1.53398,-0.540255,-0.269693,-0.250776
26,45,-1.0472,-0.698132,-0.174533,-0.174533,-1.03441,-0.684625,-0.163745,-0.164502,-1.53398,-0.540255,-0.269693,-0.250776
26,45,-1.0472,-0.698132,-0.174533,-0.174533,-1.03441,-0.684625,-0.163745,-0.164502,-1.53398,-0.540255,-0.269693,-0.250776
26,45,-1.0472,-0.698132,-0.174533,-0.174533,-1.03441,-0.684625,-0.163745,-0.164502,-1.53398,-0.540255,-0.269693,-0.250776
26,45,-1.0472,-0.698132,-0.174533,-0.174533,-1.03441,-0.684625,-0.163745,-0.164502,-1.53398,-0.540255,-0.269693,-0.250776
26,45,-1.0472,-0.698132,-0.174533,-0.174533,-1.03441,-0.684625,-0.163745,-0.164502,-1.53398,-0.540255,-0.269693,-0.250776
26,45,-1.0472,-0.698132,-0.174533,-0.174533,-1.03441,-0.684625,-0.163745,-0.164502,-1.53398,-0.540255,-0.269693,-0.250776
26,45,-1.0472,-0.698132,-0.174533,-0.174533,-1.03441,-0.684625,-0.163745,-0.164502,-1.53398,-0.540255,-0.269693,-0.250776
26,45,-1.0472,-0.698132,-0.174533,-0.174533,-1.03441,-0.684625,-0.163745,-0.164502,-1.53398,-0.540255,-0.269693,-0.250776
26,45,-1.0472,-0.698132,-0.174533,-0.174533,-1.03441,-0.684625,-0.163745,-0.164502,-1.53398,-0.540255,-0.269693,-0.250776
26,45,-1.0472,-0.698132,-0.174533,-0.174533,-1.03441,-0.684625,-0.163745,-0.164502,-1.53398,-0.540255,-0.269693,-0.250776
26,45,-1.0472,-0.698132,-0.174533,-0.174533,-1.03441,-0.684625,-0.163745,-0.164502,-1.53398,-0.540255,-0.269693,-0.250776
26,45,-1.0472,-0.698132,-0.174533,-0.174533,-1.03441,-0.684625,-0.163745,-0.164502,-1.53398,-0.540255,-0.269693,-0.250776
26,45,-1.0472,-0.698132,-0.174533,-0.174533,-1.03441,-0.684625,-0.163745,-0.164502,-1.53398,-0.540255,-0.269693,-0.250776
26,45,-1.0472,-0.698132,-0.174533,-0.174533,-1.03441,-0.684625,-0.163745,-0.164502,-1.53398,-0.540255,-0.269693,-0.250776
26,45,-1.0472,-0.698132,-0.174533,-0.174533,-1.03441,-0.684625,-0.163745,-0.164502,-1.53398,-0.540255,-0.269693,-0.250776
26,45,-1.0472,-0.698132,-0.174533,-0.174533,-1.03441,-0.684625,-0.163745,-0.164502,-1.53398,-0.540255,-0.269693,-0.250776
26,45,-1.0472,-0.698132,-0.174533,-0.174533,-1.03441,-0.684625,-0.163745,-0.164502,-1.53398,-0.540255,-0.269693,-0.250776
26,45,-1.0472,-0.698132,-0.174533,-0.174533,-1.03441,-0.684625,-0.163745,-0.164502,-1.53398,-0.540255,-0.269693,-0.250776
26,45,-1.0472,-0.698132,-0.174533,-0.174533,-1.03441,-0.684625,-0.163745,-0.164502,-1.53398,-0.540255,-0.269693,-0.250776
26,45,-1.0472,-0.698132,-0.174533,-0.174533,-1.03441,-0.684625,-0.163745,-0.164502,-1.53398,-0.540255,-0.269693,-0.250776
26,45,-1.0472,-0.698132,-0.174533,-0.174533,-1.03441,-0.684625,-0.163745,-0.164502,-1.53398,-0.540255,-0.269693,-0.250776
26,45,-1.0472,-0.698132,-0.174533,-0.174533,-1.03441,-0.684625,-0.163745,-0.164502,-1.53398,-0.540255,-0.269693,-0.250776
26,45,-1.0472,-0.698132,-0.174533,-0.174533,-1.03441,-0.684625,-0.163745,-0.164502,-1.53398,-0.540255,-0.269693,-0.250776
26,45,-1.0472,-0.698132,-0.174533,-0.174533,-1.03441,-0.684625,-0.163745,-0.164502,-1.53398,-0.540255,-0.269693,-0.250776
26,45,-1.0472,-0.698132,-0.174533,-0.174533,-1.03441,-0.684625,-0.163682,-0.16446,-1.53398,-0.540255,-0.271283,-0.251817
26,45,-1.0472,-0.698132,-0.174533,-0.174533,-1.03441,-0.684625,-0.163682,-0.16446,-1.53398,-0.540255,-0.271283,-0.251817
26,45,-1.0472,-0.698132,-0.174533,-0.174533,-1.03441,-0.684625,-0.163682,-0.16446,-1.53398,-0.540255,-0.271283,-0.251817
26,45,-1.0472,-0.698132,-0.174533,-0.174533,-1.03441,-0.684625,-0.163682,-0.16446,-1.53398,-0.540255,-0.271283,-0.251817
26,45,-1.0472,-0.698132,-0.174533,-0.174533,-1.03441,-0.684625,-0.163682,-0.16446,-1.53398,-0.540255,-0.271283,-0.251817
26,45,-1.0472,-0.698132,-0.174533,-0.174533,-1.03441,-0.684625,-0.163682,-0.16446,-1.53398,-0.540255,-0.271283,-0.251817
26,45,-1.0472,-0.698132,-0.174533,-0.174533,-1.03441,-0.684625,-0.163682,-0.16446,-1.53398,-0.540255,-0.271283,-0.251817
26,45,-1.0472,-0.698132,-0.174533,-0.174533,-1.03441,-0.684625,-0.163682,-0.16446,-1.53398,-0.540255,-0.271283,-0.251817
26,45,-1.0472,-0.698132,-0.174533,-0.174533,-1.03441,-0.684625,-0.163682,-0.16446,-1.53398,-0.540255,-0.271283,-0.251817
26,45,-1.0472,-0.698132,-0.174533,-0.174533,-1.03441,-0.684625,-0.163682,-0.16446,-1.53398,-0.540255,-0.271283,-0.251817
26,45,-1.0472,-0.698132,-0.174533,-0.174533,-1.03441,-0.684625,-0.163682,-0.16446,-1.53398,-0.540255,-0.271283,-0.251817
26,45,-1.0472,-0.698132,-0.174533,-0.174533,-1.03441,-0.684625,-0.163682,-0.16446,-1.53398,-0.540255,-0.271283,-0.251817
26,45,-1.0472,-0.698132,-0.174533,-0.174533,-1.03441,-0.684625,-0.163682,-0.16446,-1.53398,-0.540255,-0.271283,-0.251817
26,45,-1.0472,-0.698132,-0.174533,-0.174533,-1.03441,-0.684625,-0.163682,-0.16446,-1.53398,-0.540255,-0.271283,-0.251817
26,45,-1.0472,-0.698132,-0.174533,-0.174533,-1.03441,-0.684625,-0.163682,-0.16446,-1.53398,-0.540255,-0.271283,-0.251817
26,45,-1.0472,-0.698132,-0.174533,-0.174533,-1.03441,-0.684625,-0.163682,-0.16446,-1.53398,-0.540255,-0.271283,-0.251817
26,45,-1.0472,-0.698132,-0.174533,-0.174533,-1.03441,-0.684625,-0.163682,-0.16446,-1.53398,-0.540255,-0.271283,-0.251817
26,45,-1.0472,-0.698132,-0.174533,-0.174533,-1.03441,-0.684625,-0.163682,-0.16446,-1.53398,-0.540255,-0.271283,-0.251817
26,45,-1.0472,-0.698132,-0.174533,-0.174533,-1.03441,-0.684625,-0.163682,-0.16446,-1.53398,-0.540255,-0.271283,-0.251817
26,45,-1.0472,-0.698132,-0.174533,-0.174533,-1.03441,-0.684625,-0.163682,-0.16446,-1.53398,-0.540255,-0.271283,-0.251817
26,45,-1.0472,-0.698132,-0.174533,-0.174533,-1.03441,-0.684625,-0.163682,-0.16446,-1.53398,-0.540255,-0.271283,-0.251817
26,45,-1.0472,-0.698132,-0.174533,-0.174533,-1.03441,-0.684625,-0.163682,-0.16446,-1.53398,-0.540255,-0.271283,-0.251817
26,45,-1.0472,-0.698132,-0.174533,-0.174533,-1.03441,-0.684625,-0.163682,-0.16446,-1.53398,-0.540255,-0.271283,-0.251817
26,45,-1.0472,-0.698132,-0.174533,-0.174533,-1.03441,-0.684625,-0.163682,-0.16446,-1.53398,-0.540255,-0.271283,-0.251817
26,45,-1.0472,-0.698132,-0.174533,-0.174533,-1.03441,-0.684625,-0.163682,-0.16446,-1.53398,-0.540255,-0.271283,-0.251817
26,45,-1.0472,-0.698132,-0.174533,-0.174533,-1.03441,-0.684625,-0.163682,-0.16446,-1.53398,-0.540255,-0.271283,-0.251817
26,45,-1.0472,-0.698132,-0.174533,-0.174533,-1.03441,-0.684625,-0.163682,-0.16446,-1.53398,-0.540255,-0.271283,-0.251817
26,45,-1.0472,-0.698132,-0.174533,-0.174533,-1.03441,-0.684625,-0.163682,-0.16446,-1.53398,-0.540255,-0.271283,-0.251817
26,45,-1.0472,-0.698132,-0.174533,-0.174533,-1.03441,-0.684625,-0.163682,-0.16446,-1.53398,-0.540255,-0.271283,-0.251817
26,45,-1.0472,-0.698132,-0.174533,-0.174533,-1.03441,-0.684625,-0.163682,-0.16446,-1.53398,-0.540255,-0.271283,-0.251817
26,45,-1.0472,-0.698132,-0.174533,-0.174533,-1.03441,-0.684625,-0.163682,-0.16446,-1.53398,-0.540255,-0.271283,-0.251817
26,45,-1.0472,-0.698132,-0.174533,-0.174533,-1.03441,-0.684625,-0.163682,-0.16446,-1.53398,-0.540255,-0.271283,-0.251817
26,45,-1.0472,-0.698132,-0.174533,-0.174533,-1.03441,-0.684625,-0.163682,-0.16446,-1.53398,-0.540255,-0.271283,-0.251817
26,45,-1.0472,-0.698132,-0.174533,-0.174533,-1.03441,-0.684625,-0.163682,-0.16446,-1.53398,-0.540255,-0.271283,-0.251817
26,45,-1.0472,-0.698132,-0.174533,-0.174533,-1.03441,-0.684625,-0.163682,-0.16446,-1.53398,-0.540255,-0.271283,-0.251817
26,45,-1.0472,-0.698132,-0.174533,-0.174533,-1.03441,-0.684625,-0.163682,-0.16446,-1.53398,-0.540255,-0.271283,-0.251817
26,45,-1.0472,-0.698132,-0.174533,-0.174533,-1.03441,-0.684625,-0.163682,-0.16446,-1.53398,-0.540255,-0.271283,-0.251817
26,45,-1.0472,-0.698132,-0.174533,-0.174533,-1.03441,-0.684625,-0.163682,-0.16446,-1.53398,-0.540255,-0.271283,-0.251817
26,45,-1.0472,-0.698132,-0.174533,-0.174533,-1.03441,-0.684625,-0.163682,-0.16446,-1.53398,-0.540255,-0.271283,-0.251817
26,45,-1.0472,-0.698132,-0.174533,-0.174533,-1.03441,-0.684625,-0.163618,-0.164419,-1.53398,-0.540255,-0.272873,-0.252857
26,45,-1.0472,-0.698132,-0.174533,-0.174533,-1.03441,-0.684625,-0.163618,-0.164419,-1.53398,-0.540255,-0.272873,-0.252857
26,45,-1.0472,-0.698132,-0.174533,-0.174533,-1.03441,-0.684625,-0.163618,-0.164419,-1.53398,-0.540255,-0.272873,-0.252857
26,45,-1.0472,-0.698132,-0.174533,-0.174533,-1.03441,-0.684625,-0.163618,-0.164419,-1.53398,-0.540255,-0.272873,-0.252857
26,45,-1.0472,-0.698132,-0.174533,-0.174533,-1.03441,-0.684625,-0.163618,-0.164419,-1.53398,-0.540255,-0.272873,-0.252857
26,45,-1.0472,-0.698132,-0.174533,-0.174533,-1.03441,-0.684625,-0.163618,-0.164419,-1.53398,-0.540255,-0.272873,-0.252857
26,45,-1.0472,-0.698132,-0.174533,-0.174533,-1.03441,-0.684625,-0.163618,-0.164419,-1.53398,-0.540255,-0.272873,-0.252857
26,45,-1.0472,-0.698132,-0.174533,-0.174533,-1.03441,-0.684625,-0.163618,-0.164419,-1.53398,-0.540255,-0.272873,-0.252857
26,45,-1.0472,-0.698132,-0.174533,-0.174533,-1.03441,-0.684625,-0.163618,-0.164419,-1.53398,-0.540255,-0.272873,-0.252857
26,45,-1.0472,-0.698132,-0.174533,-0.174533,-1.03441,-0.684625,-0.163618,-0.164419,-1.53398,-0.540255,-0.272873,-0.252857
26,45,-1.0472,-0.698132,-0.174533,-0.174533,-1.03441,-0.684625,-0.163618,-0.164419,-1.53398,-0.540255,-0.272873,-0.252857
26,45,-1.0472,-0.698132,-0.174533,-0.174533,-1.03441,-0.684625,-0.163618,-0.164419,-1.53398,-0.540255,-0.272873,-0.252857
26,45,-1.0472,-0.698132,-0.174533,-0.174533,-1.03441,-0.684625,-0.163618,-0.164419,-1.53398,-0.540255,-0.272873,-0.252857
26,45,-1.0472,-0.698132,-0.174533,-0.174533,-1.03441,-0.684625,-0.163618,-0.164419,-1.53398,-0.540255,-0.272873,-0.252857
26,45,-1.0472,-0.698132,-0.174533,-0.174533,-1.03441,-0.684625,-0.163618,-0.164419,-1.53398,-0.540255,-0.272873,-0.252857
26,45,-1.0472,-0.698132,-0.174533,-0.174533,-1.03441,-0.684625,-0.163618,-0.164419,-1.53398,-0.540255,-0.272873,-0.252857
26,45,-1.0472,-0.698132,-0.174533,-0.174533,-1.03441,-0.684625,-0.163618,-0.164419,-1.53398,-0.540255,-0.272873,-0.252857
26,45,-1.0472,-0.698132,-0.174533,-0.174533,-1.03441,-0.684625,-0.163618,-0.164419,-1.53398,-0.540255,-0.272873,-0.252857
26,45,-1.0472,-0.698132,-0.174533,-0.174533,-1.03441,-0.684625,-0.163618,-0.164419,-1.53398,-0.540255,-0.272873,-0.252857
26,45,-1.0472,-0.698132,-0.174533,-0.174533,-1.03441,-0.684625,-0.163618,-0.164419,-1.53398,-0.540255,-0.272873,-0.252857
26,45,-1.0472,-0.698132,-0.174533,-0.174533,-1.03441,-0.684625,-0.163618,-0.164419,-1.53398,-0.540255,-0.272873,-0.252857
26,45,-1.0472,-0.698132,-0.174533,-0.174533,-1.03441,-0.684625,-0.163618,-0.164419,-1.53398,-0.540255,-0.272873,-0.252857
26,45,-1.0472,-0.698132,-0.174533,-0.174533,-1.03441,-0.684625,-0.163618,-0.164419,-1.53398,-0.540255,-0.272873,-0.252857
26,45,-1.0472,-0.698132,-0.174533,-0.174533,-1.03441,-0.684625,-0.163618,-0.164419,-1.53398,-0.540255,-0.272873,-0.252857
26,45,-1.0472,-0.698132,-0.174533,-0.174533,-1.03441,-0.684625,-0.163618,-0.164419,-1.53398,-0.540255,-0.272873,-0.252857
26,45,-1.0472,-0.698132,-0.174533,-0.174533,-1.03441,-0.684625,-0.163618,-0.164419,-1.53398,-0.540255,-0.272873,-0.252857
26,45,-1.0472,-0.698132,-0.174533,-0.174533,-1.03441,-0.684625,-0.163618,-0.164419,-1.53398,-0.540255,-0.272873,-0.252857
26,45,-1.0472,-0.698132,-0.174533,-0.174533,-1.03441,-0.684625,-0.163618,-0.164419,-1.53398,-0.540255,-0.272873,-0.252857
26,45,-1.0472,-0.698132,-0.174533,-0.174533,-1.03441,-0.684625,-0.163618,-0.164419,-1.53398,-0.540255,-0.272873,-0.252857
26,45,-1.0472,-0.698132,-0.174533,-0.174533,-1.03441,-0.684625,-0.163618,-0.164419,-1.53398,-0.540255,-0.272873,-0.252857
26,45,-1.0472,-0.698132,-0.174533,-0.174533,-1.03441,-0.684625,-0.163618,-0.164419,-1.53398,-0.540255,-0.272873,-0.252857
26,45,-1.0472,-0.698132,-0.174533,-0.174533,-1.03441,-0.684625,-0.163618,-0.164419,-1.53398,-0.540255,-0.272873,-0.252857
26,45,-1.0472,-0.698132,-0.174533,-0.174533,-1.03441,-0.684625,-0.163618,-0.164419,-1.53398,-0.540255,-0.272873,-0.252857
26,45,-1.0472,-0.698132,-0.174533,-0.174533,-1.03441,-0.684625,-0.163618,-0.164419,-1.53398,-0.540255,-0.272873,-0.252857
26,45,-1.0472,-0.698132,-0.174533,-0.174533,-1.03441,-0.684625,-0.163618,-0.164419,-1.53398,-0.540255,-0.272873,-0.252857
26,45,-1.0472,-0.698132,-0.174533,-0.174533,-1.03441,-0.684625,-0.163618,-0.164419,-1.53398,-0.540255,-0.272873,-0.252857
26,45,-1.0472,-0.698132,-0.174533,-0.174533,-1.03441,-0.684625,-0.163618,-0.164419,-1.53398,-0.540255,-0.272873,-0.252857
26,45,-1.0472,-0.698132,-0.174533,-0.174533,-1.03441,-0.684625,-0.163618,-0.164419,-1.53398,-0.540255,-0.272873,-0.252857
26,45,-1.0472,-0.698132,-0.174533,-0.174533,-1.03441,-0.684625,-0.163618,-0.164419,-1.53398,-0.540255,-0.272873,-0.252857
26,45,-1.0472,-0.698132,-0.174533,-0.174533,-1.03441,-0.684625,-0.163618,-0.164419,-1.53398,-0.540255,-0.272873,-0.252857
26,45,-1.0472,-0.698132,-0.174533,-0.174533,-1.03441,-0.684625,-0.163618,-0.164419,-1.53398,-0.540255,-0.272873,-0.252857
26,45,-1.0472,-0.698132,-0.174533,-0.174533,-1.03441,-0.684625,-0.163618,-0.164419,-1.53398,-0.540255,-0.272873,-0.252857
26,45,-1.0472,-0.698132,-0.174533,-0.174533,-1.03441,-0.684625,-0.163618,-0.164419,-1.53398,-0.540255,-0.272873,-0.252857
26,45,-1.0472,-0.698132,-0.174533,-0.174533,-1.03441,-0.684625,-0.163618,-0.164419,-1.53398,-0.540255,-0.272873,-0.252857
26,45,-1.0472,-0.698132,-0.174533,-0.174533,-1.03441,-0.684625,-0.163618,-0.164419,-1.53398,-0.540255,-0.272873,-0.252857
26,45,-1.0472,-0.698132,-0.174533,-0.174533,-1.03441,-0.684625,-0.163618,-0.164419,-1.53398,-0.540255,-0.272873,-0.252857
26,45,-1.0472,-0.698132,-0.174533,-0.174533,-1.03441,-0.684625,-0.163618,-0.164419,-1.53398,-0.540255,-0.272873,-0.252857
26,45,-1.0472,-0.698132,-0.174533,-0.174533,-1.03441,-0.684625,-0.163618,-0.164419,-1.53398,-0.540255,-0.272873,-0.252857
26,45,-1.0472,-0.698132,-0.174533,-0.174533,-1.03441,-0.684625,-0.163618,-0.164419,-1.53398,-0.540255,-0.272873,-0.252857
26,45,-1.0472,-0.698132,-0.174533,-0.174533,-1.03441,-0.684625,-0.163618,-0.164419,-1.53398,-0.540255,-0.272873,-0.252857
26,45,-1.0472,-0.698132,-0.174533,-0.174533,-1.03441,-0.684625,-0.163618,-0.164419,-1.53398,-0.540255,-0.272873,-0.252857
26,45,-1.0472,-0.698132,-0.174533,-0.174533,-1.03441,-0.684625,-0.163618,-0.164419,-1.53398,-0.540255,-0.272873,-0.252857
26,45,-1.0472,-0.698132,-0.174533,-0.174533,-1.03441,-0.684625,-0.163618,-0.164419,-1.53398,-0.540255,-0.272873,-0.252857
26,45,-1.0472,-0.698132,-0.174533,-0.174533,-1.03441,-0.684625,-0.163618,-0.164419,-1.53398,-0.540255,-0.272873,-0.252857
26,45,-1.0472,-0.698132,-0.174533,-0.174533,-1.03441,-0.684625,-0.163618,-0.164419,-1.53398,-0.540255,-0.272873,-0.252857
26,45,-1.0472,-0.698132,-0.174533,-0.174533,-1.03441,-0.684625,-0.163618,-0.164419,-1.53398,-0.540255,-0.272873,-0.252857
26,45,-1.0472,-0.698132,-0.174533,-0.174533,-1.03441,-0.684625,-0.163618,-0.164419,-1.53398,-0.540255,-0.272873,-0.252857
26,45,-1.0472,-0.698132,-0.174533,-0.174533,-1.03441,-0.684625,-0.163618,-0.164419,-1.53398,-0.540255,-0.272873,-0.252857
26,45,-1.0472,-0.698132,-0.174533,-0.174533,-1.03441,-0.684625,-0.163618,-0.164419,-1.53398,-0.540255,-0.272873,-0.252857
26,45,-1.0472,-0.698132,-0.174533,-0.174533,-1.03441,-0.684625,-0.163618,-0.164419,-1.53398,-0.540255,-0.272873,-0.252857
26,45,-1.0472,-0.698132,-0.174533,-0.174533,-1.03441,-0.684625,-0.163618,-0.164419,-1.53398,-0.540255,-0.272873,-0.252857
26,45,-1.0472,-0.698132,-0.174533,-0.174533,-1.03441,-0.684625,-0.163618,-0.164419,-1.53398,-0.540255,-0.272873,-0.252857
26,45,-1.0472,-0.698132,-0.174533,-0.174533,-1.03441,-0.684625,-0.163618,-0.164419,-1.53398,-0.540255,-0.272873,-0.252857
26,45,-1.0472,-0.698132,-0.174533,-0.174533,-1.03441,-0.684625,-0.163618,-0.164419,-1.53398,-0.540255,-0.272873,-0.252857
26,45,-1.0472,-0.698132,-0.174533,-0.174533,-1.03441,-0.684625,-0.163618,-0.164419,-1.53398,-0.540255,-0.272873,-0.252857
26,45,-1.0472,-0.698132,-0.174533,-0.174533,-1.03441,-0.684625,-0.163618,-0.164419,-1.53398,-0.540255,-0.272873,-0.252857
26,45,-1.0472,-0.698132,-0.174533,-0.174533,-1.03441,-0.684625,-0.163618,-0.164419,-1.53398,-0.540255,-0.272873,-0.252857
26,45,-1.0472,-0.698132,-0.174533,-0.174533,-1.03441,-0.684625,-0.163618,-0.164419,-1.53398,-0.540255,-0.272873,-0.252857
26,45,-1.0472,-0.698132,-0.174533,-0.174533,-1.03441,-0.684625,-0.163618,-0.164419,-1.53398,-0.540255,-0.272873,-0.252857
26,45,-1.0472,-0.698132,-0.174533,-0.174533,-1.03441,-0.684625,-0.163618,-0.164419,-1.53398,-0.540255,-0.272873,-0.252857
26,45,-1.0472,-0.698132,-0.174533,-0.174533,-1.03441,-0.684625,-0.163618,-0.164419,-1.53398,-0.540255,-0.272873,-0.252857
26,45,-1.0472,-0.698132,-0.174533,-0.174533,-1.03441,-0.684625,-0.163618,-0.164419,-1.53398,-0.540255,-0.272873,-0.252857
26,45,-1.0472,-0.698132,-0.174533,-0.174533,-1.03441,-0.684625,-0.163618,-0.164419,-1.53398,-0.540255,-0.272873,-0.252857
26,45,-1.0472,-0.698132,-0.174533,-0.174533,-1.03441,-0.684625,-0.163618,-0.164419,-1.53398,-0.540255,-0.272873,-0.252857
26,45,-1.0472,-0.698132,-0.174533,-0.174533,-1.03441,-0.684625,-0.163618,-0.164419,-1.53398,-0.540255,-0.272873,-0.252857
26,45,-1.0472,-0.698132,-0.174533,-0.174533,-1.03441,-0.684625,-0.163618,-0.164419,-1.53398,-0.540255,-0.272873,-0.252857
26,45,-1.0472,-0.698132,-0.174533,-0.174533,-1.03441,-0.684625,-0.163618,-0.164419,-1.53398,-0.540255,-0.272873,-0.252857
26,45,-1.0472,-0.698132,-0.174533,-0.174533,-1.03441,-0.684625,-0.163618,-0.164419,-1.53398,-0.540255,-0.272873,-0.252857
26,45,-1.0472,-0.698132,-0.174533,-0.174533,-1.03441,-0.684625,-0.163618,-0.164419,-1.53398,-0.540255,-0.272873,-0.252857
26,45,-1.0472,-0.698132,-0.174533,-0.174533,-1.03441,-0.684625,-0.163618,-0.164419,-1.53398,-0.540255,-0.272873,-0.252857
26,45,-1.0472,-0.698132,-0.174533,-0.174533,-1.03441,-0.684625,-0.163618,-0.164419,-1.53398,-0.540255,-0.272873,-0.252857
26,45,-1.0472,-0.698132,-0.174533,-0.174533,-1.03441,-0.684625,-0.163618,-0.164419,-1.53398,-0.540255,-0.272873,-0.252857
26,45,-1.0472,-0.698132,-0.174533,-0.174533,-1.03441,-0.684625,-0.163618,-0.164419,-1.53398,-0.540255,-0.272873,-0.252857
26,45,-1.0472,-0.698132,-0.174533,-0.174533,-1.03441,-0.684625,-0.163618,-0.164419,-1.53398,-0.540255,-0.272873,-0.252857
26,45,-1.0472,-0.698132,-0.174533,-0.174533,-1.03441,-0.684625,-0.163618,-0.164419,-1.53398,-0.540255,-0.272873,-0.252857
26,45,-1.0472,-0.698132,-0.174533,-0.174533,-1.03441,-0.684625,-0.163618,-0.164419,-1.53398,-0.540255,-0.272873,-0.252857
26,45,-1.0472,-0.698132,-0.174533,-0.174533,-1.03441,-0.684625,-0.163618,-0.164419,-1.53398,-0.540255,-0.272873,-0.252857
26,45,-1.0472,-0.698132,-0.174533,-0.174533,-1.03441,-0.684625,-0.163618,-0.164419,-1.53398,-0.540255,-0.272873,-0.252857
26,45,-1.0472,-0.698132,-0.174533,-0.174533,-1.03441,-0.684625,-0.163618,-0.164419,-1.53398,-0.540255,-0.272873,-0.252857
26,45,-1.0472,-0.698132,-0.174533,-0.174533,-1.03441,-0.684625,-0.163618,-0.164419,-1.53398,-0.540255,-0.272873,-0.252857
26,45,-1.0472,-0.698132,-0.174533,-0.174533,-1.03441,-0.684625,-0.163618,-0.164419,-1.53398,-0.540255,-0.272873,-0.252857
26,45,-1.0472,-0.698132,-0.174533,-0.174533,-1.03441,-0.684625,-0.163618,-0.164419,-1.53398,-0.540255,-0.272873,-0.252857
26,45,-1.0472,-0.698132,-0.174533,-0.174533,-1.03441,-0.684625,-0.163618,-0.164419,-1.53398,-0.540255,-0.272873,-0.252857
26,45,-1.0472,-0.698132,-0.174533,-0.174533,-1.03441,-0.684625,-0.163618,-0.164419,-1.53398,-0.540255,-0.272873,-0.252857
26,45,-1.0472,-0.698132,-0.174533,-0.174533,-1.03441,-0.684625,-0.163618,-0.164419,-1.53398,-0.540255,-0.272873,-0.252857
26,45,-1.0472,-0.698132,-0.174533,-0.174533,-1.03441,-0.684625,-0.163618,-0.164419,-1.53398,-0.540255,-0.272873,-0.252857
26,45,-1.0472,-0.698132,-0.174533,-0.174533,-1.03441,-0.684625,-0.163618,-0.164419,-1.53398,-0.540255,-0.272873,-0.252857
26,45,-1.0472,-0.698132,-0.174533,-0.174533,-1.03441,-0.684625,-0.163618,-0.164419,-1.53398,-0.540255,-0.272873,-0.252857
26,45,-1.0472,-0.698132,-0.174533,-0.174533,-1.03441,-0.684625,-0.163618,-0.164419,-1.53398,-0.540255,-0.272873,-0.252857
26,45,-1.0472,-0.698132,-0.174533,-0.174533,-1.03441,-0.684625,-0.163618,-0.164419,-1.53398,-0.540255,-0.272873,-0.252857
26,45,-1.0472,-0.698132,-0.174533,-0.174533,-1.03441,-0.684625,-0.163618,-0.164419,-1.53398,-0.540255,-0.272873,-0.252857
26,45,-1.0472,-0.698132,-0.174533,-0.174533,-1.03441,-0.684625,-0.163618,-0.164419,-1.53398,-0.540255,-0.272873,-0.252857
26,45,-1.0472,-0.698132,-0.174533,-0.174533,-1.03441,-0.684625,-0.163618,-0.164419,-1.53398,-0.540255,-0.272873,-0.252857
26,45,-1.0472,-0.698132,-0.174533,-0.174533,-1.03441,-0.684625,-0.163618,-0.164419,-1.53398,-0.540255,-0.272873,-0.252857
26,45,-1.0472,-0.698132,-0.174533,-0.174533,-1.03441,-0.684625,-0.163618,-0.164419,-1.53398,-0.540255,-0.272873,-0.252857
26,45,-1.0472,-0.698132,-0.174533,-0.174533,-1.03441,-0.684625,-0.163618,-0.164419,-1.53398,-0.540255,-0.272873,-0.252857
26,45,-1.0472,-0.698132,-0.174533,-0.174533,-1.03441,-0.684625,-0.163618,-0.164419,-1.53398,-0.540255,-0.272873,-0.252857
26,45,-1.0472,-0.698132,-0.174533,-0.174533,-1.03441,-0.684625,-0.163618,-0.164419,-1.53398,-0.540255,-0.272873,-0.252857
26,45,-1.0472,-0.698132,-0.174533,-0.174533,-1.03441,-0.684625,-0.163618,-0.164419,-1.53398,-0.540255,-0.272873,-0.252857
26,45,-1.0472,-0.698132,-0.174533,-0.174533,-1.03441,-0.684625,-0.163618,-0.164419,-1.53398,-0.540255,-0.272873,-0.252857
26,45,-1.0472,-0.698132,-0.174533,-0.174533,-1.03441,-0.684625,-0.163618,-0.164419,-1.53398,-0.540255,-0.272873,-0.252857
26,45,-1.0472,-0.698132,-0.174533,-0.174533,-1.03441,-0.684625,-0.163618,-0.164419,-1.53398,-0.540255,-0.272873,-0.252857
26,45,-1.0472,-0.698132,-0.174533,-0.174533,-1.03441,-0.684625,-0.163618,-0.164419,-1.53398,-0.540255,-0.272873,-0.252857
26,45,-1.0472,-0.698132,-0.174533,-0.174533,-1.03441,-0.684625,-0.163618,-0.164419,-1.53398,-0.540255,-0.272873,-0.252857
26,45,-1.0472,-0.698132,-0.174533,-0.174533,-1.03441,-0.684625,-0.163618,-0.164419,-1.53398,-0.540255,-0.272873,-0.252857
26,45,-1.0472,-0.698132,-0.174533,-0.174533,-1.03441,-0.684625,-0.163618,-0.164419,-1.53398,-0.540255,-0.272873,-0.252857
26,45,-1.0472,-0.698132,-0.174533,-0.174533,-1.03441,-0.684625,-0.163618,-0.164419,-1.53398,-0.540255,-0.272873,-0.252857
26,45,-1.0472,-0.698132,-0.174533,-0.174533,-1.03441,-0.684625,-0.163618,-0.164419,-1.53398,-0.540255,-0.272873,-0.252857
26,45,-1.0472,-0.698132,-0.174533,-0.174533,-1.03441,-0.684625,-0.163618,-0.164419,-1.53398,-0.540255,-0.272873,-0.252857
26,45,-1.0472,-0.698132,-0.174533,-0.174533,-1.03441,-0.684625,-0.163618,-0.164419,-1.53398,-0.540255,-0.272873,-0.252857
26,45,-1.0472,-0.698132,-0.174533,-0.174533,-1.03441,-0.684625,-0.163618,-0.164419,-1.53398,-0.540255,-0.272873,-0.252857
26,45,-1.0472,-0.698132,-0.174533,-0.174533,-1.03441,-0.684625,-0.163618,-0.164419,-1.53398,-0.540255,-0.272873,-0.252857
26,45,-1.0472,-0.698132,-0.174533,-0.174533,-1.03441,-0.684625,-0.163618,-0.164419,-1.53398,-0.540255,-0.272873,-0.252857
26,45,-1.0472,-0.698132,-0.174533,-0.174533,-1.03441,-0.684625,-0.163618,-0.164419,-1.53398,-0.540255,-0.272873,-0.252857
26,45,-1.0472,-0.698132,-0.174533,-0.174533,-1.03441,-0.684625,-0.163618,-0.164419,-1.53398,-0.540255,-0.272873,-0.252857
26,45,-1.0472,-0.698132,-0.174533,-0.174533,-1.03441,-0.684625,-0.163618,-0.164419,-1.53398,-0.540255,-0.272873,-0.252857
26,45,-1.0472,-0.698132,-0.174533,-0.174533,-1.03441,-0.684625,-0.163618,-0.164419,-1.53398,-0.540255,-0.272873,-0.252857
26,45,-1.0472,-0.698132,-0.174533,-0.174533,-1.03441,-0.684625,-0.163618,-0.164419,-1.53398,-0.540255,-0.272873,-0.252857
26,45,-1.0472,-0.698132,-0.174533,-0.174533,-1.03441,-0.684625,-0.163618,-0.164419,-1.53398,-0.540255,-0.272873,-0.252857
26,45,-1.0472,-0.698132,-0.174533,-0.174533,-1.03441,-0.684625,-0.163618,-0.164419,-1.53398,-0.540255,-0.272873,-0.252857
26,45,-1.0472,-0.698132,-0.174533,-0.174533,-1.03441,-0.684625,-0.163618,-0.164419,-1.53398,-0.540255,-0.272873,-0.252857
26,45,-1.0472,-0.698132,-0.174533,-0.174533,-1.03441,-0.684625,-0.163618,-0.164419,-1.53398,-0.540255,-0.272873,-0.252857
26,45,-1.0472,-0.698132,-0.174533,-0.174533,-1.03441,-0.684625,-0.163618,-0.164419,-1.53398,-0.540255,-0.272873,-0.252857
26,45,-1.0472,-0.698132,-0.174533,-0.174533,-1.03441,-0.684625,-0.163618,-0.164419,-1.53398,-0.540255,-0.272873,-0.252857
26,45,-1.0472,-0.698132,-0.174533,-0.174533,-1.03441,-0.684625,-0.163618,-0.164419,-1.53398,-0.540255,-0.272873,-0.252857
26,45,-1.0472,-0.698132,-0.174533,-0.174533,-1.03441,-0.684625,-0.163618,-0.164419,-1.53398,-0.540255,-0.272873,-0.252857
26,45,-1.0472,-0.698132,-0.174533,-0.174533,-1.03441,-0.684625,-0.163618,-0.164419,-1.53398,-0.540255,-0.272873,-0.252857
26,45,-1.0472,-0.698132,-0.174533,-0.174533,-1.03441,-0.684625,-0.163618,-0.164419,-1.53398,-0.540255,-0.272873,-0.252857
26,45,-1.0472,-0.698132,-0.174533,-0.174533,-1.03441,-0.684625,-0.163618,-0.164419,-1.53398,-0.540255,-0.272873,-0.252857
26,45,-1.0472,-0.698132,-0.174533,-0.174533,-1.03441,-0.684625,-0.163618,-0.164419,-1.53398,-0.540255,-0.272873,-0.252857
26,45,-1.0472,-0.698132,-0.174533,-0.174533,-1.03441,-0.684625,-0.163618,-0.164419,-1.53398,-0.540255,-0.272873,-0.252857
26,45,-1.0472,-0.698132,-0.174533,-0.174533,-1.03441,-0.684625,-0.163618,-0.164419,-1.53398,-0.540255,-0.272873,-0.252857
26,45,-1.0472,-0.698132,-0.174533,-0.174533,-1.03441,-0.684625,-0.163618,-0.164419,-1.53398,-0.540255,-0.272873,-0.252857
26,45,-1.0472,-0.698132,-0.174533,-0.174533,-1.03441,-0.684625,-0.163618,-0.164419,-1.53398,-0.540255,-0.272873,-0.252857
26,45,-1.0472,-0.698132,-0.174533,-0.174533,-1.03441,-0.684625,-0.163618,-0.164419,-1.53398,-0.540255,-0.272873,-0.252857
26,45,-1.0472,-0.698132,-0.174533,-0.174533,-1.03441,-0.684625,-0.163618,-0.164419,-1.53398,-0.540255,-0.272873,-0.252857
26,45,-1.0472,-0.698132,-0.174533,-0.174533,-1.03441,-0.684625,-0.163618,-0.164419,-1.53398,-0.540255,-0.272873,-0.252857
26,45,-1.0472,-0.698132,-0.174533,-0.174533,-1.03441,-0.684625,-0.163618,-0.164419,-1.53398,-0.540255,-0.272873,-0.252857
26,45,-1.0472,-0.698132,-0.174533,-0.174533,-1.03441,-0.684625,-0.163618,-0.164419,-1.53398,-0.540255,-0.272873,-0.252857
26,45,-1.0472,-0.698132,-0.174533,-0.174533,-1.03441,-0.684625,-0.163618,-0.164419,-1.53398,-0.540255,-0.272873,-0.252857
26,45,-1.0472,-0.698132,-0.174533,-0.174533,-1.03441,-0.684625,-0.163618,-0.164419,-1.53398,-0.540255,-0.272873,-0.252857
26,45,-1.0472,-0.698132,-0.174533,-0.174533,-1.03441,-0.684625,-0.163618,-0.164419,-1.53398,-0.540255,-0.272873,-0.252857
26,45,-1.0472,-0.698132,-0.174533,-0.174533,-1.03441,-0.684625,-0.163618,-0.164419,-1.53398,-0.540255,-0.272873,-0.252857
26,45,-1.0472,-0.698132,-0.174533,-0.174533,-1.03441,-0.684625,-0.163618,-0.164419,-1.53398,-0.540255,-0.272873,-0.252857
26,45,-1.0472,-0.698132,-0.174533,-0.174533,-1.03441,-0.684625,-0.163618,-0.164419,-1.53398,-0.540255,-0.272873,-0.252857
26,45,-1.0472,-0.698132,-0.174533,-0.174533,-1.03441,-0.684625,-0.163618,-0.164419,-1.53398,-0.540255,-0.272873,-0.252857
26,45,-1.0472,-0.698132,-0.174533,-0.174533,-1.03441,-0.684625,-0.163618,-0.164419,-1.53398,-0.540255,-0.272873,-0.252857
26,45,-1.0472,-0.698132,-0.174533,-0.174533,-1.03441,-0.684625,-0.163618,-0.164419,-1.53398,-0.540255,-0.272873,-0.252857
26,45,-1.0472,-0.698132,-0.174533,-0.174533,-1.03441,-0.684625,-0.163618,-0.164419,-1.53398,-0.540255,-0.272873,-0.252857
26,45,-1.0472,-0.698132,-0.174533,-0.174533,-1.03441,-0.684625,-0.163618,-0.164419,-1.53398,-0.540255,-0.272873,-0.252857
26,45,-1.0472,-0.698132,-0.174533,-0.174533,-1.03441,-0.684625,-0.163618,-0.164419,-1.53398,-0.540255,-0.272873,-0.252857
26,45,-1.0472,-0.698132,-0.174533,-0.174533,-1.03441,-0.684625,-0.163618,-0.164419,-1.53398,-0.540255,-0.272873,-0.252857
26,45,-1.0472,-0.698132,-0.174533,-0.174533,-1.03441,-0.684625,-0.163618,-0.164419,-1.53398,-0.540255,-0.272873,-0.252857
26,45,-1.0472,-0.698132,-0.174533,-0.174533,-1.03441,-0.684625,-0.163618,-0.164419,-1.53398,-0.540255,-0.272873,-0.252857
26,45,-1.0472,-0.698132,-0.174533,-0.174533,-1.03441,-0.684625,-0.163618,-0.164419,-1.53398,-0.540255,-0.272873,-0.252857
26,45,-1.0472,-0.698132,-0.174533,-0.174533,-1.03441,-0.684625,-0.163618,-0.164419,-1.53398,-0.540255,-0.272873,-0.252857
26,45,-1.0472,-0.698132,-0.174533,-0.174533,-1.03441,-0.684625,-0.163618,-0.164419,-1.53398,-0.540255,-0.272873,-0.252857
26,45,-1.0472,-0.698132,-0.174533,-0.174533,-1.03441,-0.684625,-0.163618,-0.164419,-1.53398,-0.540255,-0.272873,-0.252857
26,45,-1.0472,-0.698132,-0.174533,-0.174533,-1.03441,-0.684625,-0.163618,-0.164419,-1.53398,-0.540255,-0.272873,-0.252857
26,45,-1.0472,-0.698132,-0.174533,-0.174533,-1.03441,-0.684625,-0.163618,-0.164419,-1.53398,-0.540255,-0.272873,-0.252857
26,45,-1.0472,-0.698132,-0.174533,-0.174533,-1.03441,-0.684625,-0.163618,-0.164419,-1.53398,-0.540255,-0.272873,-0.252857
26,45,-1.0472,-0.698132,-0.174533,-0.174533,-1.03441,-0.684625,-0.163618,-0.164419,-1.53398,-0.540255,-0.272873,-0.252857
26,45,-1.0472,-0.698132,-0.174533,-0.174533,-1.03441,-0.684625,-0.163618,-0.164419,-1.53398,-0.540255,-0.272873,-0.252857
26,45,-1.0472,-0.698132,-0.174533,-0.174533,-1.03441,-0.684625,-0.163618,-0.164419,-1.53398,-0.540255,-0.272873,-0.252857
26,45,-1.0472,-0.698132,-0.174533,-0.174533,-1.03441,-0.684625,-0.163618,-0.164419,-1.53398,-0.540255,-0.272873,-0.252857
26,45,-1.0472,-0.698132,-0.174533,-0.174533,-1.03441,-0.684625,-0.163618,-0.164419,-1.53398,-0.540255,-0.272873,-0.252857
26,45,-1.0472,-0.698132,-0.174533,-0.174533,-1.03441,-0.684625,-0.163618,-0.164419,-1.53398,-0.540255,-0.272873,-0.252857
26,45,-1.0472,-0.698132,-0.174533,-0.174533,-1.03441,-0.684625,-0.163618,-0.164419,-1.53398,-0.540255,-0.272873,-0.252857
26,45,-1.0472,-0.698132,-0.174533,-0.174533,-1.03441,-0.684625,-0.163618,-0.164419,-1.53398,-0.540255,-0.272873,-0.252857
26,45,-1.0472,-0.698132,-0.174533,-0.174533,-1.03441,-0.684625,-0.163618,-0.164419,-1.53398,-0.540255,-0.272873,-0.252857
26,45,-1.0472,-0.698132,-0.174533,-0.174533,-1.03441,-0.684625,-0.163618,-0.164419,-1.53398,-0.540255,-0.272873,-0.252857
26,45,-1.0472,-0.698132,-0.174533,-0.174533,-1.03441,-0.684625,-0.163618,-0.164419,-1.53398,-0.540255,-0.272873,-0.252857
26,45,-1.0472,-0.698132,-0.174533,-0.174533,-1.03441,-0.684625,-0.163618,-0.164419,-1.53398,-0.540255,-0.272873,-0.252857
26,45,-1.0472,-0.698132,-0.174533,-0.174533,-1.03441,-0.684625,-0.163618,-0.164419,-1.53398,-0.540255,-0.272873,-0.252857
26,45,-1.0472,-0.698132,-0.174533,-0.174533,-1.03441,-0.684625,-0.163618,-0.164419,-1.53398,-0.540255,-0.272873,-0.252857
26,45,-1.0472,-0.698132,-0.174533,-0.174533,-1.03441,-0.684625,-0.163618,-0.164419,-1.53398,-0.540255,-0.272873,-0.252857
26,45,-1.0472,-0.698132,-0.174533,-0.174533,-1.03441,-0.684625,-0.163618,-0.164419,-1.53398,-0.540255,-0.272873,-0.252857
26,45,-1.0472,-0.698132,-0.174533,-0.174533,-1.03441,-0.684625,-0.163618,-0.164419,-1.53398,-0.540255,-0.272873,-0.252857
26,45,-1.0472,-0.698132,-0.174533,-0.174533,-1.03441,-0.684625,-0.163618,-0.164419,-1.53398,-0.540255,-0.272873,-0.252857
26,45,-1.0472,-0.698132,-0.174533,-0.174533,-1.03441,-0.684625,-0.163618,-0.164419,-1.53398,-0.540255,-0.272873,-0.252857
26,45,-1.0472,-0.698132,-0.174533,-0.174533,-1.03441,-0.684625,-0.163618,-0.164419,-1.53398,-0.540255,-0.272873,-0.252857
26,45,-1.0472,-0.698132,-0.174533,-0.174533,-1.03441,-0.684625,-0.163618,-0.164419,-1.53398,-0.540255,-0.272873,-0.252857
26,45,-1.0472,-0.698132,-0.174533,-0.174533,-1.03441,-0.684625,-0.163618,-0.164419,-1.53398,-0.540255,-0.272873,-0.252857
26,45,-1.0472,-0.698132,-0.174533,-0.174533,-1.03441,-0.684625,-0.163618,-0.164419,-1.53398,-0.540255,-0.272873,-0.252857
26,45,-1.0472,-0.698132,-0.174533,-0.174533,-1.03441,-0.684625,-0.163618,-0.164419,-1.53398,-0.540255,-0.272873,-0.252857
26,45,-1.0472,-0.698132,-0.174533,-0.174533,-1.03441,-0.684625,-0.163618,-0.164419,-1.53398,-0.540255,-0.272873,-0.252857
26,45,-1.0472,-0.698132,-0.174533,-0.174533,-1.03441,-0.684625,-0.163618,-0.164419,-1.53398,-0.540255,-0.272873,-0.252857
26,45,-1.0472,-0.698132,-0.174533,-0.174533,-1.03441,-0.684625,-0.163618,-0.164419,-1.53398,-0.540255,-0.272873,-0.252857
26,45,-1.0472,-0.698132,-0.174533,-0.174533,-1.03441,-0.684625,-0.163618,-0.164419,-1.53398,-0.540255,-0.272873,-0.252857
26,45,-1.0472,-0.698132,-0.174533,-0.174533,-1.03441,-0.684625,-0.163618,-0.164419,-1.53398,-0.540255,-0.272873,-0.252857
26,45,-1.0472,-0.698132,-0.174533,-0.174533,-1.03441,-0.684625,-0.163618,-0.164419,-1.53398,-0.540255,-0.272873,-0.252857
26,45,-1.0472,-0.698132,-0.174533,-0.174533,-1.03441,-0.684625,-0.163618,-0.164419,-1.53398,-0.540255,-0.272873,-0.252857
26,45,-1.0472,-0.698132,-0.174533,-0.174533,-1.03441,-0.684625,-0.163618,-0.164419,-1.53398,-0.540255,-0.272873,-0.252857
26,45,-1.0472,-0.698132,-0.174533,-0.174533,-1.03441,-0.684625,-0.163618,-0.164419,-1.53398,-0.540255,-0.272873,-0.252857
26,45,-1.0472,-0.698132,-0.174533,-0.174533,-1.03441,-0.684625,-0.163618,-0.164419,-1.53398,-0.540255,-0.272873,-0.252857
26,45,-1.0472,-0.698132,-0.174533,-0.174533,-1.03441,-0.684625,-0.163618,-0.164419,-1.53398,-0.540255,-0.272873,-0.252857
26,45,-1.0472,-0.698132,-0.174533,-0.174533,-1.03441,-0.684625,-0.163618,-0.164419,-1.53398,-0.540255,-0.272873,-0.252857
26,45,-1.0472,-0.698132,-0.174533,-0.174533,-1.03441,-0.684625,-0.163618,-0.164419,-1.53398,-0.540255,-0.272873,-0.252857
26,45,-1.0472,-0.698132,-0.174533,-0.174533,-1.03441,-0.684625,-0.163677,-0.164399,-1.53398,-0.540255,-0.271397,-0.253351
26,45,-1.0472,-0.698132,-0.174533,-0.174533,-1.03441,-0.684625,-0.163677,-0.164399,-1.53398,-0.540255,-0.271397,-0.253351
26,45,-1.0472,-0.698132,-0.174533,-0.174533,-1.03441,-0.684625,-0.163677,-0.164399,-1.53398,-0.540255,-0.271397,-0.253351
26,45,-1.0472,-0.698132,-0.174533,-0.174533,-1.03441,-0.684625,-0.163677,-0.164399,-1.53398,-0.540255,-0.271397,-0.253351
26,45,-1.0472,-0.698132,-0.174533,-0.174533,-1.03441,-0.684625,-0.163677,-0.164399,-1.53398,-0.540255,-0.271397,-0.253351
26,45,-1.0472,-0.698132,-0.174533,-0.174533,-1.03441,-0.684625,-0.163677,-0.164399,-1.53398,-0.540255,-0.271397,-0.253351
26,45,-1.0472,-0.698132,-0.174533,-0.174533,-1.03441,-0.684625,-0.163677,-0.164399,-1.53398,-0.540255,-0.271397,-0.253351
26,45,-1.0472,-0.698132,-0.174533,-0.174533,-1.03441,-0.684625,-0.163677,-0.164399,-1.53398,-0.540255,-0.271397,-0.253351
26,45,-1.0472,-0.698132,-0.174533,-0.174533,-1.03441,-0.684625,-0.163677,-0.164399,-1.53398,-0.540255,-0.271397,-0.253351
26,45,-1.0472,-0.698132,-0.174533,-0.174533,-1.03441,-0.684625,-0.163677,-0.164399,-1.53398,-0.540255,-0.271397,-0.253351
26,45,-1.0472,-0.698132,-0.174533,-0.174533,-1.03441,-0.684625,-0.163677,-0.164399,-1.53398,-0.540255,-0.271397,-0.253351
26,45,-1.0472,-0.698132,-0.174533,-0.174533,-1.03441,-0.684625,-0.163677,-0.164399,-1.53398,-0.540255,-0.271397,-0.253351
26,45,-1.0472,-0.698132,-0.174533,-0.174533,-1.03441,-0.684625,-0.163677,-0.164399,-1.53398,-0.540255,-0.271397,-0.253351
26,45,-1.0472,-0.698132,-0.174533,-0.174533,-1.03441,-0.684625,-0.163677,-0.164399,-1.53398,-0.540255,-0.271397,-0.253351
26,45,-1.0472,-0.698132,-0.174533,-0.174533,-1.03441,-0.684625,-0.163677,-0.164399,-1.53398,-0.540255,-0.271397,-0.253351
26,45,-1.0472,-0.698132,-0.174533,-0.174533,-1.03441,-0.684625,-0.163677,-0.164399,-1.53398,-0.540255,-0.271397,-0.253351
26,45,-1.0472,-0.698132,-0.174533,-0.174533,-1.03441,-0.684625,-0.163677,-0.164399,-1.53398,-0.540255,-0.271397,-0.253351
26,45,-1.0472,-0.698132,-0.174533,-0.174533,-1.03441,-0.684625,-0.163677,-0.164399,-1.53398,-0.540255,-0.271397,-0.253351
26,45,-1.0472,-0.698132,-0.174533,-0.174533,-1.03441,-0.684625,-0.163677,-0.164399,-1.53398,-0.540255,-0.271397,-0.253351
26,45,-1.0472,-0.698132,-0.174533,-0.174533,-1.03441,-0.684625,-0.163677,-0.164399,-1.53398,-0.540255,-0.271397,-0.253351
26,45,-1.0472,-0.698132,-0.174533,-0.174533,-1.03441,-0.684625,-0.163677,-0.164399,-1.53398,-0.540255,-0.271397,-0.253351
26,45,-1.0472,-0.698132,-0.174533,-0.174533,-1.03441,-0.684625,-0.163677,-0.164399,-1.53398,-0.540255,-0.271397,-0.253351
26,45,-1.0472,-0.698132,-0.174533,-0.174533,-1.03441,-0.684625,-0.163677,-0.164399,-1.53398,-0.540255,-0.271397,-0.253351
26,45,-1.0472,-0.698132,-0.174533,-0.174533,-1.03441,-0.684625,-0.163677,-0.164399,-1.53398,-0.540255,-0.271397,-0.253351
26,45,-1.0472,-0.698132,-0.174533,-0.174533,-1.03441,-0.684625,-0.163677,-0.164399,-1.53398,-0.540255,-0.271397,-0.253351
26,45,-1.0472,-0.698132,-0.174533,-0.174533,-1.03441,-0.684625,-0.163677,-0.164399,-1.53398,-0.540255,-0.271397,-0.253351
26,45,-1.0472,-0.698132,-0.174533,-0.174533,-1.03441,-0.684625,-0.163677,-0.164399,-1.53398,-0.540255,-0.271397,-0.253351
26,45,-1.0472,-0.698132,-0.174533,-0.174533,-1.03441,-0.684625,-0.163677,-0.164399,-1.53398,-0.540255,-0.271397,-0.253351
26,45,-1.0472,-0.698132,-0.174533,-0.174533,-1.03441,-0.684625,-0.163677,-0.164399,-1.53398,-0.540255,-0.271397,-0.253351
26,45,-1.0472,-0.698132,-0.174533,-0.174533,-1.03441,-0.684625,-0.163677,-0.164399,-1.53398,-0.540255,-0.271397,-0.253351
26,45,-1.0472,-0.698132,-0.174533,-0.174533,-1.03441,-0.684625,-0.163677,-0.164399,-1.53398,-0.540255,-0.271397,-0.253351
26,45,-1.0472,-0.698132,-0.174533,-0.174533,-1.03441,-0.684625,-0.163677,-0.164399,-1.53398,-0.540255,-0.271397,-0.253351
26,45,-1.0472,-0.698132,-0.174533,-0.174533,-1.03441,-0.684625,-0.163677,-0.164399,-1.53398,-0.540255,-0.271397,-0.253351
26,45,-1.0472,-0.698132,-0.174533,-0.174533,-1.03441,-0.684625,-0.163677,-0.164399,-1.53398,-0.540255,-0.271397,-0.253351
26,45,-1.0472,-0.698132,-0.174533,-0.174533,-1.03441,-0.684625,-0.163677,-0.164399,-1.53398,-0.540255,-0.271397,-0.253351
26,45,-1.0472,-0.698132,-0.174533,-0.174533,-1.03441,-0.684625,-0.163677,-0.164399,-1.53398,-0.540255,-0.271397,-0.253351
26,45,-1.0472,-0.698132,-0.174533,-0.174533,-1.03441,-0.684625,-0.163677,-0.164399,-1.53398,-0.540255,-0.271397,-0.253351
26,45,-1.0472,-0.698132,-0.174533,-0.174533,-1.03441,-0.684625,-0.163677,-0.164399,-1.53398,-0.540255,-0.271397,-0.253351
26,45,-1.0472,-0.698132,-0.174533,-0.174533,-1.03441,-0.684625,-0.163613,-0.164357,-1.53398,-0.540255,-0.272987,-0.254391
26,45,-1.0472,-0.698132,-0.174533,-0.174533,-1.03441,-0.684625,-0.163613,-0.164357,-1.53398,-0.540255,-0.272987,-0.254391
26,45,-1.0472,-0.698132,-0.174533,-0.174533,-1.03441,-0.684625,-0.163613,-0.164357,-1.53398,-0.540255,-0.272987,-0.254391
26,45,-1.0472,-0.698132,-0.174533,-0.174533,-1.03441,-0.684625,-0.163613,-0.164357,-1.53398,-0.540255,-0.272987,-0.254391
26,45,-1.0472,-0.698132,-0.174533,-0.174533,-1.03441,-0.684625,-0.163613,-0.164357,-1.53398,-0.540255,-0.272987,-0.254391
26,45,-1.0472,-0.698132,-0.174533,-0.174533,-1.03441,-0.684625,-0.163613,-0.164357,-1.53398,-0.540255,-0.272987,-0.254391
26,45,-1.0472,-0.698132,-0.174533,-0.174533,-1.03441,-0.684625,-0.163613,-0.164357,-1.53398,-0.540255,-0.272987,-0.254391
26,45,-1.0472,-0.698132,-0.174533,-0.174533,-1.03441,-0.684625,-0.163613,-0.164357,-1.53398,-0.540255,-0.272987,-0.254391
26,45,-1.0472,-0.698132,-0.174533,-0.174533,-1.03441,-0.684625,-0.163613,-0.164357,-1.53398,-0.540255,-0.272987,-0.254391
26,45,-1.0472,-0.698132,-0.174533,-0.174533,-1.03441,-0.684625,-0.163613,-0.164357,-1.53398,-0.540255,-0.272987,-0.254391
