stim_pw [us],stim_amp [mA],com_elbow_fe [rad],com_forearm_ps [rad],com_wrist_fe [rad],com_wrist_ru [rad],act_elbow_fe [rad],act_forearm_ps [rad],act_wrist_fe [rad],act_wrist_ru [rad],elbow_fe_trq [Nm],forearm_ps_trq [Nm],wrist_fe_trq [Nm],wrist_ru_trq [Nm]
26,45,-1.0472,-0.698132,-0.174533,-0.174533,-1.03305,-0.687422,-0.155038,-0.173195,-1.6972,-0.428404,-0.487385,-0.0334369
26,45,-1.0472,-0.698132,-0.174533,-0.174533,-1.03305,-0.687422,-0.155038,-0.173195,-1.6972,-0.428404,-0.487385,-0.0334369
26,45,-1.0472,-0.698132,-0.174533,-0.174533,-1.03305,-0.687422,-0.155038,-0.173195,-1.6972,-0.428404,-0.487385,-0.0334369
26,45,-1.0472,-0.698132,-0.174533,-0.174533,-1.03305,-0.687422,-0.155038,-0.173195,-1.6972,-0.428404,-0.487385,-0.0334369
26,45,-1.0472,-0.698132,-0.174533,-0.174533,-1.03305,-0.687422,-0.155038,-0.173195,-1.6972,-0.428404,-0.487385,-0.0334369
26,45,-1.0472,-0.698132,-0.174533,-0.174533,-1.03305,-0.687422,-0.155038,-0.173195,-1.6972,-0.428404,-0.487385,-0.0334369
26,45,-1.0472,-0.698132,-0.174533,-0.174533,-1.03305,-0.687422,-0.155038,-0.173195,-1.6972,-0.428404,-0.487385,-0.0334369
26,45,-1.0472,-0.698132,-0.174533,-0.174533,-1.03305,-0.687422,-0.155038,-0.173195,-1.6972,-0.428404,-0.487385,-0.0334369
26,45,-1.0472,-0.698132,-0.174533,-0.174533,-1.03305,-0.687422,-0.155038,-0.173195,-1.6972,-0.428404,-0.487385,-0.0334369
26,45,-1.0472,-0.698132,-0.174533,-0.174533,-1.03305,-0.687422,-0.155038,-0.173195,-1.6972,-0.428404,-0.487385,-0.0334369
26,45,-1.0472,-0.698132,-0.174533,-0.174533,-1.03305,-0.687422,-0.155038,-0.173195,-1.6972,-0.428404,-0.487385,-0.0334369
26,45,-1.0472,-0.698132,-0.174533,-0.174533,-1.03305,-0.687422,-0.155038,-0.173195,-1.6972,-0.428404,-0.487385,-0.0334369
26,45,-1.0472,-0.698132,-0.174533,-0.174533,-1.03305,-0.687422,-0.155038,-0.173195,-1.6972,-0.428404,-0.487385,-0.0334369
26,45,-1.0472,-0.698132,-0.174533,-0.174533,-1.03305,-0.687422,-0.155038,-0.173195,-1.6972,-0.428404,-0.487385,-0.0334369
26,45,-1.0472,-0.698132,-0.174533,-0.174533,-1.03305,-0.687422,-0.155038,-0.173195,-1.6972,-0.428404,-0.487385,-0.0334369
26,45,-1.0472,-0.698132,-0.174533,-0.174533,-1.03305,-0.687422,-0.155038,-0.173195,-1.6972,-0.428404,-0.487385,-0.0334369
26,45,-1.0472,-0.698132,-0.174533,-0.174533,-1.03305,-0.687422,-0.155038,-0.173195,-1.6972,-0.428404,-0.487385,-0.0334369
26,45,-1.0472,-0.698132,-0.174533,-0.174533,-1.03305,-0.687422,-0.155038,-0.173195,-1.6972,-0.428404,-0.487385,-0.0334369
26,45,-1.0472,-0.698132,-0.174533,-0.174533,-1.03305,-0.687422,-0.155038,-0.173195,-1.6972,-0.428404,-0.487385,-0.0334369
26,45,-1.0472,-0.698132,-0.174533,-0.174533,-1.03305,-0.687422,-0.155038,-0.173195,-1.6972,-0.428404,-0.487385,-0.0334369
26,45,-1.0472,-0.698132,-0.174533,-0.174533,-1.03305,-0.687422,-0.155038,-0.173195,-1.6972,-0.428404,-0.487385,-0.0334369
26,45,-1.0472,-0.698132,-0.174533,-0.174533,-1.03305,-0.687422,-0.155038,-0.173195,-1.6972,-0.428404,-0.487385,-0.0334369
26,45,-1.0472,-0.698132,-0.174533,-0.174533,-1.03305,-0.687422,-0.155038,-0.173195,-1.6972,-0.428404,-0.487385,-0.0334369
26,45,-1.0472,-0.698132,-0.174533,-0.174533,-1.03305,-0.687422,-0.155038,-0.173195,-1.6972,-0.428404,-0.487385,-0.0334369
26,45,-1.0472,-0.698132,-0.174533,-0.174533,-1.03305,-0.687422,-0.155038,-0.173195,-1.6972,-0.428404,-0.487385,-0.0334369
26,45,-1.0472,-0.698132,-0.174533,-0.174533,-1.03305,-0.687422,-0.155038,-0.173195,-1.6972,-0.428404,-0.487385,-0.0334369
26,45,-1.0472,-0.698132,-0.174533,-0.174533,-1.03305,-0.687422,-0.155038,-0.173195,-1.6972,-0.428404,-0.487385,-0.0334369
26,45,-1.0472,-0.698132,-0.174533,-0.174533,-1.03305,-0.687422,-0.155038,-0.173195,-1.6972,-0.428404,-0.487385,-0.0334369
26,45,-1.0472,-0.698132,-0.174533,-0.174533,-1.03305,-0.687422,-0.155101,-0.173237,-1.6972,-0.428404,-0.485789,-0.0324026
26,45,-1.0472,-0.698132,-0.174533,-0.174533,-1.03305,-0.687422,-0.155101,-0.173237,-1.6972,-0.428404,-0.485789,-0.0324026
26,45,-1.0472,-0.698132,-0.174533,-0.174533,-1.03305,-0.687422,-0.155101,-0.173237,-1.6972,-0.428404,-0.485789,-0.0324026
26,45,-1.0472,-0.698132,-0.174533,-0.174533,-1.03305,-0.687422,-0.155101,-0.173237,-1.6972,-0.428404,-0.485789,-0.0324026
26,45,-1.0472,-0.698132,-0.174533,-0.174533,-1.03305,-0.687422,-0.155103,-0.173296,-1.6972,-0.428404,-0.485739,-0.0309158
26,45,-1.0472,-0.698132,-0.174533,-0.174533,-1.03305,-0.687422,-0.155103,-0.173296,-1.6972,-0.428404,-0.485739,-0.0309158
26,45,-1.0472,-0.698132,-0.174533,-0.174533,-1.03305,-0.687422,-0.155103,-0.173296,-1.6972,-0.428404,-0.485739,-0.0309158
26,45,-1.0472,-0.698132,-0.174533,-0.174533,-1.03305,-0.687422,-0.155103,-0.173296,-1.6972,-0.428404,-0.485739,-0.0309158
26,45,-1.0472,-0.698132,-0.174533,-0.174533,-1.03305,-0.687422,-0.155103,-0.173296,-1.6972,-0.428404,-0.485739,-0.0309158
26,45,-1.0472,-0.698132,-0.174533,-0.174533,-1.03305,-0.687422,-0.155103,-0.173296,-1.6972,-0.428404,-0.485739,-0.0309158
26,45,-1.0472,-0.698132,-0.174533,-0.174533,-1.03305,-0.687422,-0.155103,-0.173296,-1.6972,-0.428404,-0.485739,-0.0309158
26,45,-1.0472,-0.698132,-0.174533,-0.174533,-1.03305,-0.687422,-0.155103,-0.173296,-1.6972,-0.428404,-0.485739,-0.0309158
26,45,-1.0472,-0.698132,-0.174533,-0.174533,-1.03305,-0.687422,-0.155103,-0.173296,-1.6972,-0.428404,-0.485739,-0.0309158
26,45,-1.0472,-0.698132,-0.174533,-0.174533,-1.03305,-0.687422,-0.155103,-0.173296,-1.6972,-0.428404,-0.485739,-0.0309158
26,45,-1.0472,-0.698132,-0.174533,-0.174533,-1.03305,-0.687422,-0.155103,-0.173296,-1.6972,-0.428404,-0.485739,-0.0309158
26,45,-1.0472,-0.698132,-0.174533,-0.174533,-1.03305,-0.687422,-0.155103,-0.173296,-1.6972,-0.428404,-0.485739,-0.0309158
26,45,-1.0472,-0.698132,-0.174533,-0.174533,-1.03305,-0.687422,-0.155103,-0.173296,-1.6972,-0.428404,-0.485739,-0.0309158
26,45,-1.0472,-0.698132,-0.174533,-0.174533,-1.03305,-0.687422,-0.155103,-0.173296,-1.6972,-0.428404,-0.485739,-0.0309158
26,45,-1.0472,-0.698132,-0.174533,-0.174533,-1.03305,-0.687422,-0.155103,-0.173296,-1.6972,-0.428404,-0.485739,-0.0309158
26,45,-1.0472,-0.698132,-0.174533,-0.174533,-1.03305,-0.687422,-0.155103,-0.173296,-1.6972,-0.428404,-0.485739,-0.0309158
26,45,-1.0472,-0.698132,-0.174533,-0.174533,-1.03305,-0.687422,-0.155103,-0.173296,-1.6972,-0.428404,-0.485739,-0.0309158
26,45,-1.0472,-0.698132,-0.174533,-0.174533,-1.03305,-0.687422,-0.155103,-0.173296,-1.6972,-0.428404,-0.485739,-0.0309158
26,45,-1.0472,-0.698132,-0.174533,-0.174533,-1.03305,-0.687422,-0.155103,-0.173296,-1.6972,-0.428404,-0.485739,-0.0309158
26,45,-1.0472,-0.698132,-0.174533,-0.174533,-1.03305,-0.687422,-0.155103,-0.173296,-1.6972,-0.428404,-0.485739,-0.0309158
26,45,-1.0472,-0.698132,-0.174533,-0.174533,-1.03305,-0.687422,-0.155103,-0.173296,-1.6972,-0.428404,-0.485739,-0.0309158
26,45,-1.0472,-0.698132,-0.174533,-0.174533,-1.03305,-0.687422,-0.155103,-0.173296,-1.6972,-0.428404,-0.485739,-0.0309158
26,45,-1.0472,-0.698132,-0.174533,-0.174533,-1.03305,-0.687422,-0.155103,-0.173296,-1.6972,-0.428404,-0.485739,-0.0309158
26,45,-1.0472,-0.698132,-0.174533,-0.174533,-1.03305,-0.687422,-0.155103,-0.173296,-1.6972,-0.428404,-0.485739,-0.0309158
26,45,-1.0472,-0.698132,-0.174533,-0.174533,-1.03305,-0.687422,-0.155103,-0.173296,-1.6972,-0.428404,-0.485739,-0.0309158
26,45,-1.0472,-0.698132,-0.174533,-0.174533,-1.03305,-0.687422,-0.155103,-0.173296,-1.6972,-0.428404,-0.485739,-0.0309158
26,45,-1.0472,-0.698132,-0.174533,-0.174533,-1.03305,-0.687422,-0.155103,-0.173296,-1.6972,-0.428404,-0.485739,-0.0309158
26,45,-1.0472,-0.698132,-0.174533,-0.174533,-1.03305,-0.687422,-0.155103,-0.173296,-1.6972,-0.428404,-0.485739,-0.0309158
26,45,-1.0472,-0.698132,-0.174533,-0.174533,-1.03305,-0.687422,-0.155103,-0.173296,-1.6972,-0.428404,-0.485739,-0.0309158
26,45,-1.0472,-0.698132,-0.174533,-0.174533,-1.03305,-0.687422,-0.155103,-0.173296,-1.6972,-0.428404,-0.485739,-0.0309158
26,45,-1.0472,-0.698132,-0.174533,-0.174533,-1.03305,-0.687371,-0.155103,-0.173296,-1.6972,-0.430438,-0.485739,-0.0309158
26,45,-1.0472,-0.698132,-0.174533,-0.174533,-1.03305,-0.687371,-0.155103,-0.173296,-1.6972,-0.430438,-0.485739,-0.0309158
26,45,-1.0472,-0.698132,-0.174533,-0.174533,-1.03305,-0.687371,-0.155103,-0.173296,-1.6972,-0.430438,-0.485739,-0.0309158
26,45,-1.0472,-0.698132,-0.174533,-0.174533,-1.03305,-0.687371,-0.155103,-0.173296,-1.6972,-0.430438,-0.485739,-0.0309158
26,45,-1.0472,-0.698132,-0.174533,-0.174533,-1.03305,-0.687371,-0.155103,-0.173296,-1.6972,-0.430438,-0.485739,-0.0309158
26,45,-1.0472,-0.698132,-0.174533,-0.174533,-1.03305,-0.687371,-0.155103,-0.173296,-1.6972,-0.430438,-0.485739,-0.0309158
26,45,-1.0472,-0.698132,-0.174533,-0.174533,-1.03305,-0.687371,-0.155103,-0.173296,-1.6972,-0.430438,-0.485739,-0.0309158
26,45,-1.0472,-0.698132,-0.174533,-0.174533,-1.03305,-0.687371,-0.155103,-0.173296,-1.6972,-0.430438,-0.485739,-0.0309158
26,45,-1.0472,-0.698132,-0.174533,-0.174533,-1.03305,-0.687371,-0.155167,-0.173338,-1.6972,-0.430438,-0.484143,-0.0298815
26,45,-1.0472,-0.698132,-0.174533,-0.174533,-1.03305,-0.687371,-0.155167,-0.173338,-1.6972,-0.430438,-0.484143,-0.0298815
26,45,-1.0472,-0.698132,-0.174533,-0.174533,-1.03305,-0.687371,-0.155167,-0.173338,-1.6972,-0.430438,-0.484143,-0.0298815
26,45,-1.0472,-0.698132,-0.174533,-0.174533,-1.03305,-0.687371,-0.155167,-0.173338,-1.6972,-0.430438,-0.484143,-0.0298815
26,45,-1.0472,-0.698132,-0.174533,-0.174533,-1.03305,-0.687371,-0.155167,-0.173338,-1.6972,-0.430438,-0.484143,-0.0298815
26,45,-1.0472,-0.698132,-0.174533,-0.174533,-1.03305,-0.687371,-0.155167,-0.173338,-1.6972,-0.430438,-0.484143,-0.0298815
26,45,-1.0472,-0.698132,-0.174533,-0.174533,-1.03305,-0.687371,-0.155167,-0.173338,-1.6972,-0.430438,-0.484143,-0.0298815
26,45,-1.0472,-0.698132,-0.174533,-0.174533,-1.03305,-0.687371,-0.155167,-0.173338,-1.6972,-0.430438,-0.484143,-0.0298815
26,45,-1.0472,-0.698132,-0.174533,-0.174533,-1.03305,-0.687371,-0.155167,-0.173338,-1.6972,-0.430438,-0.484143,-0.0298815
26,45,-1.0472,-0.698132,-0.174533,-0.174533,-1.03305,-0.687371,-0.155167,-0.173338,-1.6972,-0.430438,-0.484143,-0.0298815
26,45,-1.0472,-0.698132,-0.174533,-0.174533,-1.03305,-0.687371,-0.155167,-0.173338,-1.6972,-0.430438,-0.484143,-0.0298815
26,45,-1.0472,-0.698132,-0.174533,-0.174533,-1.03305,-0.687371,-0.155167,-0.173338,-1.6972,-0.430438,-0.484143,-0.0298815
26,45,-1.0472,-0.698132,-0.174533,-0.174533,-1.03305,-0.687371,-0.155167,-0.173338,-1.6972,-0.430438,-0.484143,-0.0298815
26,45,-1.0472,-0.698132,-0.174533,-0.174533,-1.03305,-0.687371,-0.155167,-0.173338,-1.6972,-0.430438,-0.484143,-0.0298815
26,45,-1.0472,-0.698132,-0.174533,-0.174533,-1.03305,-0.687371,-0.155167,-0.173338,-1.6972,-0.430438,-0.484143,-0.0298815
26,45,-1.0472,-0.698132,-0.174533,-0.174533,-1.03305,-0.687371,-0.155167,-0.173338,-1.6972,-0.430438,-0.484143,-0.0298815
26,45,-1.0472,-0.698132,-0.174533,-0.174533,-1.03305,-0.687371,-0.155167,-0.173338,-1.6972,-0.430438,-0.484143,-0.0298815
26,45,-1.0472,-0.698132,-0.174533,-0.174533,-1.03305,-0.687371,-0.155167,-0.173338,-1.6972,-0.430438,-0.484143,-0.0298815
26,45,-1.0472,-0.698132,-0.174533,-0.174533,-1.03305,-0.687371,-0.155167,-0.173338,-1.6972,-0.430438,-0.484143,-0.0298815
26,45,-1.0472,-0.698132,-0.174533,-0.174533,-1.03305,-0.687371,-0.155167,-0.173338,-1.6972,-0.430438,-0.484143,-0.0298815
26,45,-1.0472,-0.698132,-0.174533,-0.174533,-1.03305,-0.687371,-0.155167,-0.173338,-1.6972,-0.430438,-0.484143,-0.0298815
26,45,-1.0472,-0.698132,-0.174533,-0.174533,-1.03305,-0.687371,-0.155167,-0.173338,-1.6972,-0.430438,-0.484143,-0.0298815
26,45,-1.0472,-0.698132,-0.174533,-0.174533,-1.03305,-0.687371,-0.155167,-0.173338,-1.6972,-0.430438,-0.484143,-0.0298815
26,45,-1.0472,-0.698132,-0.174533,-0.174533,-1.03305,-0.687371,-0.155167,-0.173338,-1.6972,-0.430438,-0.484143,-0.0298815
26,45,-1.0472,-0.698132,-0.174533,-0.174533,-1.03305,-0.687371,-0.155167,-0.173338,-1.6972,-0.430438,-0.484143,-0.0298815
26,45,-1.0472,-0.698132,-0.174533,-0.174533,-1.03305,-0.687371,-0.155167,-0.173338,-1.6972,-0.430438,-0.484143,-0.0298815
26,45,-1.0472,-0.698132,-0.174533,-0.174533,-1.03305,-0.687371,-0.155167,-0.173338,-1.6972,-0.430438,-0.484143,-0.0298815
26,45,-1.0472,-0.698132,-0.174533,-0.174533,-1.03305,-0.687371,-0.155167,-0.173338,-1.6972,-0.430438,-0.484143,-0.0298815
26,45,-1.0472,-0.698132,-0.174533,-0.174533,-1.03305,-0.687371,-0.155167,-0.173338,-1.6972,-0.430438,-0.484143,-0.0298815
26,45,-1.0472,-0.698132,-0.174533,-0.174533,-1.03305,-0.687371,-0.155167,-0.173338,-1.6972,-0.430438,-0.484143,-0.0298815
26,45,-1.0472,-0.698132,-0.174533,-0.174533,-1.03305,-0.687371,-0.155167,-0.173338,-1.6972,-0.430438,-0.484143,-0.0298815
26,45,-1.0472,-0.698132,-0.174533,-0.174533,-1.03305,-0.687371,-0.155167,-0.173338,-1.6972,-0.430438,-0.484143,-0.0298815
26,45,-1.0472,-0.698132,-0.174533,-0.174533,-1.03305,-0.687371,-0.155167,-0.173338,-1.6972,-0.430438,-0.484143,-0.0298815
26,45,-1.0472,-0.698132,-0.174533,-0.174533,-1.03305,-0.687371,-0.155167,-0.173338,-1.6972,-0.430438,-0.484143,-0.0298815
26,45,-1.0472,-0.698132,-0.174533,-0.174533,-1.03305,-0.687371,-0.155167,-0.173338,-1.6972,-0.430438,-0.484143,-0.0298815
26,45,-1.0472,-0.698132,-0.174533,-0.174533,-1.03305,-0.687371,-0.155231,-0.173379,-1.6972,-0.430438,-0.482546,-0.0288471
26,45,-1.0472,-0.698132,-0.174533,-0.174533,-1.03305,-0.687371,-0.155231,-0.173379,-1.6972,-0.430438,-0.482546,-0.0288471
26,45,-1.0472,-0.698132,-0.174533,-0.174533,-1.03305,-0.687371,-0.155231,-0.173379,-1.6972,-0.430438,-0.482546,-0.0288471
26,45,-1.0472,-0.698132,-0.174533,-0.174533,-1.03305,-0.687371,-0.155231,-0.173379,-1.6972,-0.430438,-0.482546,-0.0288471
26,45,-1.0472,-0.698132,-0.174533,-0.174533,-1.03305,-0.687371,-0.155231,-0.173379,-1.6972,-0.430438,-0.482546,-0.0288471
26,45,-1.0472,-0.698132,-0.174533,-0.174533,-1.03305,-0.687371,-0.155231,-0.173379,-1.6972,-0.430438,-0.482546,-0.0288471
26,45,-1.0472,-0.698132,-0.174533,-0.174533,-1.03305,-0.687371,-0.155231,-0.173379,-1.6972,-0.430438,-0.482546,-0.0288471
26,45,-1.0472,-0.698132,-0.174533,-0.174533,-1.03305,-0.687371,-0.155231,-0.173379,-1.6972,-0.430438,-0.482546,-0.0288471
26,45,-1.0472,-0.698132,-0.174533,-0.174533,-1.03305,-0.687371,-0.155231,-0.173379,-1.6972,-0.430438,-0.482546,-0.0288471
26,45,-1.0472,-0.698132,-0.174533,-0.174533,-1.03305,-0.687371,-0.155231,-0.173379,-1.6972,-0.430438,-0.482546,-0.0288471
26,45,-1.0472,-0.698132,-0.174533,-0.174533,-1.03305,-0.687371,-0.155231,-0.173379,-1.6972,-0.430438,-0.482546,-0.0288471
26,45,-1.0472,-0.698132,-0.174533,-0.174533,-1.03305,-0.687371,-0.155231,-0.173379,-1.6972,-0.430438,-0.482546,-0.0288471
26,45,-1.0472,-0.698132,-0.174533,-0.174533,-1.03305,-0.687371,-0.155233,-0.173439,-1.6972,-0.430438,-0.482496,-0.0273603
26,45,-1.0472,-0.698132,-0.174533,-0.174533,-1.03305,-0.687371,-0.155233,-0.173439,-1.6972,-0.430438,-0.482496,-0.0273603
26,45,-1.0472,-0.698132,-0.174533,-0.174533,-1.03305,-0.687371,-0.155233,-0.173439,-1.6972,-0.430438,-0.482496,-0.0273603
26,45,-1.0472,-0.698132,-0.174533,-0.174533,-1.03305,-0.687371,-0.155233,-0.173439,-1.6972,-0.430438,-0.482496,-0.0273603
26,45,-1.0472,-0.698132,-0.174533,-0.174533,-1.03305,-0.687371,-0.155233,-0.173439,-1.6972,-0.430438,-0.482496,-0.0273603
26,45,-1.0472,-0.698132,-0.174533,-0.174533,-1.03305,-0.687371,-0.155233,-0.173439,-1.6972,-0.430438,-0.482496,-0.0273603
26,45,-1.0472,-0.698132,-0.174533,-0.174533,-1.03305,-0.687371,-0.155233,-0.173439,-1.6972,-0.430438,-0.482496,-0.0273603
26,45,-1.0472,-0.698132,-0.174533,-0.174533,-1.03305,-0.687371,-0.155233,-0.173439,-1.6972,-0.430438,-0.482496,-0.0273603
26,45,-1.0472,-0.698132,-0.174533,-0.174533,-1.03305,-0.687371,-0.155233,-0.173439,-1.6972,-0.430438,-0.482496,-0.0273603
26,45,-1.0472,-0.698132,-0.174533,-0.174533,-1.03305,-0.687371,-0.155233,-0.173439,-1.6972,-0.430438,-0.482496,-0.0273603
26,45,-1.0472,-0.698132,-0.174533,-0.174533,-1.03305,-0.687371,-0.155233,-0.173439,-1.6972,-0.430438,-0.482496,-0.0273603
26,45,-1.0472,-0.698132,-0.174533,-0.174533,-1.03305,-0.687371,-0.155233,-0.173439,-1.6972,-0.430438,-0.482496,-0.0273603
26,45,-1.0472,-0.698132,-0.174533,-0.174533,-1.03305,-0.687371,-0.155293,-0.173419,-1.6972,-0.430438,-0.481008,-0.0278553
26,45,-1.0472,-0.698132,-0.174533,-0.174533,-1.03305,-0.687371,-0.155293,-0.173419,-1.6972,-0.430438,-0.481008,-0.0278553
26,45,-1.0472,-0.698132,-0.174533,-0.174533,-1.03305,-0.687371,-0.155293,-0.173419,-1.6972,-0.430438,-0.481008,-0.0278553
26,45,-1.0472,-0.698132,-0.174533,-0.174533,-1.03305,-0.687371,-0.155293,-0.173419,-1.6972,-0.430438,-0.481008,-0.0278553
26,45,-1.0472,-0.698132,-0.174533,-0.174533,-1.03305,-0.687371,-0.155293,-0.173419,-1.6972,-0.430438,-0.481008,-0.0278553
26,45,-1.0472,-0.698132,-0.174533,-0.174533,-1.03305,-0.687371,-0.155293,-0.173419,-1.6972,-0.430438,-0.481008,-0.0278553
26,45,-1.0472,-0.698132,-0.174533,-0.174533,-1.03305,-0.687371,-0.155293,-0.173419,-1.6972,-0.430438,-0.481008,-0.0278553
26,45,-1.0472,-0.698132,-0.174533,-0.174533,-1.03305,-0.687371,-0.155293,-0.173419,-1.6972,-0.430438,-0.481008,-0.0278553
26,45,-1.0472,-0.698132,-0.174533,-0.174533,-1.03305,-0.687371,-0.155293,-0.173419,-1.6972,-0.430438,-0.481008,-0.0278553
26,45,-1.0472,-0.698132,-0.174533,-0.174533,-1.03305,-0.687371,-0.155293,-0.173419,-1.6972,-0.430438,-0.481008,-0.0278553
26,45,-1.0472,-0.698132,-0.174533,-0.174533,-1.03305,-0.687371,-0.155293,-0.173419,-1.6972,-0.430438,-0.481008,-0.0278553
26,45,-1.0472,-0.698132,-0.174533,-0.174533,-1.03305,-0.687371,-0.155293,-0.173419,-1.6972,-0.430438,-0.481008,-0.0278553
26,45,-1.0472,-0.698132,-0.174533,-0.174533,-1.03305,-0.687371,-0.155356,-0.17346,-1.6972,-0.430438,-0.479411,-0.0268208
26,45,-1.0472,-0.698132,-0.174533,-0.174533,-1.03305,-0.687371,-0.155356,-0.17346,-1.6972,-0.430438,-0.479411,-0.0268208
26,45,-1.0472,-0.698132,-0.174533,-0.174533,-1.03305,-0.687371,-0.155356,-0.17346,-1.6972,-0.430438,-0.479411,-0.0268208
26,45,-1.0472,-0.698132,-0.174533,-0.174533,-1.03305,-0.687371,-0.155356,-0.17346,-1.6972,-0.430438,-0.479411,-0.0268208
26,45,-1.0472,-0.698132,-0.174533,-0.174533,-1.03305,-0.687371,-0.155356,-0.17346,-1.6972,-0.430438,-0.479411,-0.0268208
26,45,-1.0472,-0.698132,-0.174533,-0.174533,-1.03305,-0.687371,-0.155356,-0.17346,-1.6972,-0.430438,-0.479411,-0.0268208
26,45,-1.0472,-0.698132,-0.174533,-0.174533,-1.03305,-0.687371,-0.155356,-0.17346,-1.6972,-0.430438,-0.479411,-0.0268208
26,45,-1.0472,-0.698132,-0.174533,-0.174533,-1.03305,-0.687371,-0.155356,-0.17346,-1.6972,-0.430438,-0.479411,-0.0268208
26,45,-1.0472,-0.698132,-0.174533,-0.174533,-1.03305,-0.687371,-0.155356,-0.17346,-1.6972,-0.430438,-0.479411,-0.0268208
26,45,-1.0472,-0.698132,-0.174533,-0.174533,-1.03305,-0.687371,-0.155356,-0.17346,-1.6972,-0.430438,-0.479411,-0.0268208
26,45,-1.0472,-0.698132,-0.174533,-0.174533,-1.03305,-0.687371,-0.155356,-0.17346,-1.6972,-0.430438,-0.479411,-0.0268208
26,45,-1.0472,-0.698132,-0.174533,-0.174533,-1.03305,-0.687371,-0.155356,-0.17346,-1.6972,-0.430438,-0.479411,-0.0268208
26,45,-1.0472,-0.698132,-0.174533,-0.174533,-1.03305,-0.687371,-0.155356,-0.17346,-1.6972,-0.430438,-0.479411,-0.0268208
26,45,-1.0472,-0.698132,-0.174533,-0.174533,-1.03305,-0.687371,-0.155356,-0.17346,-1.6972,-0.430438,-0.479411,-0.0268208
26,45,-1.0472,-0.698132,-0.174533,-0.174533,-1.03305,-0.687371,-0.155356,-0.17346,-1.6972,-0.430438,-0.479411,-0.0268208
26,45,-1.0472,-0.698132,-0.174533,-0.174533,-1.03305,-0.687371,-0.155356,-0.17346,-1.6972,-0.430438,-0.479411,-0.0268208
26,45,-1.0472,-0.698132,-0.174533,-0.174533,-1.03305,-0.687371,-0.155356,-0.17346,-1.6972,-0.430438,-0.479411,-0.0268208
26,45,-1.0472,-0.698132,-0.174533,-0.174533,-1.03305,-0.687371,-0.155356,-0.17346,-1.6972,-0.430438,-0.479411,-0.0268208
26,45,-1.0472,-0.698132,-0.174533,-0.174533,-1.03305,-0.687371,-0.155356,-0.17346,-1.6972,-0.430438,-0.479411,-0.0268208
26,45,-1.0472,-0.698132,-0.174533,-0.174533,-1.03305,-0.687371,-0.155356,-0.17346,-1.6972,-0.430438,-0.479411,-0.0268208
26,45,-1.0472,-0.698132,-0.174533,-0.174533,-1.03305,-0.687371,-0.155356,-0.17346,-1.6972,-0.430438,-0.479411,-0.0268208
26,45,-1.0472,-0.698132,-0.174533,-0.174533,-1.03305,-0.687371,-0.155356,-0.17346,-1.6972,-0.430438,-0.479411,-0.0268208
26,45,-1.0472,-0.698132,-0.174533,-0.174533,-1.03305,-0.687371,-0.155356,-0.17346,-1.6972,-0.430438,-0.479411,-0.0268208
26,45,-1.0472,-0.698132,-0.174533,-0.174533,-1.03305,-0.687371,-0.15542,-0.173501,-1.6972,-0.430438,-0.477814,-0.0257861
26,45,-1.0472,-0.698132,-0.174533,-0.174533,-1.03305,-0.687371,-0.15542,-0.173501,-1.6972,-0.430438,-0.477814,-0.0257861
26,45,-1.0472,-0.698132,-0.174533,-0.174533,-1.03305,-0.687371,-0.15542,-0.173501,-1.6972,-0.430438,-0.477814,-0.0257861
26,45,-1.0472,-0.698132,-0.174533,-0.174533,-1.03305,-0.687371,-0.15548,-0.173482,-1.6972,-0.430438,-0.476326,-0.026281
26,45,-1.0472,-0.698132,-0.174533,-0.174533,-1.03305,-0.687371,-0.15548,-0.173482,-1.6972,-0.430438,-0.476326,-0.026281
26,45,-1.0472,-0.698132,-0.174533,-0.174533,-1.03305,-0.687371,-0.15548,-0.173482,-1.6972,-0.430438,-0.476326,-0.026281
26,45,-1.0472,-0.698132,-0.174533,-0.174533,-1.03305,-0.687371,-0.15548,-0.173482,-1.6972,-0.430438,-0.476326,-0.026281
26,45,-1.0472,-0.698132,-0.174533,-0.174533,-1.03305,-0.687371,-0.15548,-0.173482,-1.6972,-0.430438,-0.476326,-0.026281
26,45,-1.0472,-0.698132,-0.174533,-0.174533,-1.03305,-0.687371,-0.15548,-0.173482,-1.6972,-0.430438,-0.476326,-0.026281
26,45,-1.0472,-0.698132,-0.174533,-0.174533,-1.03305,-0.687371,-0.15548,-0.173482,-1.6972,-0.430438,-0.476326,-0.026281
26,45,-1.0472,-0.698132,-0.174533,-0.174533,-1.03305,-0.687371,-0.15548,-0.173482,-1.6972,-0.430438,-0.476326,-0.026281
26,45,-1.0472,-0.698132,-0.174533,-0.174533,-1.03305,-0.687371,-0.15548,-0.173482,-1.6972,-0.430438,-0.476326,-0.026281
26,45,-1.0472,-0.698132,-0.174533,-0.174533,-1.03305,-0.687371,-0.15548,-0.173482,-1.6972,-0.430438,-0.476326,-0.026281
26,45,-1.0472,-0.698132,-0.174533,-0.174533,-1.03305,-0.687371,-0.15548,-0.173482,-1.6972,-0.430438,-0.476326,-0.026281
26,45,-1.0472,-0.698132,-0.174533,-0.174533,-1.03305,-0.687371,-0.15548,-0.173482,-1.6972,-0.430438,-0.476326,-0.026281
26,45,-1.0472,-0.698132,-0.174533,-0.174533,-1.03305,-0.687371,-0.15548,-0.173482,-1.6972,-0.430438,-0.476326,-0.026281
26,45,-1.0472,-0.698132,-0.174533,-0.174533,-1.03305,-0.687371,-0.15548,-0.173482,-1.6972,-0.430438,-0.476326,-0.026281
26,45,-1.0472,-0.698132,-0.174533,-0.174533,-1.03305,-0.687371,-0.15548,-0.173482,-1.6972,-0.430438,-0.476326,-0.026281
26,45,-1.0472,-0.698132,-0.174533,-0.174533,-1.03305,-0.687371,-0.15548,-0.173482,-1.6972,-0.430438,-0.476326,-0.026281
26,45,-1.0472,-0.698132,-0.174533,-0.174533,-1.03305,-0.687371,-0.15548,-0.173482,-1.6972,-0.430438,-0.476326,-0.026281
26,45,-1.0472,-0.698132,-0.174533,-0.174533,-1.03305,-0.687371,-0.15548,-0.173482,-1.6972,-0.430438,-0.476326,-0.026281
26,45,-1.0472,-0.698132,-0.174533,-0.174533,-1.03305,-0.687371,-0.15548,-0.173482,-1.6972,-0.430438,-0.476326,-0.026281
26,45,-1.0472,-0.698132,-0.174533,-0.174533,-1.03305,-0.687371,-0.15548,-0.173482,-1.6972,-0.430438,-0.476326,-0.026281
26,45,-1.0472,-0.698132,-0.174533,-0.174533,-1.03305,-0.687371,-0.15548,-0.173482,-1.6972,-0.430438,-0.476326,-0.026281
26,45,-1.0472,-0.698132,-0.174533,-0.174533,-1.03305,-0.687371,-0.15548,-0.173482,-1.6972,-0.430438,-0.476326,-0.026281
26,45,-1.0472,-0.698132,-0.174533,-0.174533,-1.03305,-0.687371,-0.15548,-0.173482,-1.6972,-0.430438,-0.476326,-0.026281
26,45,-1.0472,-0.698132,-0.174533,-0.174533,-1.03305,-0.687371,-0.15548,-0.173482,-1.6972,-0.430438,-0.476326,-0.026281
26,45,-1.0472,-0.698132,-0.174533,-0.174533,-1.03305,-0.687371,-0.15548,-0.173482,-1.6972,-0.430438,-0.476326,-0.026281
26,45,-1.0472,-0.698132,-0.174533,-0.174533,-1.03305,-0.687371,-0.15548,-0.173482,-1.6972,-0.430438,-0.476326,-0.026281
26,45,-1.0472,-0.698132,-0.174533,-0.174533,-1.03305,-0.687371,-0.15548,-0.173482,-1.6972,-0.430438,-0.476326,-0.026281
26,45,-1.0472,-0.698132,-0.174533,-0.174533,-1.03305,-0.687371,-0.15548,-0.173482,-1.6972,-0.430438,-0.476326,-0.026281
26,45,-1.0472,-0.698132,-0.174533,-0.174533,-1.03305,-0.687371,-0.15548,-0.173482,-1.6972,-0.430438,-0.476326,-0.026281
26,45,-1.0472,-0.698132,-0.174533,-0.174533,-1.03305,-0.687371,-0.15548,-0.173482,-1.6972,-0.430438,-0.476326,-0.026281
26,45,-1.0472,-0.698132,-0.174533,-0.174533,-1.03305,-0.687371,-0.15548,-0.173482,-1.6972,-0.430438,-0.476326,-0.026281
26,45,-1.0472,-0.698132,-0.174533,-0.174533,-1.03305,-0.687371,-0.15548,-0.173482,-1.6972,-0.430438,-0.476326,-0.026281
26,45,-1.0472,-0.698132,-0.174533,-0.174533,-1.03305,-0.687371,-0.15548,-0.173482,-1.6972,-0.430438,-0.476326,-0.026281
26,45,-1.0472,-0.698132,-0.174533,-0.174533,-1.03305,-0.687371,-0.15548,-0.173482,-1.6972,-0.430438,-0.476326,-0.026281
26,45,-1.0472,-0.698132,-0.174533,-0.174533,-1.03305,-0.687371,-0.15548,-0.173482,-1.6972,-0.430438,-0.476326,-0.026281
26,45,-1.0472,-0.698132,-0.174533,-0.174533,-1.03305,-0.687371,-0.15548,-0.173482,-1.6972,-0.430438,-0.476326,-0.026281
26,45,-1.0472,-0.698132,-0.174533,-0.174533,-1.03305,-0.687371,-0.15548,-0.173482,-1.6972,-0.430438,-0.476326,-0.026281
26,45,-1.0472,-0.698132,-0.174533,-0.174533,-1.03305,-0.687371,-0.15548,-0.173482,-1.6972,-0.430438,-0.476326,-0.026281
26,45,-1.0472,-0.698132,-0.174533,-0.174533,-1.03305,-0.687371,-0.15548,-0.173482,-1.6972,-0.430438,-0.476326,-0.026281
26,45,-1.0472,-0.698132,-0.174533,-0.174533,-1.03305,-0.687371,-0.15548,-0.173482,-1.6972,-0.430438,-0.476326,-0.026281
26,45,-1.0472,-0.698132,-0.174533,-0.174533,-1.03305,-0.687371,-0.15548,-0.173482,-1.6972,-0.430438,-0.476326,-0.026281
26,45,-1.0472,-0.698132,-0.174533,-0.174533,-1.03305,-0.687371,-0.15548,-0.173482,-1.6972,-0.430438,-0.476326,-0.026281
26,45,-1.0472,-0.698132,-0.174533,-0.174533,-1.03305,-0.687371,-0.15548,-0.173482,-1.6972,-0.430438,-0.476326,-0.026281
26,45,-1.0472,-0.698132,-0.174533,-0.174533,-1.03305,-0.687371,-0.15548,-0.173482,-1.6972,-0.430438,-0.476326,-0.026281
26,45,-1.0472,-0.698132,-0.174533,-0.174533,-1.03305,-0.687371,-0.15548,-0.173482,-1.6972,-0.430438,-0.476326,-0.026281
26,45,-1.0472,-0.698132,-0.174533,-0.174533,-1.03305,-0.687371,-0.15548,-0.173482,-1.6972,-0.430438,-0.476326,-0.026281
26,45,-1.0472,-0.698132,-0.174533,-0.174533,-1.03305,-0.687371,-0.15548,-0.173482,-1.6972,-0.430438,-0.476326,-0.026281
26,45,-1.0472,-0.698132,-0.174533,-0.174533,-1.03305,-0.687371,-0.15548,-0.173482,-1.6972,-0.430438,-0.476326,-0.026281
26,45,-1.0472,-0.698132,-0.174533,-0.174533,-1.03305,-0.687371,-0.15548,-0.173482,-1.6972,-0.430438,-0.476326,-0.026281
26,45,-1.0472,-0.698132,-0.174533,-0.174533,-1.03305,-0.687371,-0.15548,-0.173482,-1.6972,-0.430438,-0.476326,-0.026281
26,45,-1.0472,-0.698132,-0.174533,-0.174533,-1.03305,-0.687371,-0.15548,-0.173482,-1.6972,-0.430438,-0.476326,-0.026281
26,45,-1.0472,-0.698132,-0.174533,-0.174533,-1.03305,-0.687371,-0.15548,-0.173482,-1.6972,-0.430438,-0.476326,-0.026281
26,45,-1.0472,-0.698132,-0.174533,-0.174533,-1.03305,-0.687371,-0.15548,-0.173482,-1.6972,-0.430438,-0.476326,-0.026281
26,45,-1.0472,-0.698132,-0.174533,-0.174533,-1.03305,-0.687371,-0.15548,-0.173482,-1.6972,-0.430438,-0.476326,-0.026281
26,45,-1.0472,-0.698132,-0.174533,-0.174533,-1.03305,-0.687371,-0.15548,-0.173482,-1.6972,-0.430438,-0.476326,-0.026281
26,45,-1.0472,-0.698132,-0.174533,-0.174533,-1.03305,-0.687371,-0.15548,-0.173482,-1.6972,-0.430438,-0.476326,-0.026281
26,45,-1.0472,-0.698132,-0.174533,-0.174533,-1.03305,-0.687371,-0.15548,-0.173482,-1.6972,-0.430438,-0.476326,-0.026281
26,45,-1.0472,-0.698132,-0.174533,-0.174533,-1.03305,-0.687371,-0.15548,-0.173482,-1.6972,-0.430438,-0.476326,-0.026281
26,45,-1.0472,-0.698132,-0.174533,-0.174533,-1.03305,-0.687371,-0.15548,-0.173482,-1.6972,-0.430438,-0.476326,-0.026281
26,45,-1.0472,-0.698132,-0.174533,-0.174533,-1.03305,-0.687371,-0.15548,-0.173482,-1.6972,-0.430438,-0.476326,-0.026281
26,45,-1.0472,-0.698132,-0.174533,-0.174533,-1.03305,-0.687371,-0.15548,-0.173482,-1.6972,-0.430438,-0.476326,-0.026281
26,45,-1.0472,-0.698132,-0.174533,-0.174533,-1.03305,-0.687371,-0.15548,-0.173482,-1.6972,-0.430438,-0.476326,-0.026281
26,45,-1.0472,-0.698132,-0.174533,-0.174533,-1.03305,-0.687371,-0.15548,-0.173482,-1.6972,-0.430438,-0.476326,-0.026281
26,45,-1.0472,-0.698132,-0.174533,-0.174533,-1.03305,-0.687371,-0.155482,-0.173541,-1.6972,-0.430438,-0.476276,-0.0247942
26,45,-1.0472,-0.698132,-0.174533,-0.174533,-1.03305,-0.687371,-0.155482,-0.173541,-1.6972,-0.430438,-0.476276,-0.0247942
26,45,-1.0472,-0.698132,-0.174533,-0.174533,-1.03305,-0.687371,-0.155482,-0.173541,-1.6972,-0.430438,-0.476276,-0.0247942
26,45,-1.0472,-0.698132,-0.174533,-0.174533,-1.03305,-0.687371,-0.155482,-0.173541,-1.6972,-0.430438,-0.476276,-0.0247942
26,45,-1.0472,-0.698132,-0.174533,-0.174533,-1.03305,-0.687371,-0.155482,-0.173541,-1.6972,-0.430438,-0.476276,-0.0247942
26,45,-1.0472,-0.698132,-0.174533,-0.174533,-1.03305,-0.687371,-0.155482,-0.173541,-1.6972,-0.430438,-0.476276,-0.0247942
26,45,-1.0472,-0.698132,-0.174533,-0.174533,-1.03305,-0.687371,-0.155482,-0.173541,-1.6972,-0.430438,-0.476276,-0.0247942
26,45,-1.0472,-0.698132,-0.174533,-0.174533,-1.03305,-0.687371,-0.155482,-0.173541,-1.6972,-0.430438,-0.476276,-0.0247942
26,45,-1.0472,-0.698132,-0.174533,-0.174533,-1.03305,-0.687371,-0.155482,-0.173541,-1.6972,-0.430438,-0.476276,-0.0247942
26,45,-1.0472,-0.698132,-0.174533,-0.174533,-1.03305,-0.687371,-0.155482,-0.173541,-1.6972,-0.430438,-0.476276,-0.0247942
26,45,-1.0472,-0.698132,-0.174533,-0.174533,-1.03305,-0.687371,-0.155482,-0.173541,-1.6972,-0.430438,-0.476276,-0.0247942
26,45,-1.0472,-0.698132,-0.174533,-0.174533,-1.03305,-0.687371,-0.155482,-0.173541,-1.6972,-0.430438,-0.476276,-0.0247942
26,45,-1.0472,-0.698132,-0.174533,-0.174533,-1.03305,-0.687371,-0.155482,-0.173541,-1.6972,-0.430438,-0.476276,-0.0247942
26,45,-1.0472,-0.698132,-0.174533,-0.174533,-1.03305,-0.687371,-0.155482,-0.173541,-1.6972,-0.430438,-0.476276,-0.0247942
26,45,-1.0472,-0.698132,-0.174533,-0.174533,-1.03305,-0.687371,-0.155482,-0.173541,-1.6972,-0.430438,-0.476276,-0.0247942
26,45,-1.0472,-0.698132,-0.174533,-0.174533,-1.03305,-0.687371,-0.155482,-0.173541,-1.6972,-0.430438,-0.476276,-0.0247942
26,45,-1.0472,-0.698132,-0.174533,-0.174533,-1.03305,-0.687371,-0.155482,-0.173541,-1.6972,-0.430438,-0.476276,-0.0247942
26,45,-1.0472,-0.698132,-0.174533,-0.174533,-1.03305,-0.687371,-0.155482,-0.173541,-1.6972,-0.430438,-0.476276,-0.0247942
26,45,-1.0472,-0.698132,-0.174533,-0.174533,-1.03305,-0.687371,-0.155482,-0.173541,-1.6972,-0.430438,-0.476276,-0.0247942
26,45,-1.0472,-0.698132,-0.174533,-0.174533,-1.03305,-0.687371,-0.155482,-0.173541,-1.6972,-0.430438,-0.476276,-0.0247942
26,45,-1.0472,-0.698132,-0.174533,-0.174533,-1.03305,-0.687371,-0.155482,-0.173541,-1.6972,-0.430438,-0.476276,-0.0247942
26,45,-1.0472,-0.698132,-0.174533,-0.174533,-1.03305,-0.687371,-0.155482,-0.173541,-1.6972,-0.430438,-0.476276,-0.0247942
26,45,-1.0472,-0.698132,-0.174533,-0.174533,-1.03305,-0.687371,-0.155482,-0.173541,-1.6972,-0.430438,-0.476276,-0.0247942
26,45,-1.0472,-0.698132,-0.174533,-0.174533,-1.03305,-0.687371,-0.155482,-0.173541,-1.6972,-0.430438,-0.476276,-0.0247942
26,45,-1.0472,-0.698132,-0.174533,-0.174533,-1.03305,-0.687371,-0.155482,-0.173541,-1.6972,-0.430438,-0.476276,-0.0247942
26,45,-1.0472,-0.698132,-0.174533,-0.174533,-1.03305,-0.687371,-0.155482,-0.173541,-1.6972,-0.430438,-0.476276,-0.0247942
26,45,-1.0472,-0.698132,-0.174533,-0.174533,-1.03305,-0.687371,-0.155482,-0.173541,-1.6972,-0.430438,-0.476276,-0.0247942
26,45,-1.0472,-0.698132,-0.174533,-0.174533,-1.03305,-0.687371,-0.155482,-0.173541,-1.6972,-0.430438,-0.476276,-0.0247942
26,45,-1.0472,-0.698132,-0.174533,-0.174533,-1.03305,-0.687371,-0.155482,-0.173541,-1.6972,-0.430438,-0.476276,-0.0247942
26,45,-1.0472,-0.698132,-0.174533,-0.174533,-1.03305,-0.687371,-0.155546,-0.173583,-1.6972,-0.430438,-0.474678,-0.0237593
26,45,-1.0472,-0.698132,-0.174533,-0.174533,-1.03305,-0.687371,-0.155546,-0.173583,-1.6972,-0.430438,-0.474678,-0.0237593
26,45,-1.0472,-0.698132,-0.174533,-0.174533,-1.03305,-0.687371,-0.155546,-0.173583,-1.6972,-0.430438,-0.474678,-0.0237593
26,45,-1.0472,-0.698132,-0.174533,-0.174533,-1.03305,-0.687371,-0.155546,-0.173583,-1.6972,-0.430438,-0.474678,-0.0237593
26,45,-1.0472,-0.698132,-0.174533,-0.174533,-1.03305,-0.687371,-0.155546,-0.173583,-1.6972,-0.430438,-0.474678,-0.0237593
26,45,-1.0472,-0.698132,-0.174533,-0.174533,-1.03305,-0.687371,-0.155546,-0.173583,-1.6972,-0.430438,-0.474678,-0.0237593
26,45,-1.0472,-0.698132,-0.174533,-0.174533,-1.03305,-0.687371,-0.155546,-0.173583,-1.6972,-0.430438,-0.474678,-0.0237593
26,45,-1.0472,-0.698132,-0.174533,-0.174533,-1.03305,-0.687371,-0.155546,-0.173583,-1.6972,-0.430438,-0.474678,-0.0237593
26,45,-1.0472,-0.698132,-0.174533,-0.174533,-1.03305,-0.687371,-0.155546,-0.173583,-1.6972,-0.430438,-0.474678,-0.0237593
26,45,-1.0472,-0.698132,-0.174533,-0.174533,-1.03305,-0.687371,-0.155546,-0.173583,-1.6972,-0.430438,-0.474678,-0.0237593
26,45,-1.0472,-0.698132,-0.174533,-0.174533,-1.03305,-0.687371,-0.155546,-0.173583,-1.6972,-0.430438,-0.474678,-0.0237593
26,45,-1.0472,-0.698132,-0.174533,-0.174533,-1.03305,-0.687371,-0.155546,-0.173583,-1.6972,-0.430438,-0.474678,-0.0237593
26,45,-1.0472,-0.698132,-0.174533,-0.174533,-1.03305,-0.687371,-0.155546,-0.173583,-1.6972,-0.430438,-0.474678,-0.0237593
26,45,-1.0472,-0.698132,-0.174533,-0.174533,-1.03305,-0.687371,-0.155546,-0.173583,-1.6972,-0.430438,-0.474678,-0.0237593
26,45,-1.0472,-0.698132,-0.174533,-0.174533,-1.03305,-0.687371,-0.155546,-0.173583,-1.6972,-0.430438,-0.474678,-0.0237593
26,45,-1.0472,-0.698132,-0.174533,-0.174533,-1.03305,-0.687371,-0.155546,-0.173583,-1.6972,-0.430438,-0.474678,-0.0237593
26,45,-1.0472,-0.698132,-0.174533,-0.174533,-1.03305,-0.687371,-0.155546,-0.173583,-1.6972,-0.430438,-0.474678,-0.0237593
26,45,-1.0472,-0.698132,-0.174533,-0.174533,-1.03305,-0.687371,-0.155546,-0.173583,-1.6972,-0.430438,-0.474678,-0.0237593
26,45,-1.0472,-0.698132,-0.174533,-0.174533,-1.03305,-0.687371,-0.155546,-0.173583,-1.6972,-0.430438,-0.474678,-0.0237593
26,45,-1.0472,-0.698132,-0.174533,-0.174533,-1.03305,-0.687371,-0.155546,-0.173583,-1.6972,-0.430438,-0.474678,-0.0237593
26,45,-1.0472,-0.698132,-0.174533,-0.174533,-1.03305,-0.687371,-0.155546,-0.173583,-1.6972,-0.430438,-0.474678,-0.0237593
26,45,-1.0472,-0.698132,-0.174533,-0.174533,-1.03305,-0.687371,-0.155546,-0.173583,-1.6972,-0.430438,-0.474678,-0.0237593
26,45,-1.0472,-0.698132,-0.174533,-0.174533,-1.03305,-0.687371,-0.155546,-0.173583,-1.6972,-0.430438,-0.474678,-0.0237593
26,45,-1.0472,-0.698132,-0.174533,-0.174533,-1.03305,-0.687371,-0.155546,-0.173583,-1.6972,-0.430438,-0.474678,-0.0237593
26,45,-1.0472,-0.698132,-0.174533,-0.174533,-1.03305,-0.687371,-0.155546,-0.173583,-1.6972,-0.430438,-0.474678,-0.0237593
26,45,-1.0472,-0.698132,-0.174533,-0.174533,-1.03305,-0.687371,-0.155546,-0.173583,-1.6972,-0.430438,-0.474678,-0.0237593
26,45,-1.0472,-0.698132,-0.174533,-0.174533,-1.03305,-0.687371,-0.155546,-0.173583,-1.6972,-0.430438,-0.474678,-0.0237593
26,45,-1.0472,-0.698132,-0.174533,-0.174533,-1.03305,-0.687371,-0.155546,-0.173583,-1.6972,-0.430438,-0.474678,-0.0237593
26,45,-1.0472,-0.698132,-0.174533,-0.174533,-1.03305,-0.687371,-0.155546,-0.173583,-1.6972,-0.430438,-0.474678,-0.0237593
26,45,-1.0472,-0.698132,-0.174533,-0.174533,-1.03305,-0.687371,-0.155546,-0.173583,-1.6972,-0.430438,-0.474678,-0.0237593
26,45,-1.0472,-0.698132,-0.174533,-0.174533,-1.03305,-0.687371,-0.155546,-0.173583,-1.6972,-0.430438,-0.474678,-0.0237593
26,45,-1.0472,-0.698132,-0.174533,-0.174533,-1.03305,-0.687371,-0.155546,-0.173583,-1.6972,-0.430438,-0.474678,-0.0237593
26,45,-1.0472,-0.698132,-0.174533,-0.174533,-1.03305,-0.687371,-0.155546,-0.173583,-1.6972,-0.430438,-0.474678,-0.0237593
26,45,-1.0472,-0.698132,-0.174533,-0.174533,-1.03305,-0.687371,-0.155546,-0.173583,-1.6972,-0.430438,-0.474678,-0.0237593
26,45,-1.0472,-0.698132,-0.174533,-0.174533,-1.03305,-0.687371,-0.155546,-0.173583,-1.6972,-0.430438,-0.474678,-0.0237593
26,45,-1.0472,-0.698132,-0.174533,-0.174533,-1.03305,-0.687371,-0.155546,-0.173583,-1.6972,-0.430438,-0.474678,-0.0237593
26,45,-1.0472,-0.698132,-0.174533,-0.174533,-1.03305,-0.687371,-0.155546,-0.173583,-1.6972,-0.430438,-0.474678,-0.0237593
26,45,-1.0472,-0.698132,-0.174533,-0.174533,-1.03305,-0.687371,-0.155546,-0.173583,-1.6972,-0.430438,-0.474678,-0.0237593
26,45,-1.0472,-0.698132,-0.174533,-0.174533,-1.03305,-0.687371,-0.155546,-0.173583,-1.6972,-0.430438,-0.474678,-0.0237593
26,45,-1.0472,-0.698132,-0.174533,-0.174533,-1.03305,-0.687371,-0.155546,-0.173583,-1.6972,-0.430438,-0.474678,-0.0237593
26,45,-1.0472,-0.698132,-0.174533,-0.174533,-1.03305,-0.687371,-0.155546,-0.173583,-1.6972,-0.430438,-0.474678,-0.0237593
26,45,-1.0472,-0.698132,-0.174533,-0.174533,-1.03305,-0.687371,-0.155546,-0.173583,-1.6972,-0.430438,-0.474678,-0.0237593
26,45,-1.0472,-0.698132,-0.174533,-0.174533,-1.03305,-0.687371,-0.155546,-0.173583,-1.6972,-0.430438,-0.474678,-0.0237593
26,45,-1.0472,-0.698132,-0.174533,-0.174533,-1.03305,-0.687371,-0.155546,-0.173583,-1.6972,-0.430438,-0.474678,-0.0237593
26,45,-1.0472,-0.698132,-0.174533,-0.174533,-1.03305,-0.687371,-0.155546,-0.173583,-1.6972,-0.430438,-0.474678,-0.0237593
26,45,-1.0472,-0.698132,-0.174533,-0.174533,-1.03305,-0.687371,-0.155546,-0.173583,-1.6972,-0.430438,-0.474678,-0.0237593
26,45,-1.0472,-0.698132,-0.174533,-0.174533,-1.03305,-0.687371,-0.155546,-0.173583,-1.6972,-0.430438,-0.474678,-0.0237593
26,45,-1.0472,-0.698132,-0.174533,-0.174533,-1.03305,-0.687371,-0.155546,-0.173583,-1.6972,-0.430438,-0.474678,-0.0237593
26,45,-1.0472,-0.698132,-0.174533,-0.174533,-1.03305,-0.687371,-0.155546,-0.173583,-1.6972,-0.430438,-0.474678,-0.0237593
26,45,-1.0472,-0.698132,-0.174533,-0.174533,-1.03305,-0.687371,-0.155546,-0.173583,-1.6972,-0.430438,-0.474678,-0.0237593
26,45,-1.0472,-0.698132,-0.174533,-0.174533,-1.03305,-0.687371,-0.155546,-0.173583,-1.6972,-0.430438,-0.474678,-0.0237593
26,45,-1.0472,-0.698132,-0.174533,-0.174533,-1.03305,-0.687371,-0.155546,-0.173583,-1.6972,-0.430438,-0.474678,-0.0237593
26,45,-1.0472,-0.698132,-0.174533,-0.174533,-1.03305,-0.687371,-0.155546,-0.173583,-1.6972,-0.430438,-0.474678,-0.0237593
26,45,-1.0472,-0.698132,-0.174533,-0.174533,-1.03305,-0.687371,-0.155546,-0.173583,-1.6972,-0.430438,-0.474678,-0.0237593
26,45,-1.0472,-0.698132,-0.174533,-0.174533,-1.03305,-0.687371,-0.155546,-0.173583,-1.6972,-0.430438,-0.474678,-0.0237593
26,45,-1.0472,-0.698132,-0.174533,-0.174533,-1.03305,-0.687371,-0.155605,-0.173563,-1.6972,-0.430438,-0.47319,-0.0242542
26,45,-1.0472,-0.698132,-0.174533,-0.174533,-1.03305,-0.687371,-0.155605,-0.173563,-1.6972,-0.430438,-0.47319,-0.0242542
26,45,-1.0472,-0.698132,-0.174533,-0.174533,-1.03305,-0.687371,-0.155605,-0.173563,-1.6972,-0.430438,-0.47319,-0.0242542
26,45,-1.0472,-0.698132,-0.174533,-0.174533,-1.03305,-0.687371,-0.155605,-0.173563,-1.6972,-0.430438,-0.47319,-0.0242542
26,45,-1.0472,-0.698132,-0.174533,-0.174533,-1.03305,-0.687371,-0.155605,-0.173563,-1.6972,-0.430438,-0.47319,-0.0242542
26,45,-1.0472,-0.698132,-0.174533,-0.174533,-1.03305,-0.687371,-0.155605,-0.173563,-1.6972,-0.430438,-0.47319,-0.0242542
26,45,-1.0472,-0.698132,-0.174533,-0.174533,-1.03305,-0.687371,-0.155605,-0.173563,-1.6972,-0.430438,-0.47319,-0.0242542
26,45,-1.0472,-0.698132,-0.174533,-0.174533,-1.03305,-0.687371,-0.155605,-0.173563,-1.6972,-0.430438,-0.47319,-0.0242542
26,45,-1.0472,-0.698132,-0.174533,-0.174533,-1.03305,-0.687371,-0.155605,-0.173563,-1.6972,-0.430438,-0.47319,-0.0242542
26,45,-1.0472,-0.698132,-0.174533,-0.174533,-1.03305,-0.687371,-0.155605,-0.173563,-1.6972,-0.430438,-0.47319,-0.0242542
26,45,-1.0472,-0.698132,-0.174533,-0.174533,-1.03305,-0.687371,-0.155605,-0.173563,-1.6972,-0.430438,-0.47319,-0.0242542
26,45,-1.0472,-0.698132,-0.174533,-0.174533,-1.03305,-0.687371,-0.155605,-0.173563,-1.6972,-0.430438,-0.47319,-0.0242542
26,45,-1.0472,-0.698132,-0.174533,-0.174533,-1.03305,-0.687371,-0.155605,-0.173563,-1.6972,-0.430438,-0.47319,-0.0242542
26,45,-1.0472,-0.698132,-0.174533,-0.174533,-1.03305,-0.687371,-0.155605,-0.173563,-1.6972,-0.430438,-0.47319,-0.0242542
26,45,-1.0472,-0.698132,-0.174533,-0.174533,-1.03305,-0.687371,-0.155605,-0.173563,-1.6972,-0.430438,-0.47319,-0.0242542
26,45,-1.0472,-0.698132,-0.174533,-0.174533,-1.03305,-0.687371,-0.155605,-0.173563,-1.6972,-0.430438,-0.47319,-0.0242542
26,45,-1.0472,-0.698132,-0.174533,-0.174533,-1.03305,-0.687371,-0.155605,-0.173563,-1.6972,-0.430438,-0.47319,-0.0242542
26,45,-1.0472,-0.698132,-0.174533,-0.174533,-1.03305,-0.687371,-0.155605,-0.173563,-1.6972,-0.430438,-0.47319,-0.0242542
26,45,-1.0472,-0.698132,-0.174533,-0.174533,-1.03305,-0.687371,-0.155605,-0.173563,-1.6972,-0.430438,-0.47319,-0.0242542
26,45,-1.0472,-0.698132,-0.174533,-0.174533,-1.03305,-0.687371,-0.155605,-0.173563,-1.6972,-0.430438,-0.47319,-0.0242542
26,45,-1.0472,-0.698132,-0.174533,-0.174533,-1.03305,-0.687371,-0.155605,-0.173563,-1.6972,-0.430438,-0.47319,-0.0242542
26,45,-1.0472,-0.698132,-0.174533,-0.174533,-1.03305,-0.687371,-0.155605,-0.173563,-1.6972,-0.430438,-0.47319,-0.0242542
26,45,-1.0472,-0.698132,-0.174533,-0.174533,-1.03305,-0.687371,-0.155605,-0.173563,-1.6972,-0.430438,-0.47319,-0.0242542
26,45,-1.0472,-0.698132,-0.174533,-0.174533,-1.03305,-0.687371,-0.155605,-0.173563,-1.6972,-0.430438,-0.47319,-0.0242542
26,45,-1.0472,-0.698132,-0.174533,-0.174533,-1.03305,-0.687371,-0.155605,-0.173563,-1.6972,-0.430438,-0.47319,-0.0242542
26,45,-1.0472,-0.698132,-0.174533,-0.174533,-1.03305,-0.687371,-0.155605,-0.173563,-1.6972,-0.430438,-0.47319,-0.0242542
26,45,-1.0472,-0.698132,-0.174533,-0.174533,-1.03305,-0.687371,-0.155605,-0.173563,-1.6972,-0.430438,-0.47319,-0.0242542
26,45,-1.0472,-0.698132,-0.174533,-0.174533,-1.03305,-0.687371,-0.155605,-0.173563,-1.6972,-0.430438,-0.47319,-0.0242542
26,45,-1.0472,-0.698132,-0.174533,-0.174533,-1.03305,-0.687371,-0.155605,-0.173563,-1.6972,-0.430438,-0.47319,-0.0242542
26,45,-1.0472,-0.698132,-0.174533,-0.174533,-1.03305,-0.687371,-0.155605,-0.173563,-1.6972,-0.430438,-0.47319,-0.0242542
26,45,-1.0472,-0.698132,-0.174533,-0.174533,-1.03305,-0.687371,-0.155605,-0.173563,-1.6972,-0.430438,-0.47319,-0.0242542
26,45,-1.0472,-0.698132,-0.174533,-0.174533,-1.03305,-0.687371,-0.155605,-0.173563,-1.6972,-0.430438,-0.47319,-0.0242542
26,45,-1.0472,-0.698132,-0.174533,-0.174533,-1.03305,-0.687371,-0.155605,-0.173563,-1.6972,-0.430438,-0.47319,-0.0242542
26,45,-1.0472,-0.698132,-0.174533,-0.174533,-1.03305,-0.687371,-0.155605,-0.173563,-1.6972,-0.430438,-0.47319,-0.0242542
26,45,-1.0472,-0.698132,-0.174533,-0.174533,-1.03305,-0.687371,-0.155605,-0.173563,-1.6972,-0.430438,-0.47319,-0.0242542
26,45,-1.0472,-0.698132,-0.174533,-0.174533,-1.03305,-0.687371,-0.155605,-0.173563,-1.6972,-0.430438,-0.47319,-0.0242542
26,45,-1.0472,-0.698132,-0.174533,-0.174533,-1.03305,-0.687371,-0.155605,-0.173563,-1.6972,-0.430438,-0.47319,-0.0242542
26,45,-1.0472,-0.698132,-0.174533,-0.174533,-1.03305,-0.687371,-0.155605,-0.173563,-1.6972,-0.430438,-0.47319,-0.0242542
26,45,-1.0472,-0.698132,-0.174533,-0.174533,-1.03305,-0.687371,-0.155605,-0.173563,-1.6972,-0.430438,-0.47319,-0.0242542
26,45,-1.0472,-0.698132,-0.174533,-0.174533,-1.03305,-0.687371,-0.155605,-0.173563,-1.6972,-0.430438,-0.47319,-0.0242542
26,45,-1.0472,-0.698132,-0.174533,-0.174533,-1.03305,-0.687371,-0.155605,-0.173563,-1.6972,-0.430438,-0.47319,-0.0242542
26,45,-1.0472,-0.698132,-0.174533,-0.174533,-1.03305,-0.687371,-0.155605,-0.173563,-1.6972,-0.430438,-0.47319,-0.0242542
26,45,-1.0472,-0.698132,-0.174533,-0.174533,-1.03305,-0.687371,-0.155605,-0.173563,-1.6972,-0.430438,-0.47319,-0.0242542
26,45,-1.0472,-0.698132,-0.174533,-0.174533,-1.03305,-0.687371,-0.155605,-0.173563,-1.6972,-0.430438,-0.47319,-0.0242542
26,45,-1.0472,-0.698132,-0.174533,-0.174533,-1.03305,-0.687371,-0.155605,-0.173563,-1.6972,-0.430438,-0.47319,-0.0242542
26,45,-1.0472,-0.698132,-0.174533,-0.174533,-1.03305,-0.687371,-0.155605,-0.173563,-1.6972,-0.430438,-0.47319,-0.0242542
26,45,-1.0472,-0.698132,-0.174533,-0.174533,-1.03305,-0.687371,-0.155605,-0.173563,-1.6972,-0.430438,-0.47319,-0.0242542
26,45,-1.0472,-0.698132,-0.174533,-0.174533,-1.03305,-0.687371,-0.155605,-0.173563,-1.6972,-0.430438,-0.47319,-0.0242542
26,45,-1.0472,-0.698132,-0.174533,-0.174533,-1.03305,-0.687371,-0.155605,-0.173563,-1.6972,-0.430438,-0.47319,-0.0242542
26,45,-1.0472,-0.698132,-0.174533,-0.174533,-1.03305,-0.687371,-0.155605,-0.173563,-1.6972,-0.430438,-0.47319,-0.0242542
26,45,-1.0472,-0.698132,-0.174533,-0.174533,-1.03305,-0.687371,-0.155605,-0.173563,-1.6972,-0.430438,-0.47319,-0.0242542
26,45,-1.0472,-0.698132,-0.174533,-0.174533,-1.03305,-0.687371,-0.155605,-0.173563,-1.6972,-0.430438,-0.47319,-0.0242542
26,45,-1.0472,-0.698132,-0.174533,-0.174533,-1.03305,-0.687371,-0.155605,-0.173563,-1.6972,-0.430438,-0.47319,-0.0242542
26,45,-1.0472,-0.698132,-0.174533,-0.174533,-1.03305,-0.687371,-0.155605,-0.173563,-1.6972,-0.430438,-0.47319,-0.0242542
26,45,-1.0472,-0.698132,-0.174533,-0.174533,-1.03305,-0.687371,-0.155605,-0.173563,-1.6972,-0.430438,-0.47319,-0.0242542
26,45,-1.0472,-0.698132,-0.174533,-0.174533,-1.03305,-0.687371,-0.155605,-0.173563,-1.6972,-0.430438,-0.47319,-0.0242542
26,45,-1.0472,-0.698132,-0.174533,-0.174533,-1.03305,-0.687371,-0.155605,-0.173563,-1.6972,-0.430438,-0.47319,-0.0242542
26,45,-1.0472,-0.698132,-0.174533,-0.174533,-1.03305,-0.687371,-0.155605,-0.173563,-1.6972,-0.430438,-0.47319,-0.0242542
26,45,-1.0472,-0.698132,-0.174533,-0.174533,-1.03305,-0.687371,-0.155669,-0.173604,-1.6972,-0.430438,-0.471593,-0.0232192
26,45,-1.0472,-0.698132,-0.174533,-0.174533,-1.03305,-0.687371,-0.155669,-0.173604,-1.6972,-0.430438,-0.471593,-0.0232192
26,45,-1.0472,-0.698132,-0.174533,-0.174533,-1.03305,-0.687371,-0.155669,-0.173604,-1.6972,-0.430438,-0.471593,-0.0232192
26,45,-1.0472,-0.698132,-0.174533,-0.174533,-1.03305,-0.687371,-0.155669,-0.173604,-1.6972,-0.430438,-0.471593,-0.0232192
26,45,-1.0472,-0.698132,-0.174533,-0.174533,-1.03305,-0.687371,-0.155669,-0.173604,-1.6972,-0.430438,-0.471593,-0.0232192
26,45,-1.0472,-0.698132,-0.174533,-0.174533,-1.03305,-0.687371,-0.155669,-0.173604,-1.6972,-0.430438,-0.471593,-0.0232192
26,45,-1.0472,-0.698132,-0.174533,-0.174533,-1.03305,-0.687371,-0.155669,-0.173604,-1.6972,-0.430438,-0.471593,-0.0232192
26,45,-1.0472,-0.698132,-0.174533,-0.174533,-1.03305,-0.687371,-0.155669,-0.173604,-1.6972,-0.430438,-0.471593,-0.0232192
26,45,-1.0472,-0.698132,-0.174533,-0.174533,-1.03305,-0.687371,-0.155669,-0.173604,-1.6972,-0.430438,-0.471593,-0.0232192
26,45,-1.0472,-0.698132,-0.174533,-0.174533,-1.03305,-0.687371,-0.155669,-0.173604,-1.6972,-0.430438,-0.471593,-0.0232192
26,45,-1.0472,-0.698132,-0.174533,-0.174533,-1.03305,-0.687371,-0.155669,-0.173604,-1.6972,-0.430438,-0.471593,-0.0232192
26,45,-1.0472,-0.698132,-0.174533,-0.174533,-1.03305,-0.687371,-0.155669,-0.173604,-1.6972,-0.430438,-0.471593,-0.0232192
26,45,-1.0472,-0.698132,-0.174533,-0.174533,-1.03305,-0.687371,-0.155669,-0.173604,-1.6972,-0.430438,-0.471593,-0.0232192
26,45,-1.0472,-0.698132,-0.174533,-0.174533,-1.03305,-0.687371,-0.155669,-0.173604,-1.6972,-0.430438,-0.471593,-0.0232192
26,45,-1.0472,-0.698132,-0.174533,-0.174533,-1.03305,-0.687371,-0.155669,-0.173604,-1.6972,-0.430438,-0.471593,-0.0232192
26,45,-1.0472,-0.698132,-0.174533,-0.174533,-1.03305,-0.687371,-0.155669,-0.173604,-1.6972,-0.430438,-0.471593,-0.0232192
26,45,-1.0472,-0.698132,-0.174533,-0.174533,-1.03305,-0.687371,-0.155669,-0.173604,-1.6972,-0.430438,-0.471593,-0.0232192
26,45,-1.0472,-0.698132,-0.174533,-0.174533,-1.03305,-0.687371,-0.155669,-0.173604,-1.6972,-0.430438,-0.471593,-0.0232192
26,45,-1.0472,-0.698132,-0.174533,-0.174533,-1.03305,-0.687371,-0.155669,-0.173604,-1.6972,-0.430438,-0.471593,-0.0232192
26,45,-1.0472,-0.698132,-0.174533,-0.174533,-1.03305,-0.687371,-0.155669,-0.173604,-1.6972,-0.430438,-0.471593,-0.0232192
26,45,-1.0472,-0.698132,-0.174533,-0.174533,-1.03305,-0.687371,-0.155669,-0.173604,-1.6972,-0.430438,-0.471593,-0.0232192
26,45,-1.0472,-0.698132,-0.174533,-0.174533,-1.03305,-0.687371,-0.155669,-0.173604,-1.6972,-0.430438,-0.471593,-0.0232192
26,45,-1.0472,-0.698132,-0.174533,-0.174533,-1.03305,-0.687371,-0.155669,-0.173604,-1.6972,-0.430438,-0.471593,-0.0232192
26,45,-1.0472,-0.698132,-0.174533,-0.174533,-1.03305,-0.687371,-0.155669,-0.173604,-1.6972,-0.430438,-0.471593,-0.0232192
26,45,-1.0472,-0.698132,-0.174533,-0.174533,-1.03305,-0.687371,-0.155669,-0.173604,-1.6972,-0.430438,-0.471593,-0.0232192
26,45,-1.0472,-0.698132,-0.174533,-0.174533,-1.03305,-0.687371,-0.155669,-0.173604,-1.6972,-0.430438,-0.471593,-0.0232192
26,45,-1.0472,-0.698132,-0.174533,-0.174533,-1.03305,-0.687371,-0.155669,-0.173604,-1.6972,-0.430438,-0.471593,-0.0232192
26,45,-1.0472,-0.698132,-0.174533,-0.174533,-1.03305,-0.687371,-0.155669,-0.173604,-1.6972,-0.430438,-0.471593,-0.0232192
26,45,-1.0472,-0.698132,-0.174533,-0.174533,-1.03305,-0.687371,-0.155669,-0.173604,-1.6972,-0.430438,-0.471593,-0.0232192
26,45,-1.0472,-0.698132,-0.174533,-0.174533,-1.03305,-0.687371,-0.155669,-0.173604,-1.6972,-0.430438,-0.471593,-0.0232192
26,45,-1.0472,-0.698132,-0.174533,-0.174533,-1.03305,-0.687371,-0.155669,-0.173604,-1.6972,-0.430438,-0.471593,-0.0232192
26,45,-1.0472,-0.698132,-0.174533,-0.174533,-1.03305,-0.687371,-0.155669,-0.173604,-1.6972,-0.430438,-0.471593,-0.0232192
26,45,-1.0472,-0.698132,-0.174533,-0.174533,-1.03305,-0.687371,-0.155669,-0.173604,-1.6972,-0.430438,-0.471593,-0.0232192
26,45,-1.0472,-0.698132,-0.174533,-0.174533,-1.03305,-0.687371,-0.155669,-0.173604,-1.6972,-0.430438,-0.471593,-0.0232192
26,45,-1.0472,-0.698132,-0.174533,-0.174533,-1.03305,-0.687371,-0.155669,-0.173604,-1.6972,-0.430438,-0.471593,-0.0232192
26,45,-1.0472,-0.698132,-0.174533,-0.174533,-1.03305,-0.687371,-0.155669,-0.173604,-1.6972,-0.430438,-0.471593,-0.0232192
26,45,-1.0472,-0.698132,-0.174533,-0.174533,-1.03305,-0.687371,-0.155669,-0.173604,-1.6972,-0.430438,-0.471593,-0.0232192
26,45,-1.0472,-0.698132,-0.174533,-0.174533,-1.03305,-0.687371,-0.155669,-0.173604,-1.6972,-0.430438,-0.471593,-0.0232192
26,45,-1.0472,-0.698132,-0.174533,-0.174533,-1.03305,-0.687371,-0.155669,-0.173604,-1.6972,-0.430438,-0.471593,-0.0232192
26,45,-1.0472,-0.698132,-0.174533,-0.174533,-1.03305,-0.687371,-0.155669,-0.173604,-1.6972,-0.430438,-0.471593,-0.0232192
26,45,-1.0472,-0.698132,-0.174533,-0.174533,-1.03305,-0.687371,-0.155669,-0.173604,-1.6972,-0.430438,-0.471593,-0.0232192
26,45,-1.0472,-0.698132,-0.174533,-0.174533,-1.03305,-0.687371,-0.155669,-0.173604,-1.6972,-0.430438,-0.471593,-0.0232192
26,45,-1.0472,-0.698132,-0.174533,-0.174533,-1.03305,-0.687371,-0.155669,-0.173604,-1.6972,-0.430438,-0.471593,-0.0232192
26,45,-1.0472,-0.698132,-0.174533,-0.174533,-1.03305,-0.687371,-0.155669,-0.173604,-1.6972,-0.430438,-0.471593,-0.0232192
26,45,-1.0472,-0.698132,-0.174533,-0.174533,-1.03305,-0.687371,-0.155669,-0.173604,-1.6972,-0.430438,-0.471593,-0.0232192
26,45,-1.0472,-0.698132,-0.174533,-0.174533,-1.03305,-0.687371,-0.155669,-0.173604,-1.6972,-0.430438,-0.471593,-0.0232192
26,45,-1.0472,-0.698132,-0.174533,-0.174533,-1.03305,-0.687371,-0.155669,-0.173604,-1.6972,-0.430438,-0.471593,-0.0232192
26,45,-1.0472,-0.698132,-0.174533,-0.174533,-1.03305,-0.687371,-0.155669,-0.173604,-1.6972,-0.430438,-0.471593,-0.0232192
26,45,-1.0472,-0.698132,-0.174533,-0.174533,-1.03305,-0.687371,-0.155669,-0.173604,-1.6972,-0.430438,-0.471593,-0.0232192
26,45,-1.0472,-0.698132,-0.174533,-0.174533,-1.03305,-0.687371,-0.155669,-0.173604,-1.6972,-0.430438,-0.471593,-0.0232192
26,45,-1.0472,-0.698132,-0.174533,-0.174533,-1.03305,-0.687371,-0.155669,-0.173604,-1.6972,-0.430438,-0.471593,-0.0232192
26,45,-1.0472,-0.698132,-0.174533,-0.174533,-1.03305,-0.687371,-0.155669,-0.173604,-1.6972,-0.430438,-0.471593,-0.0232192
26,45,-1.0472,-0.698132,-0.174533,-0.174533,-1.03305,-0.687371,-0.155669,-0.173604,-1.6972,-0.430438,-0.471593,-0.0232192
26,45,-1.0472,-0.698132,-0.174533,-0.174533,-1.03305,-0.687371,-0.155669,-0.173604,-1.6972,-0.430438,-0.471593,-0.0232192
26,45,-1.0472,-0.698132,-0.174533,-0.174533,-1.03305,-0.687371,-0.155669,-0.173604,-1.6972,-0.430438,-0.471593,-0.0232192
26,45,-1.0472,-0.698132,-0.174533,-0.174533,-1.03305,-0.687371,-0.155669,-0.173604,-1.6972,-0.430438,-0.471593,-0.0232192
26,45,-1.0472,-0.698132,-0.174533,-0.174533,-1.03305,-0.687371,-0.155669,-0.173604,-1.6972,-0.430438,-0.471593,-0.0232192
26,45,-1.0472,-0.698132,-0.174533,-0.174533,-1.03305,-0.687371,-0.155669,-0.173604,-1.6972,-0.430438,-0.471593,-0.0232192
26,45,-1.0472,-0.698132,-0.174533,-0.174533,-1.03305,-0.687371,-0.155669,-0.173604,-1.6972,-0.430438,-0.471593,-0.0232192
26,45,-1.0472,-0.698132,-0.174533,-0.174533,-1.03305,-0.687371,-0.155669,-0.173604,-1.6972,-0.430438,-0.471593,-0.0232192
26,45,-1.0472,-0.698132,-0.174533,-0.174533,-1.03305,-0.687371,-0.155669,-0.173604,-1.6972,-0.430438,-0.471593,-0.0232192
26,45,-1.0472,-0.698132,-0.174533,-0.174533,-1.03305,-0.687371,-0.155669,-0.173604,-1.6972,-0.430438,-0.471593,-0.0232192
26,45,-1.0472,-0.698132,-0.174533,-0.174533,-1.03305,-0.687371,-0.155669,-0.173604,-1.6972,-0.430438,-0.471593,-0.0232192
26,45,-1.0472,-0.698132,-0.174533,-0.174533,-1.03305,-0.687371,-0.155669,-0.173604,-1.6972,-0.430438,-0.471593,-0.0232192
26,45,-1.0472,-0.698132,-0.174533,-0.174533,-1.03305,-0.687371,-0.155669,-0.173604,-1.6972,-0.430438,-0.471593,-0.0232192
26,45,-1.0472,-0.698132,-0.174533,-0.174533,-1.03305,-0.687371,-0.155669,-0.173604,-1.6972,-0.430438,-0.471593,-0.0232192
26,45,-1.0472,-0.698132,-0.174533,-0.174533,-1.03305,-0.687371,-0.155669,-0.173604,-1.6972,-0.430438,-0.471593,-0.0232192
26,45,-1.0472,-0.698132,-0.174533,-0.174533,-1.03305,-0.687371,-0.155669,-0.173604,-1.6972,-0.430438,-0.471593,-0.0232192
26,45,-1.0472,-0.698132,-0.174533,-0.174533,-1.03305,-0.687371,-0.155669,-0.173604,-1.6972,-0.430438,-0.471593,-0.0232192
26,45,-1.0472,-0.698132,-0.174533,-0.174533,-1.03305,-0.687371,-0.155669,-0.173604,-1.6972,-0.430438,-0.471593,-0.0232192
26,45,-1.0472,-0.698132,-0.174533,-0.174533,-1.03305,-0.687371,-0.155669,-0.173604,-1.6972,-0.430438,-0.471593,-0.0232192
26,45,-1.0472,-0.698132,-0.174533,-0.174533,-1.03305,-0.687371,-0.155669,-0.173604,-1.6972,-0.430438,-0.471593,-0.0232192
26,45,-1.0472,-0.698132,-0.174533,-0.174533,-1.03305,-0.687371,-0.155671,-0.173664,-1.6972,-0.430438,-0.471542,-0.0217323
26,45,-1.0472,-0.698132,-0.174533,-0.174533,-1.03305,-0.687371,-0.155671,-0.173664,-1.6972,-0.430438,-0.471542,-0.0217323
26,45,-1.0472,-0.698132,-0.174533,-0.174533,-1.03305,-0.687371,-0.155735,-0.173705,-1.6972,-0.430438,-0.469944,-0.0206972
26,45,-1.0472,-0.698132,-0.174533,-0.174533,-1.03305,-0.687371,-0.155735,-0.173705,-1.6972,-0.430438,-0.469944,-0.0206972
26,45,-1.0472,-0.698132,-0.174533,-0.174533,-1.03305,-0.687371,-0.155735,-0.173705,-1.6972,-0.430438,-0.469944,-0.0206972
26,45,-1.0472,-0.698132,-0.174533,-0.174533,-1.03305,-0.687371,-0.155735,-0.173705,-1.6972,-0.430438,-0.469944,-0.0206972
26,45,-1.0472,-0.698132,-0.174533,-0.174533,-1.03305,-0.687371,-0.155735,-0.173705,-1.6972,-0.430438,-0.469944,-0.0206972
26,45,-1.0472,-0.698132,-0.174533,-0.174533,-1.03305,-0.687371,-0.155735,-0.173705,-1.6972,-0.430438,-0.469944,-0.0206972
26,45,-1.0472,-0.698132,-0.174533,-0.174533,-1.03305,-0.687371,-0.155735,-0.173705,-1.6972,-0.430438,-0.469944,-0.0206972
26,45,-1.0472,-0.698132,-0.174533,-0.174533,-1.03305,-0.687371,-0.155735,-0.173705,-1.6972,-0.430438,-0.469944,-0.0206972
26,45,-1.0472,-0.698132,-0.174533,-0.174533,-1.03305,-0.687371,-0.155735,-0.173705,-1.6972,-0.430438,-0.469944,-0.0206972
26,45,-1.0472,-0.698132,-0.174533,-0.174533,-1.03305,-0.687371,-0.155735,-0.173705,-1.6972,-0.430438,-0.469944,-0.0206972
26,45,-1.0472,-0.698132,-0.174533,-0.174533,-1.03305,-0.687371,-0.155735,-0.173705,-1.6972,-0.430438,-0.469944,-0.0206972
26,45,-1.0472,-0.698132,-0.174533,-0.174533,-1.03305,-0.687371,-0.155735,-0.173705,-1.6972,-0.430438,-0.469944,-0.0206972
26,45,-1.0472,-0.698132,-0.174533,-0.174533,-1.03305,-0.687371,-0.155735,-0.173705,-1.6972,-0.430438,-0.469944,-0.0206972
26,45,-1.0472,-0.698132,-0.174533,-0.174533,-1.03305,-0.687371,-0.155735,-0.173705,-1.6972,-0.430438,-0.469944,-0.0206972
26,45,-1.0472,-0.698132,-0.174533,-0.174533,-1.03305,-0.687371,-0.155735,-0.173705,-1.6972,-0.430438,-0.469944,-0.0206972
26,45,-1.0472,-0.698132,-0.174533,-0.174533,-1.03305,-0.687371,-0.155735,-0.173705,-1.6972,-0.430438,-0.469944,-0.0206972
26,45,-1.0472,-0.698132,-0.174533,-0.174533,-1.03305,-0.687371,-0.155735,-0.173705,-1.6972,-0.430438,-0.469944,-0.0206972
26,45,-1.0472,-0.698132,-0.174533,-0.174533,-1.03305,-0.687371,-0.155735,-0.173705,-1.6972,-0.430438,-0.469944,-0.0206972
26,45,-1.0472,-0.698132,-0.174533,-0.174533,-1.03305,-0.687371,-0.155737,-0.173765,-1.6972,-0.430438,-0.469893,-0.0192103
26,45,-1.0472,-0.698132,-0.174533,-0.174533,-1.03305,-0.687371,-0.155737,-0.173765,-1.6972,-0.430438,-0.469893,-0.0192103
26,45,-1.0472,-0.698132,-0.174533,-0.174533,-1.03305,-0.687371,-0.155737,-0.173765,-1.6972,-0.430438,-0.469893,-0.0192103
26,45,-1.0472,-0.698132,-0.174533,-0.174533,-1.03305,-0.687371,-0.155737,-0.173765,-1.6972,-0.430438,-0.469893,-0.0192103
26,45,-1.0472,-0.698132,-0.174533,-0.174533,-1.03305,-0.687371,-0.155737,-0.173765,-1.6972,-0.430438,-0.469893,-0.0192103
26,45,-1.0472,-0.698132,-0.174533,-0.174533,-1.03305,-0.687371,-0.155737,-0.173765,-1.6972,-0.430438,-0.469893,-0.0192103
26,45,-1.0472,-0.698132,-0.174533,-0.174533,-1.03305,-0.687371,-0.155797,-0.173745,-1.6972,-0.430438,-0.468405,-0.019705
26,45,-1.0472,-0.698132,-0.174533,-0.174533,-1.03305,-0.687371,-0.155797,-0.173745,-1.6972,-0.430438,-0.468405,-0.019705
26,45,-1.0472,-0.698132,-0.174533,-0.174533,-1.03305,-0.687371,-0.155797,-0.173745,-1.6972,-0.430438,-0.468405,-0.019705
26,45,-1.0472,-0.698132,-0.174533,-0.174533,-1.03305,-0.687371,-0.155797,-0.173745,-1.6972,-0.430438,-0.468405,-0.019705
26,45,-1.0472,-0.698132,-0.174533,-0.174533,-1.03305,-0.687371,-0.155797,-0.173745,-1.6972,-0.430438,-0.468405,-0.019705
26,45,-1.0472,-0.698132,-0.174533,-0.174533,-1.03305,-0.687371,-0.155797,-0.173745,-1.6972,-0.430438,-0.468405,-0.019705
26,45,-1.0472,-0.698132,-0.174533,-0.174533,-1.03305,-0.687371,-0.155797,-0.173745,-1.6972,-0.430438,-0.468405,-0.019705
26,45,-1.0472,-0.698132,-0.174533,-0.174533,-1.03305,-0.687371,-0.155797,-0.173745,-1.6972,-0.430438,-0.468405,-0.019705
26,45,-1.0472,-0.698132,-0.174533,-0.174533,-1.03305,-0.687371,-0.155797,-0.173745,-1.6972,-0.430438,-0.468405,-0.019705
26,45,-1.0472,-0.698132,-0.174533,-0.174533,-1.03305,-0.687371,-0.155797,-0.173745,-1.6972,-0.430438,-0.468405,-0.019705
26,45,-1.0472,-0.698132,-0.174533,-0.174533,-1.03305,-0.687371,-0.155797,-0.173745,-1.6972,-0.430438,-0.468405,-0.019705
26,45,-1.0472,-0.698132,-0.174533,-0.174533,-1.03305,-0.687371,-0.155797,-0.173745,-1.6972,-0.430438,-0.468405,-0.019705
26,45,-1.0472,-0.698132,-0.174533,-0.174533,-1.03305,-0.687371,-0.155797,-0.173745,-1.6972,-0.430438,-0.468405,-0.019705
26,45,-1.0472,-0.698132,-0.174533,-0.174533,-1.03305,-0.687371,-0.155797,-0.173745,-1.6972,-0.430438,-0.468405,-0.019705
26,45,-1.0472,-0.698132,-0.174533,-0.174533,-1.03305,-0.687371,-0.155799,-0.173804,-1.6972,-0.430438,-0.468354,-0.0182181
26,45,-1.0472,-0.698132,-0.174533,-0.174533,-1.03305,-0.687371,-0.155799,-0.173804,-1.6972,-0.430438,-0.468354,-0.0182181
26,45,-1.0472,-0.698132,-0.174533,-0.174533,-1.03305,-0.687371,-0.155799,-0.173804,-1.6972,-0.430438,-0.468354,-0.0182181
26,45,-1.0472,-0.698132,-0.174533,-0.174533,-1.03305,-0.687371,-0.155799,-0.173804,-1.6972,-0.430438,-0.468354,-0.0182181
26,45,-1.0472,-0.698132,-0.174533,-0.174533,-1.03305,-0.687371,-0.155799,-0.173804,-1.6972,-0.430438,-0.468354,-0.0182181
26,45,-1.0472,-0.698132,-0.174533,-0.174533,-1.03305,-0.687371,-0.155863,-0.173846,-1.6972,-0.430438,-0.466756,-0.0171828
26,45,-1.0472,-0.698132,-0.174533,-0.174533,-1.03305,-0.687371,-0.155863,-0.173846,-1.6972,-0.430438,-0.466756,-0.0171828
26,45,-1.0472,-0.698132,-0.174533,-0.174533,-1.03305,-0.687371,-0.155863,-0.173846,-1.6972,-0.430438,-0.466756,-0.0171828
26,45,-1.0472,-0.698132,-0.174533,-0.174533,-1.03305,-0.687371,-0.155863,-0.173846,-1.6972,-0.430438,-0.466756,-0.0171828
26,45,-1.0472,-0.698132,-0.174533,-0.174533,-1.03305,-0.687371,-0.155863,-0.173846,-1.6972,-0.430438,-0.466756,-0.0171828
26,45,-1.0472,-0.698132,-0.174533,-0.174533,-1.03305,-0.687371,-0.155863,-0.173846,-1.6972,-0.430438,-0.466756,-0.0171828
26,45,-1.0472,-0.698132,-0.174533,-0.174533,-1.03305,-0.687371,-0.155863,-0.173846,-1.6972,-0.430438,-0.466756,-0.0171828
26,45,-1.0472,-0.698132,-0.174533,-0.174533,-1.03305,-0.687371,-0.155863,-0.173846,-1.6972,-0.430438,-0.466756,-0.0171828
26,45,-1.0472,-0.698132,-0.174533,-0.174533,-1.03305,-0.687371,-0.155863,-0.173846,-1.6972,-0.430438,-0.466756,-0.0171828
26,45,-1.0472,-0.698132,-0.174533,-0.174533,-1.03305,-0.687371,-0.155863,-0.173846,-1.6972,-0.430438,-0.466756,-0.0171828
26,45,-1.0472,-0.698132,-0.174533,-0.174533,-1.03305,-0.687371,-0.155863,-0.173846,-1.6972,-0.430438,-0.466756,-0.0171828
26,45,-1.0472,-0.698132,-0.174533,-0.174533,-1.03305,-0.687371,-0.155863,-0.173846,-1.6972,-0.430438,-0.466756,-0.0171828
26,45,-1.0472,-0.698132,-0.174533,-0.174533,-1.03305,-0.687371,-0.155863,-0.173846,-1.6972,-0.430438,-0.466756,-0.0171828
26,45,-1.0472,-0.698132,-0.174533,-0.174533,-1.03305,-0.687371,-0.155863,-0.173846,-1.6972,-0.430438,-0.466756,-0.0171828
26,45,-1.0472,-0.698132,-0.174533,-0.174533,-1.03305,-0.687371,-0.155863,-0.173846,-1.6972,-0.430438,-0.466756,-0.0171828
26,45,-1.0472,-0.698132,-0.174533,-0.174533,-1.03305,-0.687371,-0.155863,-0.173846,-1.6972,-0.430438,-0.466756,-0.0171828
26,45,-1.0472,-0.698132,-0.174533,-0.174533,-1.03305,-0.687371,-0.155863,-0.173846,-1.6972,-0.430438,-0.466756,-0.0171828
26,45,-1.0472,-0.698132,-0.174533,-0.174533,-1.03305,-0.687371,-0.155863,-0.173846,-1.6972,-0.430438,-0.466756,-0.0171828
26,45,-1.0472,-0.698132,-0.174533,-0.174533,-1.03305,-0.687371,-0.155863,-0.173846,-1.6972,-0.430438,-0.466756,-0.0171828
26,45,-1.0472,-0.698132,-0.174533,-0.174533,-1.03305,-0.687371,-0.155863,-0.173846,-1.6972,-0.430438,-0.466756,-0.0171828
26,45,-1.0472,-0.698132,-0.174533,-0.174533,-1.03305,-0.687371,-0.155863,-0.173846,-1.6972,-0.430438,-0.466756,-0.0171828
26,45,-1.0472,-0.698132,-0.174533,-0.174533,-1.03305,-0.687371,-0.155863,-0.173846,-1.6972,-0.430438,-0.466756,-0.0171828
26,45,-1.0472,-0.698132,-0.174533,-0.174533,-1.03305,-0.687371,-0.155863,-0.173846,-1.6972,-0.430438,-0.466756,-0.0171828
26,45,-1.0472,-0.698132,-0.174533,-0.174533,-1.03305,-0.687371,-0.155863,-0.173846,-1.6972,-0.430438,-0.466756,-0.0171828
26,45,-1.0472,-0.698132,-0.174533,-0.174533,-1.03305,-0.687371,-0.155863,-0.173846,-1.6972,-0.430438,-0.466756,-0.0171828
26,45,-1.0472,-0.698132,-0.174533,-0.174533,-1.03305,-0.687371,-0.155863,-0.173846,-1.6972,-0.430438,-0.466756,-0.0171828
26,45,-1.0472,-0.698132,-0.174533,-0.174533,-1.03305,-0.687371,-0.155863,-0.173846,-1.6972,-0.430438,-0.466756,-0.0171828
26,45,-1.0472,-0.698132,-0.174533,-0.174533,-1.03305,-0.687371,-0.155863,-0.173846,-1.6972,-0.430438,-0.466756,-0.0171828
26,45,-1.0472,-0.698132,-0.174533,-0.174533,-1.03305,-0.687371,-0.155863,-0.173846,-1.6972,-0.430438,-0.466756,-0.0171828
26,45,-1.0472,-0.698132,-0.174533,-0.174533,-1.03305,-0.687371,-0.155863,-0.173846,-1.6972,-0.430438,-0.466756,-0.0171828
26,45,-1.0472,-0.698132,-0.174533,-0.174533,-1.03305,-0.687371,-0.155863,-0.173846,-1.6972,-0.430438,-0.466756,-0.0171828
26,45,-1.0472,-0.698132,-0.174533,-0.174533,-1.03305,-0.687371,-0.155863,-0.173846,-1.6972,-0.430438,-0.466756,-0.0171828
26,45,-1.0472,-0.698132,-0.174533,-0.174533,-1.03305,-0.687371,-0.155863,-0.173846,-1.6972,-0.430438,-0.466756,-0.0171828
26,45,-1.0472,-0.698132,-0.174533,-0.174533,-1.03305,-0.687371,-0.155863,-0.173846,-1.6972,-0.430438,-0.466756,-0.0171828
26,45,-1.0472,-0.698132,-0.174533,-0.174533,-1.03305,-0.687371,-0.155863,-0.173846,-1.6972,-0.430438,-0.466756,-0.0171828
26,45,-1.0472,-0.698132,-0.174533,-0.174533,-1.03305,-0.687371,-0.155863,-0.173846,-1.6972,-0.430438,-0.466756,-0.0171828
26,45,-1.0472,-0.698132,-0.174533,-0.174533,-1.03305,-0.687371,-0.155863,-0.173846,-1.6972,-0.430438,-0.466756,-0.0171828
26,45,-1.0472,-0.698132,-0.174533,-0.174533,-1.03305,-0.687371,-0.155863,-0.173846,-1.6972,-0.430438,-0.466756,-0.0171828
26,45,-1.0472,-0.698132,-0.174533,-0.174533,-1.03305,-0.687371,-0.155863,-0.173846,-1.6972,-0.430438,-0.466756,-0.0171828
26,45,-1.0472,-0.698132,-0.174533,-0.174533,-1.03305,-0.687371,-0.155863,-0.173846,-1.6972,-0.430438,-0.466756,-0.0171828
26,45,-1.0472,-0.698132,-0.174533,-0.174533,-1.03305,-0.687371,-0.155863,-0.173846,-1.6972,-0.430438,-0.466756,-0.0171828
26,45,-1.0472,-0.698132,-0.174533,-0.174533,-1.03305,-0.687371,-0.155863,-0.173846,-1.6972,-0.430438,-0.466756,-0.0171828
26,45,-1.0472,-0.698132,-0.174533,-0.174533,-1.03305,-0.687371,-0.155863,-0.173846,-1.6972,-0.430438,-0.466756,-0.0171828
26,45,-1.0472,-0.698132,-0.174533,-0.174533,-1.03305,-0.687371,-0.155863,-0.173846,-1.6972,-0.430438,-0.466756,-0.0171828
26,45,-1.0472,-0.698132,-0.174533,-0.174533,-1.03305,-0.687371,-0.155863,-0.173846,-1.6972,-0.430438,-0.466756,-0.0171828
26,45,-1.0472,-0.698132,-0.174533,-0.174533,-1.03305,-0.687371,-0.155863,-0.173846,-1.6972,-0.430438,-0.466756,-0.0171828
26,45,-1.0472,-0.698132,-0.174533,-0.174533,-1.03305,-0.687371,-0.155863,-0.173846,-1.6972,-0.430438,-0.466756,-0.0171828
26,45,-1.0472,-0.698132,-0.174533,-0.174533,-1.03305,-0.687371,-0.155863,-0.173846,-1.6972,-0.430438,-0.466756,-0.0171828
26,45,-1.0472,-0.698132,-0.174533,-0.174533,-1.03305,-0.687371,-0.155863,-0.173846,-1.6972,-0.430438,-0.466756,-0.0171828
26,45,-1.0472,-0.698132,-0.174533,-0.174533,-1.03305,-0.687371,-0.155863,-0.173846,-1.6972,-0.430438,-0.466756,-0.0171828
26,45,-1.0472,-0.698132,-0.174533,-0.174533,-1.03305,-0.687371,-0.155863,-0.173846,-1.6972,-0.430438,-0.466756,-0.0171828
26,45,-1.0472,-0.698132,-0.174533,-0.174533,-1.03305,-0.687371,-0.155863,-0.173846,-1.6972,-0.430438,-0.466756,-0.0171828
26,45,-1.0472,-0.698132,-0.174533,-0.174533,-1.03305,-0.687371,-0.155863,-0.173846,-1.6972,-0.430438,-0.466756,-0.0171828
26,45,-1.0472,-0.698132,-0.174533,-0.174533,-1.03305,-0.687371,-0.155863,-0.173846,-1.6972,-0.430438,-0.466756,-0.0171828
26,45,-1.0472,-0.698132,-0.174533,-0.174533,-1.03305,-0.687371,-0.155863,-0.173846,-1.6972,-0.430438,-0.466756,-0.0171828
26,45,-1.0472,-0.698132,-0.174533,-0.174533,-1.03305,-0.687371,-0.155863,-0.173846,-1.6972,-0.430438,-0.466756,-0.0171828
26,45,-1.0472,-0.698132,-0.174533,-0.174533,-1.03305,-0.687371,-0.155863,-0.173846,-1.6972,-0.430438,-0.466756,-0.0171828
26,45,-1.0472,-0.698132,-0.174533,-0.174533,-1.03305,-0.687371,-0.155863,-0.173846,-1.6972,-0.430438,-0.466756,-0.0171828
26,45,-1.0472,-0.698132,-0.174533,-0.174533,-1.03305,-0.687371,-0.155863,-0.173846,-1.6972,-0.430438,-0.466756,-0.0171828
26,45,-1.0472,-0.698132,-0.174533,-0.174533,-1.03305,-0.687371,-0.155863,-0.173846,-1.6972,-0.430438,-0.466756,-0.0171828
26,45,-1.0472,-0.698132,-0.174533,-0.174533,-1.03305,-0.687371,-0.155863,-0.173846,-1.6972,-0.430438,-0.466756,-0.0171828
26,45,-1.0472,-0.698132,-0.174533,-0.174533,-1.03305,-0.687371,-0.155863,-0.173846,-1.6972,-0.430438,-0.466756,-0.0171828
26,45,-1.0472,-0.698132,-0.174533,-0.174533,-1.03305,-0.687371,-0.155863,-0.173846,-1.6972,-0.430438,-0.466756,-0.0171828
26,45,-1.0472,-0.698132,-0.174533,-0.174533,-1.03305,-0.687371,-0.155863,-0.173846,-1.6972,-0.430438,-0.466756,-0.0171828
26,45,-1.0472,-0.698132,-0.174533,-0.174533,-1.03305,-0.687371,-0.155863,-0.173846,-1.6972,-0.430438,-0.466756,-0.0171828
26,45,-1.0472,-0.698132,-0.174533,-0.174533,-1.03305,-0.687371,-0.155863,-0.173846,-1.6972,-0.430438,-0.466756,-0.0171828
26,45,-1.0472,-0.698132,-0.174533,-0.174533,-1.03305,-0.687371,-0.155863,-0.173846,-1.6972,-0.430438,-0.466756,-0.0171828
26,45,-1.0472,-0.698132,-0.174533,-0.174533,-1.03305,-0.687371,-0.155863,-0.173846,-1.6972,-0.430438,-0.466756,-0.0171828
26,45,-1.0472,-0.698132,-0.174533,-0.174533,-1.03305,-0.687371,-0.155863,-0.173846,-1.6972,-0.430438,-0.466756,-0.0171828
26,45,-1.0472,-0.698132,-0.174533,-0.174533,-1.03305,-0.687371,-0.155863,-0.173846,-1.6972,-0.430438,-0.466756,-0.0171828
26,45,-1.0472,-0.698132,-0.174533,-0.174533,-1.03305,-0.687371,-0.155863,-0.173846,-1.6972,-0.430438,-0.466756,-0.0171828
26,45,-1.0472,-0.698132,-0.174533,-0.174533,-1.03305,-0.687371,-0.155863,-0.173846,-1.6972,-0.430438,-0.466756,-0.0171828
26,45,-1.0472,-0.698132,-0.174533,-0.174533,-1.03305,-0.687371,-0.155863,-0.173846,-1.6972,-0.430438,-0.466756,-0.0171828
26,45,-1.0472,-0.698132,-0.174533,-0.174533,-1.03305,-0.687371,-0.155863,-0.173846,-1.6972,-0.430438,-0.466756,-0.0171828
26,45,-1.0472,-0.698132,-0.174533,-0.174533,-1.03305,-0.687371,-0.155863,-0.173846,-1.6972,-0.430438,-0.466756,-0.0171828
26,45,-1.0472,-0.698132,-0.174533,-0.174533,-1.03305,-0.687371,-0.155863,-0.173846,-1.6972,-0.430438,-0.466756,-0.0171828
26,45,-1.0472,-0.698132,-0.174533,-0.174533,-1.03305,-0.687371,-0.155863,-0.173846,-1.6972,-0.430438,-0.466756,-0.0171828
26,45,-1.0472,-0.698132,-0.174533,-0.174533,-1.03305,-0.687371,-0.155863,-0.173846,-1.6972,-0.430438,-0.466756,-0.0171828
26,45,-1.0472,-0.698132,-0.174533,-0.174533,-1.03305,-0.687371,-0.155863,-0.173846,-1.6972,-0.430438,-0.466756,-0.0171828
26,45,-1.0472,-0.698132,-0.174533,-0.174533,-1.03305,-0.687371,-0.155863,-0.173846,-1.6972,-0.430438,-0.466756,-0.0171828
26,45,-1.0472,-0.698132,-0.174533,-0.174533,-1.03305,-0.687371,-0.155863,-0.173846,-1.6972,-0.430438,-0.466756,-0.0171828
26,45,-1.0472,-0.698132,-0.174533,-0.174533,-1.03305,-0.687371,-0.155863,-0.173846,-1.6972,-0.430438,-0.466756,-0.0171828
26,45,-1.0472,-0.698132,-0.174533,-0.174533,-1.03305,-0.687371,-0.155863,-0.173846,-1.6972,-0.430438,-0.466756,-0.0171828
26,45,-1.0472,-0.698132,-0.174533,-0.174533,-1.03305,-0.687371,-0.155863,-0.173846,-1.6972,-0.430438,-0.466756,-0.0171828
26,45,-1.0472,-0.698132,-0.174533,-0.174533,-1.03305,-0.687371,-0.155863,-0.173846,-1.6972,-0.430438,-0.466756,-0.0171828
26,45,-1.0472,-0.698132,-0.174533,-0.174533,-1.03305,-0.687371,-0.155863,-0.173846,-1.6972,-0.430438,-0.466756,-0.0171828
26,45,-1.0472,-0.698132,-0.174533,-0.174533,-1.03305,-0.687371,-0.155863,-0.173846,-1.6972,-0.430438,-0.466756,-0.0171828
26,45,-1.0472,-0.698132,-0.174533,-0.174533,-1.03305,-0.687371,-0.155863,-0.173846,-1.6972,-0.430438,-0.466756,-0.0171828
26,45,-1.0472,-0.698132,-0.174533,-0.174533,-1.03305,-0.687371,-0.155863,-0.173846,-1.6972,-0.430438,-0.466756,-0.0171828
26,45,-1.0472,-0.698132,-0.174533,-0.174533,-1.03305,-0.687371,-0.155863,-0.173846,-1.6972,-0.430438,-0.466756,-0.0171828
26,45,-1.0472,-0.698132,-0.174533,-0.174533,-1.03305,-0.687371,-0.155863,-0.173846,-1.6972,-0.430438,-0.466756,-0.0171828
26,45,-1.0472,-0.698132,-0.174533,-0.174533,-1.03305,-0.687371,-0.155863,-0.173846,-1.6972,-0.430438,-0.466756,-0.0171828
26,45,-1.0472,-0.698132,-0.174533,-0.174533,-1.03305,-0.687371,-0.155863,-0.173846,-1.6972,-0.430438,-0.466756,-0.0171828
26,45,-1.0472,-0.698132,-0.174533,-0.174533,-1.03305,-0.687371,-0.155863,-0.173846,-1.6972,-0.430438,-0.466756,-0.0171828
26,45,-1.0472,-0.698132,-0.174533,-0.174533,-1.03305,-0.687371,-0.155863,-0.173846,-1.6972,-0.430438,-0.466756,-0.0171828
26,45,-1.0472,-0.698132,-0.174533,-0.174533,-1.03305,-0.687371,-0.155863,-0.173846,-1.6972,-0.430438,-0.466756,-0.0171828
26,45,-1.0472,-0.698132,-0.174533,-0.174533,-1.03305,-0.687371,-0.155863,-0.173846,-1.6972,-0.430438,-0.466756,-0.0171828
26,45,-1.0472,-0.698132,-0.174533,-0.174533,-1.03305,-0.687371,-0.155863,-0.173846,-1.6972,-0.430438,-0.466756,-0.0171828
26,45,-1.0472,-0.698132,-0.174533,-0.174533,-1.03305,-0.687371,-0.155863,-0.173846,-1.6972,-0.430438,-0.466756,-0.0171828
26,45,-1.0472,-0.698132,-0.174533,-0.174533,-1.03305,-0.687371,-0.155863,-0.173846,-1.6972,-0.430438,-0.466756,-0.0171828
26,45,-1.0472,-0.698132,-0.174533,-0.174533,-1.03305,-0.687371,-0.155863,-0.173846,-1.6972,-0.430438,-0.466756,-0.0171828
26,45,-1.0472,-0.698132,-0.174533,-0.174533,-1.03305,-0.687371,-0.155863,-0.173846,-1.6972,-0.430438,-0.466756,-0.0171828
26,45,-1.0472,-0.698132,-0.174533,-0.174533,-1.03305,-0.687371,-0.155863,-0.173846,-1.6972,-0.430438,-0.466756,-0.0171828
26,45,-1.0472,-0.698132,-0.174533,-0.174533,-1.03305,-0.687371,-0.155863,-0.173846,-1.6972,-0.430438,-0.466756,-0.0171828
26,45,-1.0472,-0.698132,-0.174533,-0.174533,-1.03305,-0.687371,-0.155863,-0.173846,-1.6972,-0.430438,-0.466756,-0.0171828
26,45,-1.0472,-0.698132,-0.174533,-0.174533,-1.03305,-0.687371,-0.155863,-0.173846,-1.6972,-0.430438,-0.466756,-0.0171828
26,45,-1.0472,-0.698132,-0.174533,-0.174533,-1.03305,-0.687371,-0.155863,-0.173846,-1.6972,-0.430438,-0.466756,-0.0171828
26,45,-1.0472,-0.698132,-0.174533,-0.174533,-1.03305,-0.687371,-0.155863,-0.173846,-1.6972,-0.430438,-0.466756,-0.0171828
26,45,-1.0472,-0.698132,-0.174533,-0.174533,-1.03305,-0.687371,-0.155863,-0.173846,-1.6972,-0.430438,-0.466756,-0.0171828
26,45,-1.0472,-0.698132,-0.174533,-0.174533,-1.03305,-0.687371,-0.155863,-0.173846,-1.6972,-0.430438,-0.466756,-0.0171828
26,45,-1.0472,-0.698132,-0.174533,-0.174533,-1.03305,-0.687371,-0.155863,-0.173846,-1.6972,-0.430438,-0.466756,-0.0171828
26,45,-1.0472,-0.698132,-0.174533,-0.174533,-1.03305,-0.687371,-0.155863,-0.173846,-1.6972,-0.430438,-0.466756,-0.0171828
26,45,-1.0472,-0.698132,-0.174533,-0.174533,-1.03305,-0.687371,-0.155863,-0.173846,-1.6972,-0.430438,-0.466756,-0.0171828
26,45,-1.0472,-0.698132,-0.174533,-0.174533,-1.03305,-0.687371,-0.155863,-0.173846,-1.6972,-0.430438,-0.466756,-0.0171828
26,45,-1.0472,-0.698132,-0.174533,-0.174533,-1.03305,-0.687371,-0.155863,-0.173846,-1.6972,-0.430438,-0.466756,-0.0171828
26,45,-1.0472,-0.698132,-0.174533,-0.174533,-1.03305,-0.687371,-0.155863,-0.173846,-1.6972,-0.430438,-0.466756,-0.0171828
26,45,-1.0472,-0.698132,-0.174533,-0.174533,-1.03305,-0.687371,-0.155863,-0.173846,-1.6972,-0.430438,-0.466756,-0.0171828
26,45,-1.0472,-0.698132,-0.174533,-0.174533,-1.03305,-0.687371,-0.155863,-0.173846,-1.6972,-0.430438,-0.466756,-0.0171828
26,45,-1.0472,-0.698132,-0.174533,-0.174533,-1.03305,-0.687371,-0.155863,-0.173846,-1.6972,-0.430438,-0.466756,-0.0171828
26,45,-1.0472,-0.698132,-0.174533,-0.174533,-1.03305,-0.687371,-0.155863,-0.173846,-1.6972,-0.430438,-0.466756,-0.0171828
26,45,-1.0472,-0.698132,-0.174533,-0.174533,-1.03305,-0.687371,-0.155863,-0.173846,-1.6972,-0.430438,-0.466756,-0.0171828
26,45,-1.0472,-0.698132,-0.174533,-0.174533,-1.03305,-0.687371,-0.155863,-0.173846,-1.6972,-0.430438,-0.466756,-0.0171828
26,45,-1.0472,-0.698132,-0.174533,-0.174533,-1.03305,-0.687371,-0.155863,-0.173846,-1.6972,-0.430438,-0.466756,-0.0171828
26,45,-1.0472,-0.698132,-0.174533,-0.174533,-1.03305,-0.687371,-0.155863,-0.173846,-1.6972,-0.430438,-0.466756,-0.0171828
26,45,-1.0472,-0.698132,-0.174533,-0.174533,-1.03305,-0.687371,-0.155863,-0.173846,-1.6972,-0.430438,-0.466756,-0.0171828
26,45,-1.0472,-0.698132,-0.174533,-0.174533,-1.03305,-0.687371,-0.155863,-0.173846,-1.6972,-0.430438,-0.466756,-0.0171828
26,45,-1.0472,-0.698132,-0.174533,-0.174533,-1.03305,-0.687371,-0.155863,-0.173846,-1.6972,-0.430438,-0.466756,-0.0171828
26,45,-1.0472,-0.698132,-0.174533,-0.174533,-1.03305,-0.687371,-0.155863,-0.173846,-1.6972,-0.430438,-0.466756,-0.0171828
26,45,-1.0472,-0.698132,-0.174533,-0.174533,-1.03305,-0.687371,-0.155863,-0.173846,-1.6972,-0.430438,-0.466756,-0.0171828
26,45,-1.0472,-0.698132,-0.174533,-0.174533,-1.03305,-0.687371,-0.155863,-0.173846,-1.6972,-0.430438,-0.466756,-0.0171828
26,45,-1.0472,-0.698132,-0.174533,-0.174533,-1.03305,-0.687371,-0.155863,-0.173846,-1.6972,-0.430438,-0.466756,-0.0171828
26,45,-1.0472,-0.698132,-0.174533,-0.174533,-1.03305,-0.687371,-0.155863,-0.173846,-1.6972,-0.430438,-0.466756,-0.0171828
26,45,-1.0472,-0.698132,-0.174533,-0.174533,-1.03305,-0.687371,-0.155863,-0.173846,-1.6972,-0.430438,-0.466756,-0.0171828
26,45,-1.0472,-0.698132,-0.174533,-0.174533,-1.03305,-0.687371,-0.155863,-0.173846,-1.6972,-0.430438,-0.466756,-0.0171828
26,45,-1.0472,-0.698132,-0.174533,-0.174533,-1.03305,-0.687371,-0.155863,-0.173846,-1.6972,-0.430438,-0.466756,-0.0171828
26,45,-1.0472,-0.698132,-0.174533,-0.174533,-1.03305,-0.687371,-0.155863,-0.173846,-1.6972,-0.430438,-0.466756,-0.0171828
26,45,-1.0472,-0.698132,-0.174533,-0.174533,-1.03305,-0.687371,-0.155863,-0.173846,-1.6972,-0.430438,-0.466756,-0.0171828
26,45,-1.0472,-0.698132,-0.174533,-0.174533,-1.03305,-0.687371,-0.155863,-0.173846,-1.6972,-0.430438,-0.466756,-0.0171828
26,45,-1.0472,-0.698132,-0.174533,-0.174533,-1.03305,-0.687371,-0.155863,-0.173846,-1.6972,-0.430438,-0.466756,-0.0171828
26,45,-1.0472,-0.698132,-0.174533,-0.174533,-1.03305,-0.687371,-0.155863,-0.173846,-1.6972,-0.430438,-0.466756,-0.0171828
26,45,-1.0472,-0.698132,-0.174533,-0.174533,-1.03305,-0.687371,-0.155863,-0.173846,-1.6972,-0.430438,-0.466756,-0.0171828
26,45,-1.0472,-0.698132,-0.174533,-0.174533,-1.03305,-0.687371,-0.155863,-0.173846,-1.6972,-0.430438,-0.466756,-0.0171828
26,45,-1.0472,-0.698132,-0.174533,-0.174533,-1.03305,-0.687371,-0.155863,-0.173846,-1.6972,-0.430438,-0.466756,-0.0171828
26,45,-1.0472,-0.698132,-0.174533,-0.174533,-1.03305,-0.687371,-0.155863,-0.173846,-1.6972,-0.430438,-0.466756,-0.0171828
26,45,-1.0472,-0.698132,-0.174533,-0.174533,-1.03305,-0.687371,-0.155863,-0.173846,-1.6972,-0.430438,-0.466756,-0.0171828
26,45,-1.0472,-0.698132,-0.174533,-0.174533,-1.03305,-0.687371,-0.155863,-0.173846,-1.6972,-0.430438,-0.466756,-0.0171828
26,45,-1.0472,-0.698132,-0.174533,-0.174533,-1.03305,-0.687371,-0.155863,-0.173846,-1.6972,-0.430438,-0.466756,-0.0171828
26,45,-1.0472,-0.698132,-0.174533,-0.174533,-1.03305,-0.687371,-0.155863,-0.173846,-1.6972,-0.430438,-0.466756,-0.0171828
26,45,-1.0472,-0.698132,-0.174533,-0.174533,-1.03305,-0.687371,-0.155863,-0.173846,-1.6972,-0.430438,-0.466756,-0.0171828
26,45,-1.0472,-0.698132,-0.174533,-0.174533,-1.03305,-0.687371,-0.155863,-0.173846,-1.6972,-0.430438,-0.466756,-0.0171828
26,45,-1.0472,-0.698132,-0.174533,-0.174533,-1.03305,-0.687371,-0.155863,-0.173846,-1.6972,-0.430438,-0.466756,-0.0171828
26,45,-1.0472,-0.698132,-0.174533,-0.174533,-1.03305,-0.687371,-0.155863,-0.173846,-1.6972,-0.430438,-0.466756,-0.0171828
26,45,-1.0472,-0.698132,-0.174533,-0.174533,-1.03305,-0.687371,-0.155863,-0.173846,-1.6972,-0.430438,-0.466756,-0.0171828
26,45,-1.0472,-0.698132,-0.174533,-0.174533,-1.03305,-0.687371,-0.155863,-0.173846,-1.6972,-0.430438,-0.466756,-0.0171828
26,45,-1.0472,-0.698132,-0.174533,-0.174533,-1.03305,-0.687371,-0.155863,-0.173846,-1.6972,-0.430438,-0.466756,-0.0171828
26,45,-1.0472,-0.698132,-0.174533,-0.174533,-1.03305,-0.687371,-0.155863,-0.173846,-1.6972,-0.430438,-0.466756,-0.0171828
26,45,-1.0472,-0.698132,-0.174533,-0.174533,-1.03305,-0.687371,-0.155863,-0.173846,-1.6972,-0.430438,-0.466756,-0.0171828
26,45,-1.0472,-0.698132,-0.174533,-0.174533,-1.03305,-0.687371,-0.155863,-0.173846,-1.6972,-0.430438,-0.466756,-0.0171828
26,45,-1.0472,-0.698132,-0.174533,-0.174533,-1.03305,-0.687371,-0.155863,-0.173846,-1.6972,-0.430438,-0.466756,-0.0171828
26,45,-1.0472,-0.698132,-0.174533,-0.174533,-1.03305,-0.687371,-0.155863,-0.173846,-1.6972,-0.430438,-0.466756,-0.0171828
26,45,-1.0472,-0.698132,-0.174533,-0.174533,-1.03305,-0.687371,-0.155863,-0.173846,-1.6972,-0.430438,-0.466756,-0.0171828
26,45,-1.0472,-0.698132,-0.174533,-0.174533,-1.03305,-0.687371,-0.155863,-0.173846,-1.6972,-0.430438,-0.466756,-0.0171828
26,45,-1.0472,-0.698132,-0.174533,-0.174533,-1.03305,-0.687371,-0.155863,-0.173846,-1.6972,-0.430438,-0.466756,-0.0171828
26,45,-1.0472,-0.698132,-0.174533,-0.174533,-1.03305,-0.687371,-0.155863,-0.173846,-1.6972,-0.430438,-0.466756,-0.0171828
26,45,-1.0472,-0.698132,-0.174533,-0.174533,-1.03305,-0.687371,-0.155863,-0.173846,-1.6972,-0.430438,-0.466756,-0.0171828
26,45,-1.0472,-0.698132,-0.174533,-0.174533,-1.03305,-0.687371,-0.155863,-0.173846,-1.6972,-0.430438,-0.466756,-0.0171828
26,45,-1.0472,-0.698132,-0.174533,-0.174533,-1.03305,-0.687371,-0.155863,-0.173846,-1.6972,-0.430438,-0.466756,-0.0171828
26,45,-1.0472,-0.698132,-0.174533,-0.174533,-1.03305,-0.687371,-0.155863,-0.173846,-1.6972,-0.430438,-0.466756,-0.0171828
26,45,-1.0472,-0.698132,-0.174533,-0.174533,-1.03305,-0.687371,-0.155863,-0.173846,-1.6972,-0.430438,-0.466756,-0.0171828
26,45,-1.0472,-0.698132,-0.174533,-0.174533,-1.03305,-0.687371,-0.155863,-0.173846,-1.6972,-0.430438,-0.466756,-0.0171828
26,45,-1.0472,-0.698132,-0.174533,-0.174533,-1.03305,-0.687371,-0.155863,-0.173846,-1.6972,-0.430438,-0.466756,-0.0171828
26,45,-1.0472,-0.698132,-0.174533,-0.174533,-1.03305,-0.687371,-0.155863,-0.173846,-1.6972,-0.430438,-0.466756,-0.0171828
26,45,-1.0472,-0.698132,-0.174533,-0.174533,-1.03305,-0.687371,-0.155863,-0.173846,-1.6972,-0.430438,-0.466756,-0.0171828
26,45,-1.0472,-0.698132,-0.174533,-0.174533,-1.03305,-0.687371,-0.155863,-0.173846,-1.6972,-0.430438,-0.466756,-0.0171828
26,45,-1.0472,-0.698132,-0.174533,-0.174533,-1.03305,-0.687371,-0.155863,-0.173846,-1.6972,-0.430438,-0.466756,-0.0171828
26,45,-1.0472,-0.698132,-0.174533,-0.174533,-1.03305,-0.687371,-0.155863,-0.173846,-1.6972,-0.430438,-0.466756,-0.0171828
26,45,-1.0472,-0.698132,-0.174533,-0.174533,-1.03305,-0.687371,-0.155863,-0.173846,-1.6972,-0.430438,-0.466756,-0.0171828
26,45,-1.0472,-0.698132,-0.174533,-0.174533,-1.03305,-0.687371,-0.155863,-0.173846,-1.6972,-0.430438,-0.466756,-0.0171828
26,45,-1.0472,-0.698132,-0.174533,-0.174533,-1.03305,-0.687371,-0.155863,-0.173846,-1.6972,-0.430438,-0.466756,-0.0171828
26,45,-1.0472,-0.698132,-0.174533,-0.174533,-1.03305,-0.687371,-0.155863,-0.173846,-1.6972,-0.430438,-0.466756,-0.0171828
26,45,-1.0472,-0.698132,-0.174533,-0.174533,-1.03305,-0.687371,-0.155863,-0.173846,-1.6972,-0.430438,-0.466756,-0.0171828
26,45,-1.0472,-0.698132,-0.174533,-0.174533,-1.03305,-0.687371,-0.155863,-0.173846,-1.6972,-0.430438,-0.466756,-0.0171828
26,45,-1.0472,-0.698132,-0.174533,-0.174533,-1.03305,-0.687371,-0.155863,-0.173846,-1.6972,-0.430438,-0.466756,-0.0171828
26,45,-1.0472,-0.698132,-0.174533,-0.174533,-1.03305,-0.687371,-0.155863,-0.173846,-1.6972,-0.430438,-0.466756,-0.0171828
26,45,-1.0472,-0.698132,-0.174533,-0.174533,-1.03305,-0.687371,-0.155863,-0.173846,-1.6972,-0.430438,-0.466756,-0.0171828
26,45,-1.0472,-0.698132,-0.174533,-0.174533,-1.03305,-0.687371,-0.155863,-0.173846,-1.6972,-0.430438,-0.466756,-0.0171828
26,45,-1.0472,-0.698132,-0.174533,-0.174533,-1.03305,-0.687371,-0.155863,-0.173846,-1.6972,-0.430438,-0.466756,-0.0171828
26,45,-1.0472,-0.698132,-0.174533,-0.174533,-1.03305,-0.687371,-0.155863,-0.173846,-1.6972,-0.430438,-0.466756,-0.0171828
26,45,-1.0472,-0.698132,-0.174533,-0.174533,-1.03305,-0.687371,-0.155863,-0.173846,-1.6972,-0.430438,-0.466756,-0.0171828
26,45,-1.0472,-0.698132,-0.174533,-0.174533,-1.03305,-0.687371,-0.155863,-0.173846,-1.6972,-0.430438,-0.466756,-0.0171828
26,45,-1.0472,-0.698132,-0.174533,-0.174533,-1.03305,-0.687371,-0.155863,-0.173846,-1.6972,-0.430438,-0.466756,-0.0171828
26,45,-1.0472,-0.698132,-0.174533,-0.174533,-1.03305,-0.687371,-0.155863,-0.173846,-1.6972,-0.430438,-0.466756,-0.0171828
26,45,-1.0472,-0.698132,-0.174533,-0.174533,-1.03305,-0.687371,-0.155863,-0.173846,-1.6972,-0.430438,-0.466756,-0.0171828
26,45,-1.0472,-0.698132,-0.174533,-0.174533,-1.03305,-0.687371,-0.155863,-0.173846,-1.6972,-0.430438,-0.466756,-0.0171828
26,45,-1.0472,-0.698132,-0.174533,-0.174533,-1.03305,-0.687371,-0.155863,-0.173846,-1.6972,-0.430438,-0.466756,-0.0171828
26,45,-1.0472,-0.698132,-0.174533,-0.174533,-1.03305,-0.687371,-0.155863,-0.173846,-1.6972,-0.430438,-0.466756,-0.0171828
26,45,-1.0472,-0.698132,-0.174533,-0.174533,-1.03305,-0.687371,-0.155863,-0.173846,-1.6972,-0.430438,-0.466756,-0.0171828
26,45,-1.0472,-0.698132,-0.174533,-0.174533,-1.03305,-0.687371,-0.155863,-0.173846,-1.6972,-0.430438,-0.466756,-0.0171828
26,45,-1.0472,-0.698132,-0.174533,-0.174533,-1.03305,-0.687371,-0.155863,-0.173846,-1.6972,-0.430438,-0.466756,-0.0171828
26,45,-1.0472,-0.698132,-0.174533,-0.174533,-1.03305,-0.687371,-0.155863,-0.173846,-1.6972,-0.430438,-0.466756,-0.0171828
26,45,-1.0472,-0.698132,-0.174533,-0.174533,-1.03305,-0.687371,-0.155863,-0.173846,-1.6972,-0.430438,-0.466756,-0.0171828
26,45,-1.0472,-0.698132,-0.174533,-0.174533,-1.03305,-0.687371,-0.155863,-0.173846,-1.6972,-0.430438,-0.466756,-0.0171828
26,45,-1.0472,-0.698132,-0.174533,-0.174533,-1.03305,-0.687371,-0.155863,-0.173846,-1.6972,-0.430438,-0.466756,-0.0171828
26,45,-1.0472,-0.698132,-0.174533,-0.174533,-1.03305,-0.687371,-0.155863,-0.173846,-1.6972,-0.430438,-0.466756,-0.0171828
26,45,-1.0472,-0.698132,-0.174533,-0.174533,-1.03305,-0.687371,-0.155863,-0.173846,-1.6972,-0.430438,-0.466756,-0.0171828
26,45,-1.0472,-0.698132,-0.174533,-0.174533,-1.03305,-0.687371,-0.155863,-0.173846,-1.6972,-0.430438,-0.466756,-0.0171828
26,45,-1.0472,-0.698132,-0.174533,-0.174533,-1.03305,-0.687371,-0.155863,-0.173846,-1.6972,-0.430438,-0.466756,-0.0171828
26,45,-1.0472,-0.698132,-0.174533,-0.174533,-1.03305,-0.687371,-0.155863,-0.173846,-1.6972,-0.430438,-0.466756,-0.0171828
26,45,-1.0472,-0.698132,-0.174533,-0.174533,-1.03305,-0.687371,-0.155863,-0.173846,-1.6972,-0.430438,-0.466756,-0.0171828
26,45,-1.0472,-0.698132,-0.174533,-0.174533,-1.03305,-0.687371,-0.155863,-0.173846,-1.6972,-0.430438,-0.466756,-0.0171828
26,45,-1.0472,-0.698132,-0.174533,-0.174533,-1.03305,-0.687371,-0.155863,-0.173846,-1.6972,-0.430438,-0.466756,-0.0171828
26,45,-1.0472,-0.698132,-0.174533,-0.174533,-1.03305,-0.687371,-0.155863,-0.173846,-1.6972,-0.430438,-0.466756,-0.0171828
26,45,-1.0472,-0.698132,-0.174533,-0.174533,-1.03305,-0.687371,-0.155863,-0.173846,-1.6972,-0.430438,-0.466756,-0.0171828
26,45,-1.0472,-0.698132,-0.174533,-0.174533,-1.03305,-0.687371,-0.155863,-0.173846,-1.6972,-0.430438,-0.466756,-0.0171828
26,45,-1.0472,-0.698132,-0.174533,-0.174533,-1.03305,-0.687371,-0.155863,-0.173846,-1.6972,-0.430438,-0.466756,-0.0171828
26,45,-1.0472,-0.698132,-0.174533,-0.174533,-1.03305,-0.687371,-0.155863,-0.173846,-1.6972,-0.430438,-0.466756,-0.0171828
26,45,-1.0472,-0.698132,-0.174533,-0.174533,-1.03305,-0.687371,-0.155863,-0.173846,-1.6972,-0.430438,-0.466756,-0.0171828
26,45,-1.0472,-0.698132,-0.174533,-0.174533,-1.03305,-0.687371,-0.155863,-0.173846,-1.6972,-0.430438,-0.466756,-0.0171828
26,45,-1.0472,-0.698132,-0.174533,-0.174533,-1.03305,-0.687371,-0.155863,-0.173846,-1.6972,-0.430438,-0.466756,-0.0171828
26,45,-1.0472,-0.698132,-0.174533,-0.174533,-1.03305,-0.687371,-0.155863,-0.173846,-1.6972,-0.430438,-0.466756,-0.0171828
26,45,-1.0472,-0.698132,-0.174533,-0.174533,-1.03305,-0.687371,-0.155863,-0.173846,-1.6972,-0.430438,-0.466756,-0.0171828
26,45,-1.0472,-0.698132,-0.174533,-0.174533,-1.03305,-0.687371,-0.155863,-0.173846,-1.6972,-0.430438,-0.466756,-0.0171828
26,45,-1.0472,-0.698132,-0.174533,-0.174533,-1.03305,-0.687371,-0.155863,-0.173846,-1.6972,-0.430438,-0.466756,-0.0171828
26,45,-1.0472,-0.698132,-0.174533,-0.174533,-1.03305,-0.687371,-0.155863,-0.173846,-1.6972,-0.430438,-0.466756,-0.0171828
26,45,-1.0472,-0.698132,-0.174533,-0.174533,-1.03305,-0.687371,-0.155863,-0.173846,-1.6972,-0.430438,-0.466756,-0.0171828
26,45,-1.0472,-0.698132,-0.174533,-0.174533,-1.03305,-0.687371,-0.155863,-0.173846,-1.6972,-0.430438,-0.466756,-0.0171828
26,45,-1.0472,-0.698132,-0.174533,-0.174533,-1.03305,-0.687371,-0.155863,-0.173846,-1.6972,-0.430438,-0.466756,-0.0171828
26,45,-1.0472,-0.698132,-0.174533,-0.174533,-1.03305,-0.687371,-0.155863,-0.173846,-1.6972,-0.430438,-0.466756,-0.0171828
26,45,-1.0472,-0.698132,-0.174533,-0.174533,-1.03305,-0.687371,-0.155863,-0.173846,-1.6972,-0.430438,-0.466756,-0.0171828
26,45,-1.0472,-0.698132,-0.174533,-0.174533,-1.03305,-0.687371,-0.155863,-0.173846,-1.6972,-0.430438,-0.466756,-0.0171828
26,45,-1.0472,-0.698132,-0.174533,-0.174533,-1.03305,-0.687371,-0.155863,-0.173846,-1.6972,-0.430438,-0.466756,-0.0171828
26,45,-1.0472,-0.698132,-0.174533,-0.174533,-1.03305,-0.687371,-0.155863,-0.173846,-1.6972,-0.430438,-0.466756,-0.0171828
26,45,-1.0472,-0.698132,-0.174533,-0.174533,-1.03305,-0.687371,-0.155863,-0.173846,-1.6972,-0.430438,-0.466756,-0.0171828
26,45,-1.0472,-0.698132,-0.174533,-0.174533,-1.03305,-0.687371,-0.155863,-0.173846,-1.6972,-0.430438,-0.466756,-0.0171828
26,45,-1.0472,-0.698132,-0.174533,-0.174533,-1.03305,-0.687371,-0.155863,-0.173846,-1.6972,-0.430438,-0.466756,-0.0171828
26,45,-1.0472,-0.698132,-0.174533,-0.174533,-1.03305,-0.687371,-0.155863,-0.173846,-1.6972,-0.430438,-0.466756,-0.0171828
26,45,-1.0472,-0.698132,-0.174533,-0.174533,-1.03305,-0.687371,-0.155863,-0.173846,-1.6972,-0.430438,-0.466756,-0.0171828
26,45,-1.0472,-0.698132,-0.174533,-0.174533,-1.03305,-0.687371,-0.155863,-0.173846,-1.6972,-0.430438,-0.466756,-0.0171828
26,45,-1.0472,-0.698132,-0.174533,-0.174533,-1.03305,-0.687371,-0.155863,-0.173846,-1.6972,-0.430438,-0.466756,-0.0171828
26,45,-1.0472,-0.698132,-0.174533,-0.174533,-1.03305,-0.687371,-0.155863,-0.173846,-1.6972,-0.430438,-0.466756,-0.0171828
26,45,-1.0472,-0.698132,-0.174533,-0.174533,-1.03305,-0.687371,-0.155863,-0.173846,-1.6972,-0.430438,-0.466756,-0.0171828
26,45,-1.0472,-0.698132,-0.174533,-0.174533,-1.03305,-0.687371,-0.155863,-0.173846,-1.6972,-0.430438,-0.466756,-0.0171828
26,45,-1.0472,-0.698132,-0.174533,-0.174533,-1.03305,-0.687371,-0.155863,-0.173846,-1.6972,-0.430438,-0.466756,-0.0171828
26,45,-1.0472,-0.698132,-0.174533,-0.174533,-1.03305,-0.687371,-0.155863,-0.173846,-1.6972,-0.430438,-0.466756,-0.0171828
26,45,-1.0472,-0.698132,-0.174533,-0.174533,-1.03305,-0.687371,-0.155863,-0.173846,-1.6972,-0.430438,-0.466756,-0.0171828
26,45,-1.0472,-0.698132,-0.174533,-0.174533,-1.03305,-0.687371,-0.155863,-0.173846,-1.6972,-0.430438,-0.466756,-0.0171828
26,45,-1.0472,-0.698132,-0.174533,-0.174533,-1.03305,-0.687371,-0.155863,-0.173846,-1.6972,-0.430438,-0.466756,-0.0171828
26,45,-1.0472,-0.698132,-0.174533,-0.174533,-1.03305,-0.687371,-0.155863,-0.173846,-1.6972,-0.430438,-0.466756,-0.0171828
26,45,-1.0472,-0.698132,-0.174533,-0.174533,-1.03305,-0.687371,-0.155863,-0.173846,-1.6972,-0.430438,-0.466756,-0.0171828
26,45,-1.0472,-0.698132,-0.174533,-0.174533,-1.03305,-0.687371,-0.155863,-0.173846,-1.6972,-0.430438,-0.466756,-0.0171828
26,45,-1.0472,-0.698132,-0.174533,-0.174533,-1.03305,-0.687371,-0.155863,-0.173846,-1.6972,-0.430438,-0.466756,-0.0171828
26,45,-1.0472,-0.698132,-0.174533,-0.174533,-1.03305,-0.687371,-0.155863,-0.173846,-1.6972,-0.430438,-0.466756,-0.0171828
26,45,-1.0472,-0.698132,-0.174533,-0.174533,-1.03305,-0.687371,-0.155863,-0.173846,-1.6972,-0.430438,-0.466756,-0.0171828
26,45,-1.0472,-0.698132,-0.174533,-0.174533,-1.03305,-0.687371,-0.155863,-0.173846,-1.6972,-0.430438,-0.466756,-0.0171828
26,45,-1.0472,-0.698132,-0.174533,-0.174533,-1.03305,-0.687371,-0.155863,-0.173846,-1.6972,-0.430438,-0.466756,-0.0171828
26,45,-1.0472,-0.698132,-0.174533,-0.174533,-1.03305,-0.687371,-0.155863,-0.173846,-1.6972,-0.430438,-0.466756,-0.0171828
26,45,-1.0472,-0.698132,-0.174533,-0.174533,-1.03305,-0.687371,-0.155863,-0.173846,-1.6972,-0.430438,-0.466756,-0.0171828
26,45,-1.0472,-0.698132,-0.174533,-0.174533,-1.03305,-0.687371,-0.155863,-0.173846,-1.6972,-0.430438,-0.466756,-0.0171828
26,45,-1.0472,-0.698132,-0.174533,-0.174533,-1.03305,-0.687371,-0.155863,-0.173846,-1.6972,-0.430438,-0.466756,-0.0171828
26,45,-1.0472,-0.698132,-0.174533,-0.174533,-1.03305,-0.687371,-0.155863,-0.173846,-1.6972,-0.430438,-0.466756,-0.0171828
26,45,-1.0472,-0.698132,-0.174533,-0.174533,-1.03305,-0.687371,-0.155863,-0.173846,-1.6972,-0.430438,-0.466756,-0.0171828
26,45,-1.0472,-0.698132,-0.174533,-0.174533,-1.03305,-0.687371,-0.155863,-0.173846,-1.6972,-0.430438,-0.466756,-0.0171828
26,45,-1.0472,-0.698132,-0.174533,-0.174533,-1.03305,-0.687371,-0.155863,-0.173846,-1.6972,-0.430438,-0.466756,-0.0171828
26,45,-1.0472,-0.698132,-0.174533,-0.174533,-1.03305,-0.687371,-0.155863,-0.173846,-1.6972,-0.430438,-0.466756,-0.0171828
26,45,-1.0472,-0.698132,-0.174533,-0.174533,-1.03305,-0.687371,-0.155863,-0.173846,-1.6972,-0.430438,-0.466756,-0.0171828
26,45,-1.0472,-0.698132,-0.174533,-0.174533,-1.03305,-0.687371,-0.155863,-0.173846,-1.6972,-0.430438,-0.466756,-0.0171828
26,45,-1.0472,-0.698132,-0.174533,-0.174533,-1.03305,-0.687371,-0.155863,-0.173846,-1.6972,-0.430438,-0.466756,-0.0171828
26,45,-1.0472,-0.698132,-0.174533,-0.174533,-1.03305,-0.687371,-0.155863,-0.173846,-1.6972,-0.430438,-0.466756,-0.0171828
26,45,-1.0472,-0.698132,-0.174533,-0.174533,-1.03305,-0.687371,-0.155863,-0.173846,-1.6972,-0.430438,-0.466756,-0.0171828
26,45,-1.0472,-0.698132,-0.174533,-0.174533,-1.03305,-0.687371,-0.155863,-0.173846,-1.6972,-0.430438,-0.466756,-0.0171828
26,45,-1.0472,-0.698132,-0.174533,-0.174533,-1.03305,-0.687371,-0.155863,-0.173846,-1.6972,-0.430438,-0.466756,-0.0171828
26,45,-1.0472,-0.698132,-0.174533,-0.174533,-1.03305,-0.687371,-0.155863,-0.173846,-1.6972,-0.430438,-0.466756,-0.0171828
26,45,-1.0472,-0.698132,-0.174533,-0.174533,-1.03305,-0.687371,-0.155863,-0.173846,-1.6972,-0.430438,-0.466756,-0.0171828
26,45,-1.0472,-0.698132,-0.174533,-0.174533,-1.03305,-0.687371,-0.155863,-0.173846,-1.6972,-0.430438,-0.466756,-0.0171828
26,45,-1.0472,-0.698132,-0.174533,-0.174533,-1.03305,-0.687371,-0.155863,-0.173846,-1.6972,-0.430438,-0.466756,-0.0171828
26,45,-1.0472,-0.698132,-0.174533,-0.174533,-1.03305,-0.687371,-0.155863,-0.173846,-1.6972,-0.430438,-0.466756,-0.0171828
26,45,-1.0472,-0.698132,-0.174533,-0.174533,-1.03305,-0.687371,-0.155863,-0.173846,-1.6972,-0.430438,-0.466756,-0.0171828
26,45,-1.0472,-0.698132,-0.174533,-0.174533,-1.03305,-0.687371,-0.155863,-0.173846,-1.6972,-0.430438,-0.466756,-0.0171828
26,45,-1.0472,-0.698132,-0.174533,-0.174533,-1.03305,-0.687371,-0.155863,-0.173846,-1.6972,-0.430438,-0.466756,-0.0171828
26,45,-1.0472,-0.698132,-0.174533,-0.174533,-1.03305,-0.687371,-0.155927,-0.173887,-1.6972,-0.430438,-0.465157,-0.0161475
26,45,-1.0472,-0.698132,-0.174533,-0.174533,-1.03305,-0.687371,-0.155927,-0.173887,-1.6972,-0.430438,-0.465157,-0.0161475
26,45,-1.0472,-0.698132,-0.174533,-0.174533,-1.03305,-0.687371,-0.155927,-0.173887,-1.6972,-0.430438,-0.465157,-0.0161475
26,45,-1.0472,-0.698132,-0.174533,-0.174533,-1.03305,-0.687371,-0.155927,-0.173887,-1.6972,-0.430438,-0.465157,-0.0161475
26,45,-1.0472,-0.698132,-0.174533,-0.174533,-1.03305,-0.687371,-0.155927,-0.173887,-1.6972,-0.430438,-0.465157,-0.0161475
26,45,-1.0472,-0.698132,-0.174533,-0.174533,-1.03305,-0.687371,-0.155927,-0.173887,-1.6972,-0.430438,-0.465157,-0.0161475
26,45,-1.0472,-0.698132,-0.174533,-0.174533,-1.03305,-0.687371,-0.155927,-0.173887,-1.6972,-0.430438,-0.465157,-0.0161475
26,45,-1.0472,-0.698132,-0.174533,-0.174533,-1.03305,-0.687371,-0.155927,-0.173887,-1.6972,-0.430438,-0.465157,-0.0161475
26,45,-1.0472,-0.698132,-0.174533,-0.174533,-1.03305,-0.687371,-0.155927,-0.173887,-1.6972,-0.430438,-0.465157,-0.0161475
26,45,-1.0472,-0.698132,-0.174533,-0.174533,-1.03305,-0.687371,-0.155927,-0.173887,-1.6972,-0.430438,-0.465157,-0.0161475
26,45,-1.0472,-0.698132,-0.174533,-0.174533,-1.03305,-0.687371,-0.155927,-0.173887,-1.6972,-0.430438,-0.465157,-0.0161475
26,45,-1.0472,-0.698132,-0.174533,-0.174533,-1.03305,-0.687371,-0.155927,-0.173887,-1.6972,-0.430438,-0.465157,-0.0161475
26,45,-1.0472,-0.698132,-0.174533,-0.174533,-1.03305,-0.687371,-0.155927,-0.173887,-1.6972,-0.430438,-0.465157,-0.0161475
26,45,-1.0472,-0.698132,-0.174533,-0.174533,-1.03305,-0.687371,-0.155927,-0.173887,-1.6972,-0.430438,-0.465157,-0.0161475
26,45,-1.0472,-0.698132,-0.174533,-0.174533,-1.03305,-0.687371,-0.155927,-0.173887,-1.6972,-0.430438,-0.465157,-0.0161475
26,45,-1.0472,-0.698132,-0.174533,-0.174533,-1.03305,-0.687371,-0.155927,-0.173887,-1.6972,-0.430438,-0.465157,-0.0161475
26,45,-1.0472,-0.698132,-0.174533,-0.174533,-1.03305,-0.687371,-0.155927,-0.173887,-1.6972,-0.430438,-0.465157,-0.0161475
26,45,-1.0472,-0.698132,-0.174533,-0.174533,-1.03305,-0.687371,-0.155927,-0.173887,-1.6972,-0.430438,-0.465157,-0.0161475
26,45,-1.0472,-0.698132,-0.174533,-0.174533,-1.03305,-0.687371,-0.155927,-0.173887,-1.6972,-0.430438,-0.465157,-0.0161475
26,45,-1.0472,-0.698132,-0.174533,-0.174533,-1.03305,-0.687371,-0.155927,-0.173887,-1.6972,-0.430438,-0.465157,-0.0161475
26,45,-1.0472,-0.698132,-0.174533,-0.174533,-1.03305,-0.687371,-0.155927,-0.173887,-1.6972,-0.430438,-0.465157,-0.0161475
26,45,-1.0472,-0.698132,-0.174533,-0.174533,-1.03305,-0.687371,-0.155927,-0.173887,-1.6972,-0.430438,-0.465157,-0.0161475
26,45,-1.0472,-0.698132,-0.174533,-0.174533,-1.03305,-0.687371,-0.155927,-0.173887,-1.6972,-0.430438,-0.465157,-0.0161475
26,45,-1.0472,-0.698132,-0.174533,-0.174533,-1.03305,-0.687371,-0.155927,-0.173887,-1.6972,-0.430438,-0.465157,-0.0161475
26,45,-1.0472,-0.698132,-0.174533,-0.174533,-1.03305,-0.687371,-0.155927,-0.173887,-1.6972,-0.430438,-0.465157,-0.0161475
26,45,-1.0472,-0.698132,-0.174533,-0.174533,-1.03305,-0.687371,-0.155927,-0.173887,-1.6972,-0.430438,-0.465157,-0.0161475
26,45,-1.0472,-0.698132,-0.174533,-0.174533,-1.03305,-0.687371,-0.155927,-0.173887,-1.6972,-0.430438,-0.465157,-0.0161475
26,45,-1.0472,-0.698132,-0.174533,-0.174533,-1.03305,-0.687371,-0.155927,-0.173887,-1.6972,-0.430438,-0.465157,-0.0161475
26,45,-1.0472,-0.698132,-0.174533,-0.174533,-1.03305,-0.687371,-0.155927,-0.173887,-1.6972,-0.430438,-0.465157,-0.0161475
26,45,-1.0472,-0.698132,-0.174533,-0.174533,-1.03305,-0.687371,-0.155927,-0.173887,-1.6972,-0.430438,-0.465157,-0.0161475
26,45,-1.0472,-0.698132,-0.174533,-0.174533,-1.03305,-0.687371,-0.155927,-0.173887,-1.6972,-0.430438,-0.465157,-0.0161475
26,45,-1.0472,-0.698132,-0.174533,-0.174533,-1.03305,-0.687371,-0.155927,-0.173887,-1.6972,-0.430438,-0.465157,-0.0161475
26,45,-1.0472,-0.698132,-0.174533,-0.174533,-1.03305,-0.687371,-0.155927,-0.173887,-1.6972,-0.430438,-0.465157,-0.0161475
26,45,-1.0472,-0.698132,-0.174533,-0.174533,-1.03305,-0.687371,-0.155927,-0.173887,-1.6972,-0.430438,-0.465157,-0.0161475
26,45,-1.0472,-0.698132,-0.174533,-0.174533,-1.03305,-0.687371,-0.155927,-0.173887,-1.6972,-0.430438,-0.465157,-0.0161475
26,45,-1.0472,-0.698132,-0.174533,-0.174533,-1.03305,-0.687371,-0.155927,-0.173887,-1.6972,-0.430438,-0.465157,-0.0161475
26,45,-1.0472,-0.698132,-0.174533,-0.174533,-1.03305,-0.687371,-0.155927,-0.173887,-1.6972,-0.430438,-0.465157,-0.0161475
26,45,-1.0472,-0.698132,-0.174533,-0.174533,-1.03305,-0.687371,-0.155927,-0.173887,-1.6972,-0.430438,-0.465157,-0.0161475
26,45,-1.0472,-0.698132,-0.174533,-0.174533,-1.03305,-0.687371,-0.155927,-0.173887,-1.6972,-0.430438,-0.465157,-0.0161475
26,45,-1.0472,-0.698132,-0.174533,-0.174533,-1.03305,-0.687371,-0.155927,-0.173887,-1.6972,-0.430438,-0.465157,-0.0161475
26,45,-1.0472,-0.698132,-0.174533,-0.174533,-1.03305,-0.687371,-0.155927,-0.173887,-1.6972,-0.430438,-0.465157,-0.0161475
26,45,-1.0472,-0.698132,-0.174533,-0.174533,-1.03305,-0.687371,-0.155927,-0.173887,-1.6972,-0.430438,-0.465157,-0.0161475
26,45,-1.0472,-0.698132,-0.174533,-0.174533,-1.03305,-0.687371,-0.155927,-0.173887,-1.6972,-0.430438,-0.465157,-0.0161475
26,45,-1.0472,-0.698132,-0.174533,-0.174533,-1.03305,-0.687371,-0.155927,-0.173887,-1.6972,-0.430438,-0.465157,-0.0161475
26,45,-1.0472,-0.698132,-0.174533,-0.174533,-1.03305,-0.687371,-0.155927,-0.173887,-1.6972,-0.430438,-0.465157,-0.0161475
26,45,-1.0472,-0.698132,-0.174533,-0.174533,-1.03305,-0.687371,-0.155927,-0.173887,-1.6972,-0.430438,-0.465157,-0.0161475
26,45,-1.0472,-0.698132,-0.174533,-0.174533,-1.03305,-0.687371,-0.155927,-0.173887,-1.6972,-0.430438,-0.465157,-0.0161475
26,45,-1.0472,-0.698132,-0.174533,-0.174533,-1.03305,-0.687371,-0.155927,-0.173887,-1.6972,-0.430438,-0.465157,-0.0161475
26,45,-1.0472,-0.698132,-0.174533,-0.174533,-1.03305,-0.687371,-0.155927,-0.173887,-1.6972,-0.430438,-0.465157,-0.0161475
26,45,-1.0472,-0.698132,-0.174533,-0.174533,-1.03305,-0.687371,-0.155927,-0.173887,-1.6972,-0.430438,-0.465157,-0.0161475
26,45,-1.0472,-0.698132,-0.174533,-0.174533,-1.03305,-0.687371,-0.155927,-0.173887,-1.6972,-0.430438,-0.465157,-0.0161475
26,45,-1.0472,-0.698132,-0.174533,-0.174533,-1.03305,-0.687371,-0.155927,-0.173887,-1.6972,-0.430438,-0.465157,-0.0161475
26,45,-1.0472,-0.698132,-0.174533,-0.174533,-1.03305,-0.687371,-0.155927,-0.173887,-1.6972,-0.430438,-0.465157,-0.0161475
26,45,-1.0472,-0.698132,-0.174533,-0.174533,-1.03305,-0.687371,-0.155927,-0.173887,-1.6972,-0.430438,-0.465157,-0.0161475
26,45,-1.0472,-0.698132,-0.174533,-0.174533,-1.03305,-0.687371,-0.155927,-0.173887,-1.6972,-0.430438,-0.465157,-0.0161475
26,45,-1.0472,-0.698132,-0.174533,-0.174533,-1.03305,-0.687371,-0.155927,-0.173887,-1.6972,-0.430438,-0.465157,-0.0161475
26,45,-1.0472,-0.698132,-0.174533,-0.174533,-1.03305,-0.687371,-0.155927,-0.173887,-1.6972,-0.430438,-0.465157,-0.0161475
26,45,-1.0472,-0.698132,-0.174533,-0.174533,-1.03305,-0.687371,-0.155927,-0.173887,-1.6972,-0.430438,-0.465157,-0.0161475
26,45,-1.0472,-0.698132,-0.174533,-0.174533,-1.03305,-0.687371,-0.155927,-0.173887,-1.6972,-0.430438,-0.465157,-0.0161475
26,45,-1.0472,-0.698132,-0.174533,-0.174533,-1.03305,-0.687371,-0.155927,-0.173887,-1.6972,-0.430438,-0.465157,-0.0161475
26,45,-1.0472,-0.698132,-0.174533,-0.174533,-1.03305,-0.687371,-0.155927,-0.173887,-1.6972,-0.430438,-0.465157,-0.0161475
26,45,-1.0472,-0.698132,-0.174533,-0.174533,-1.03305,-0.687371,-0.155927,-0.173887,-1.6972,-0.430438,-0.465157,-0.0161475
26,45,-1.0472,-0.698132,-0.174533,-0.174533,-1.03305,-0.687371,-0.155927,-0.173887,-1.6972,-0.430438,-0.465157,-0.0161475
26,45,-1.0472,-0.698132,-0.174533,-0.174533,-1.03305,-0.687371,-0.155927,-0.173887,-1.6972,-0.430438,-0.465157,-0.0161475
26,45,-1.0472,-0.698132,-0.174533,-0.174533,-1.03305,-0.687371,-0.155927,-0.173887,-1.6972,-0.430438,-0.465157,-0.0161475
26,45,-1.0472,-0.698132,-0.174533,-0.174533,-1.03305,-0.687371,-0.155927,-0.173887,-1.6972,-0.430438,-0.465157,-0.0161475
26,45,-1.0472,-0.698132,-0.174533,-0.174533,-1.03305,-0.687371,-0.155927,-0.173887,-1.6972,-0.430438,-0.465157,-0.0161475
26,45,-1.0472,-0.698132,-0.174533,-0.174533,-1.03305,-0.687371,-0.155927,-0.173887,-1.6972,-0.430438,-0.465157,-0.0161475
26,45,-1.0472,-0.698132,-0.174533,-0.174533,-1.03305,-0.687371,-0.155927,-0.173887,-1.6972,-0.430438,-0.465157,-0.0161475
26,45,-1.0472,-0.698132,-0.174533,-0.174533,-1.03305,-0.687371,-0.155927,-0.173887,-1.6972,-0.430438,-0.465157,-0.0161475
26,45,-1.0472,-0.698132,-0.174533,-0.174533,-1.03305,-0.687371,-0.155927,-0.173887,-1.6972,-0.430438,-0.465157,-0.0161475
26,45,-1.0472,-0.698132,-0.174533,-0.174533,-1.03305,-0.687371,-0.155927,-0.173887,-1.6972,-0.430438,-0.465157,-0.0161475
26,45,-1.0472,-0.698132,-0.174533,-0.174533,-1.03305,-0.687371,-0.155927,-0.173887,-1.6972,-0.430438,-0.465157,-0.0161475
26,45,-1.0472,-0.698132,-0.174533,-0.174533,-1.03305,-0.687371,-0.155927,-0.173887,-1.6972,-0.430438,-0.465157,-0.0161475
26,45,-1.0472,-0.698132,-0.174533,-0.174533,-1.03305,-0.687371,-0.155927,-0.173887,-1.6972,-0.430438,-0.465157,-0.0161475
26,45,-1.0472,-0.698132,-0.174533,-0.174533,-1.03305,-0.687371,-0.155927,-0.173887,-1.6972,-0.430438,-0.465157,-0.0161475
26,45,-1.0472,-0.698132,-0.174533,-0.174533,-1.03305,-0.687371,-0.155927,-0.173887,-1.6972,-0.430438,-0.465157,-0.0161475
26,45,-1.0472,-0.698132,-0.174533,-0.174533,-1.03305,-0.687371,-0.155927,-0.173887,-1.6972,-0.430438,-0.465157,-0.0161475
26,45,-1.0472,-0.698132,-0.174533,-0.174533,-1.03305,-0.687371,-0.155927,-0.173887,-1.6972,-0.430438,-0.465157,-0.0161475
26,45,-1.0472,-0.698132,-0.174533,-0.174533,-1.03305,-0.687371,-0.155927,-0.173887,-1.6972,-0.430438,-0.465157,-0.0161475
26,45,-1.0472,-0.698132,-0.174533,-0.174533,-1.03305,-0.687371,-0.155927,-0.173887,-1.6972,-0.430438,-0.465157,-0.0161475
26,45,-1.0472,-0.698132,-0.174533,-0.174533,-1.03305,-0.687371,-0.155927,-0.173887,-1.6972,-0.430438,-0.465157,-0.0161475
26,45,-1.0472,-0.698132,-0.174533,-0.174533,-1.03305,-0.687371,-0.155927,-0.173887,-1.6972,-0.430438,-0.465157,-0.0161475
26,45,-1.0472,-0.698132,-0.174533,-0.174533,-1.03305,-0.687371,-0.155927,-0.173887,-1.6972,-0.430438,-0.465157,-0.0161475
26,45,-1.0472,-0.698132,-0.174533,-0.174533,-1.03305,-0.687371,-0.155927,-0.173887,-1.6972,-0.430438,-0.465157,-0.0161475
26,45,-1.0472,-0.698132,-0.174533,-0.174533,-1.03305,-0.687371,-0.155927,-0.173887,-1.6972,-0.430438,-0.465157,-0.0161475
26,45,-1.0472,-0.698132,-0.174533,-0.174533,-1.03305,-0.687371,-0.155927,-0.173887,-1.6972,-0.430438,-0.465157,-0.0161475
26,45,-1.0472,-0.698132,-0.174533,-0.174533,-1.03305,-0.687371,-0.155927,-0.173887,-1.6972,-0.430438,-0.465157,-0.0161475
26,45,-1.0472,-0.698132,-0.174533,-0.174533,-1.03305,-0.687371,-0.155927,-0.173887,-1.6972,-0.430438,-0.465157,-0.0161475
26,45,-1.0472,-0.698132,-0.174533,-0.174533,-1.03305,-0.687371,-0.155927,-0.173887,-1.6972,-0.430438,-0.465157,-0.0161475
26,45,-1.0472,-0.698132,-0.174533,-0.174533,-1.03305,-0.687371,-0.155927,-0.173887,-1.6972,-0.430438,-0.465157,-0.0161475
26,45,-1.0472,-0.698132,-0.174533,-0.174533,-1.03305,-0.687371,-0.155927,-0.173887,-1.6972,-0.430438,-0.465157,-0.0161475
26,45,-1.0472,-0.698132,-0.174533,-0.174533,-1.03305,-0.687371,-0.155927,-0.173887,-1.6972,-0.430438,-0.465157,-0.0161475
26,45,-1.0472,-0.698132,-0.174533,-0.174533,-1.03305,-0.687371,-0.155927,-0.173887,-1.6972,-0.430438,-0.465157,-0.0161475
26,45,-1.0472,-0.698132,-0.174533,-0.174533,-1.03305,-0.687371,-0.155927,-0.173887,-1.6972,-0.430438,-0.465157,-0.0161475
26,45,-1.0472,-0.698132,-0.174533,-0.174533,-1.03305,-0.687371,-0.155927,-0.173887,-1.6972,-0.430438,-0.465157,-0.0161475
26,45,-1.0472,-0.698132,-0.174533,-0.174533,-1.03305,-0.687371,-0.155927,-0.173887,-1.6972,-0.430438,-0.465157,-0.0161475
26,45,-1.0472,-0.698132,-0.174533,-0.174533,-1.03305,-0.687371,-0.155927,-0.173887,-1.6972,-0.430438,-0.465157,-0.0161475
26,45,-1.0472,-0.698132,-0.174533,-0.174533,-1.03305,-0.687371,-0.155927,-0.173887,-1.6972,-0.430438,-0.465157,-0.0161475
26,45,-1.0472,-0.698132,-0.174533,-0.174533,-1.03305,-0.687371,-0.155927,-0.173887,-1.6972,-0.430438,-0.465157,-0.0161475
26,45,-1.0472,-0.698132,-0.174533,-0.174533,-1.03305,-0.687371,-0.155927,-0.173887,-1.6972,-0.430438,-0.465157,-0.0161475
26,45,-1.0472,-0.698132,-0.174533,-0.174533,-1.03305,-0.687371,-0.155927,-0.173887,-1.6972,-0.430438,-0.465157,-0.0161475
26,45,-1.0472,-0.698132,-0.174533,-0.174533,-1.03305,-0.687371,-0.155927,-0.173887,-1.6972,-0.430438,-0.465157,-0.0161475
26,45,-1.0472,-0.698132,-0.174533,-0.174533,-1.03305,-0.687371,-0.155927,-0.173887,-1.6972,-0.430438,-0.465157,-0.0161475
26,45,-1.0472,-0.698132,-0.174533,-0.174533,-1.03305,-0.687371,-0.155927,-0.173887,-1.6972,-0.430438,-0.465157,-0.0161475
26,45,-1.0472,-0.698132,-0.174533,-0.174533,-1.03305,-0.687371,-0.155927,-0.173887,-1.6972,-0.430438,-0.465157,-0.0161475
26,45,-1.0472,-0.698132,-0.174533,-0.174533,-1.03305,-0.687371,-0.155927,-0.173887,-1.6972,-0.430438,-0.465157,-0.0161475
26,45,-1.0472,-0.698132,-0.174533,-0.174533,-1.03305,-0.687371,-0.155927,-0.173887,-1.6972,-0.430438,-0.465157,-0.0161475
26,45,-1.0472,-0.698132,-0.174533,-0.174533,-1.03305,-0.687371,-0.155927,-0.173887,-1.6972,-0.430438,-0.465157,-0.0161475
26,45,-1.0472,-0.698132,-0.174533,-0.174533,-1.03305,-0.687371,-0.155927,-0.173887,-1.6972,-0.430438,-0.465157,-0.0161475
26,45,-1.0472,-0.698132,-0.174533,-0.174533,-1.03305,-0.687371,-0.155927,-0.173887,-1.6972,-0.430438,-0.465157,-0.0161475
26,45,-1.0472,-0.698132,-0.174533,-0.174533,-1.03305,-0.687371,-0.155927,-0.173887,-1.6972,-0.430438,-0.465157,-0.0161475
26,45,-1.0472,-0.698132,-0.174533,-0.174533,-1.03305,-0.687371,-0.155927,-0.173887,-1.6972,-0.430438,-0.465157,-0.0161475
26,45,-1.0472,-0.698132,-0.174533,-0.174533,-1.03305,-0.687371,-0.155927,-0.173887,-1.6972,-0.430438,-0.465157,-0.0161475
26,45,-1.0472,-0.698132,-0.174533,-0.174533,-1.03305,-0.687371,-0.155927,-0.173887,-1.6972,-0.430438,-0.465157,-0.0161475
26,45,-1.0472,-0.698132,-0.174533,-0.174533,-1.03305,-0.687371,-0.155927,-0.173887,-1.6972,-0.430438,-0.465157,-0.0161475
26,45,-1.0472,-0.698132,-0.174533,-0.174533,-1.03305,-0.687371,-0.155927,-0.173887,-1.6972,-0.430438,-0.465157,-0.0161475
26,45,-1.0472,-0.698132,-0.174533,-0.174533,-1.03305,-0.687371,-0.155927,-0.173887,-1.6972,-0.430438,-0.465157,-0.0161475
26,45,-1.0472,-0.698132,-0.174533,-0.174533,-1.03305,-0.687371,-0.155927,-0.173887,-1.6972,-0.430438,-0.465157,-0.0161475
26,45,-1.0472,-0.698132,-0.174533,-0.174533,-1.03305,-0.687371,-0.155927,-0.173887,-1.6972,-0.430438,-0.465157,-0.0161475
26,45,-1.0472,-0.698132,-0.174533,-0.174533,-1.03305,-0.687371,-0.155927,-0.173887,-1.6972,-0.430438,-0.465157,-0.0161475
26,45,-1.0472,-0.698132,-0.174533,-0.174533,-1.03305,-0.687371,-0.155927,-0.173887,-1.6972,-0.430438,-0.465157,-0.0161475
26,45,-1.0472,-0.698132,-0.174533,-0.174533,-1.03305,-0.687371,-0.155927,-0.173887,-1.6972,-0.430438,-0.465157,-0.0161475
26,45,-1.0472,-0.698132,-0.174533,-0.174533,-1.03305,-0.687371,-0.155927,-0.173887,-1.6972,-0.430438,-0.465157,-0.0161475
26,45,-1.0472,-0.698132,-0.174533,-0.174533,-1.03305,-0.687371,-0.155927,-0.173887,-1.6972,-0.430438,-0.465157,-0.0161475
26,45,-1.0472,-0.698132,-0.174533,-0.174533,-1.03305,-0.687371,-0.155927,-0.173887,-1.6972,-0.430438,-0.465157,-0.0161475
26,45,-1.0472,-0.698132,-0.174533,-0.174533,-1.03305,-0.687371,-0.155927,-0.173887,-1.6972,-0.430438,-0.465157,-0.0161475
26,45,-1.0472,-0.698132,-0.174533,-0.174533,-1.03305,-0.687371,-0.155927,-0.173887,-1.6972,-0.430438,-0.465157,-0.0161475
26,45,-1.0472,-0.698132,-0.174533,-0.174533,-1.03305,-0.687371,-0.155927,-0.173887,-1.6972,-0.430438,-0.465157,-0.0161475
26,45,-1.0472,-0.698132,-0.174533,-0.174533,-1.03305,-0.687371,-0.155927,-0.173887,-1.6972,-0.430438,-0.465157,-0.0161475
26,45,-1.0472,-0.698132,-0.174533,-0.174533,-1.03305,-0.687371,-0.155927,-0.173887,-1.6972,-0.430438,-0.465157,-0.0161475
26,45,-1.0472,-0.698132,-0.174533,-0.174533,-1.03305,-0.687371,-0.155927,-0.173887,-1.6972,-0.430438,-0.465157,-0.0161475
26,45,-1.0472,-0.698132,-0.174533,-0.174533,-1.03305,-0.687371,-0.155927,-0.173887,-1.6972,-0.430438,-0.465157,-0.0161475
26,45,-1.0472,-0.698132,-0.174533,-0.174533,-1.03305,-0.687371,-0.155927,-0.173887,-1.6972,-0.430438,-0.465157,-0.0161475
26,45,-1.0472,-0.698132,-0.174533,-0.174533,-1.03305,-0.687371,-0.155927,-0.173887,-1.6972,-0.430438,-0.465157,-0.0161475
26,45,-1.0472,-0.698132,-0.174533,-0.174533,-1.03305,-0.687371,-0.155927,-0.173887,-1.6972,-0.430438,-0.465157,-0.0161475
26,45,-1.0472,-0.698132,-0.174533,-0.174533,-1.03305,-0.687371,-0.155927,-0.173887,-1.6972,-0.430438,-0.465157,-0.0161475
26,45,-1.0472,-0.698132,-0.174533,-0.174533,-1.03305,-0.687371,-0.155927,-0.173887,-1.6972,-0.430438,-0.465157,-0.0161475
26,45,-1.0472,-0.698132,-0.174533,-0.174533,-1.03305,-0.687371,-0.155927,-0.173887,-1.6972,-0.430438,-0.465157,-0.0161475
26,45,-1.0472,-0.698132,-0.174533,-0.174533,-1.03305,-0.687371,-0.155927,-0.173887,-1.6972,-0.430438,-0.465157,-0.0161475
26,45,-1.0472,-0.698132,-0.174533,-0.174533,-1.03305,-0.687371,-0.155927,-0.173887,-1.6972,-0.430438,-0.465157,-0.0161475
26,45,-1.0472,-0.698132,-0.174533,-0.174533,-1.03305,-0.687371,-0.155927,-0.173887,-1.6972,-0.430438,-0.465157,-0.0161475
26,45,-1.0472,-0.698132,-0.174533,-0.174533,-1.03305,-0.687371,-0.155927,-0.173887,-1.6972,-0.430438,-0.465157,-0.0161475
26,45,-1.0472,-0.698132,-0.174533,-0.174533,-1.03305,-0.687371,-0.155927,-0.173887,-1.6972,-0.430438,-0.465157,-0.0161475
26,45,-1.0472,-0.698132,-0.174533,-0.174533,-1.03305,-0.687371,-0.155927,-0.173887,-1.6972,-0.430438,-0.465157,-0.0161475
26,45,-1.0472,-0.698132,-0.174533,-0.174533,-1.03305,-0.687371,-0.155927,-0.173887,-1.6972,-0.430438,-0.465157,-0.0161475
26,45,-1.0472,-0.698132,-0.174533,-0.174533,-1.03305,-0.687371,-0.155927,-0.173887,-1.6972,-0.430438,-0.465157,-0.0161475
26,45,-1.0472,-0.698132,-0.174533,-0.174533,-1.03305,-0.687371,-0.155927,-0.173887,-1.6972,-0.430438,-0.465157,-0.0161475
26,45,-1.0472,-0.698132,-0.174533,-0.174533,-1.03305,-0.687371,-0.155927,-0.173887,-1.6972,-0.430438,-0.465157,-0.0161475
26,45,-1.0472,-0.698132,-0.174533,-0.174533,-1.03305,-0.687371,-0.155927,-0.173887,-1.6972,-0.430438,-0.465157,-0.0161475
26,45,-1.0472,-0.698132,-0.174533,-0.174533,-1.03305,-0.687371,-0.155927,-0.173887,-1.6972,-0.430438,-0.465157,-0.0161475
26,45,-1.0472,-0.698132,-0.174533,-0.174533,-1.03305,-0.687371,-0.155927,-0.173887,-1.6972,-0.430438,-0.465157,-0.0161475
26,45,-1.0472,-0.698132,-0.174533,-0.174533,-1.03305,-0.687371,-0.155927,-0.173887,-1.6972,-0.430438,-0.465157,-0.0161475
26,45,-1.0472,-0.698132,-0.174533,-0.174533,-1.03305,-0.687371,-0.155927,-0.173887,-1.6972,-0.430438,-0.465157,-0.0161475
26,45,-1.0472,-0.698132,-0.174533,-0.174533,-1.03305,-0.687371,-0.155927,-0.173887,-1.6972,-0.430438,-0.465157,-0.0161475
26,45,-1.0472,-0.698132,-0.174533,-0.174533,-1.03305,-0.687371,-0.155927,-0.173887,-1.6972,-0.430438,-0.465157,-0.0161475
26,45,-1.0472,-0.698132,-0.174533,-0.174533,-1.03305,-0.687371,-0.155927,-0.173887,-1.6972,-0.430438,-0.465157,-0.0161475
26,45,-1.0472,-0.698132,-0.174533,-0.174533,-1.03305,-0.687371,-0.155927,-0.173887,-1.6972,-0.430438,-0.465157,-0.0161475
26,45,-1.0472,-0.698132,-0.174533,-0.174533,-1.03305,-0.687371,-0.155927,-0.173887,-1.6972,-0.430438,-0.465157,-0.0161475
26,45,-1.0472,-0.698132,-0.174533,-0.174533,-1.03305,-0.687371,-0.155927,-0.173887,-1.6972,-0.430438,-0.465157,-0.0161475
26,45,-1.0472,-0.698132,-0.174533,-0.174533,-1.03305,-0.687371,-0.155927,-0.173887,-1.6972,-0.430438,-0.465157,-0.0161475
26,45,-1.0472,-0.698132,-0.174533,-0.174533,-1.03305,-0.687371,-0.155927,-0.173887,-1.6972,-0.430438,-0.465157,-0.0161475
26,45,-1.0472,-0.698132,-0.174533,-0.174533,-1.03305,-0.687371,-0.155927,-0.173887,-1.6972,-0.430438,-0.465157,-0.0161475
26,45,-1.0472,-0.698132,-0.174533,-0.174533,-1.03305,-0.687371,-0.155927,-0.173887,-1.6972,-0.430438,-0.465157,-0.0161475
26,45,-1.0472,-0.698132,-0.174533,-0.174533,-1.03305,-0.687371,-0.155927,-0.173887,-1.6972,-0.430438,-0.465157,-0.0161475
26,45,-1.0472,-0.698132,-0.174533,-0.174533,-1.03305,-0.687371,-0.155927,-0.173887,-1.6972,-0.430438,-0.465157,-0.0161475
26,45,-1.0472,-0.698132,-0.174533,-0.174533,-1.03305,-0.687371,-0.155927,-0.173887,-1.6972,-0.430438,-0.465157,-0.0161475
26,45,-1.0472,-0.698132,-0.174533,-0.174533,-1.03305,-0.687371,-0.155927,-0.173887,-1.6972,-0.430438,-0.465157,-0.0161475
26,45,-1.0472,-0.698132,-0.174533,-0.174533,-1.03305,-0.687371,-0.155927,-0.173887,-1.6972,-0.430438,-0.465157,-0.0161475
26,45,-1.0472,-0.698132,-0.174533,-0.174533,-1.03305,-0.687371,-0.155927,-0.173887,-1.6972,-0.430438,-0.465157,-0.0161475
26,45,-1.0472,-0.698132,-0.174533,-0.174533,-1.03305,-0.687371,-0.155927,-0.173887,-1.6972,-0.430438,-0.465157,-0.0161475
26,45,-1.0472,-0.698132,-0.174533,-0.174533,-1.03305,-0.687371,-0.155927,-0.173887,-1.6972,-0.430438,-0.465157,-0.0161475
26,45,-1.0472,-0.698132,-0.174533,-0.174533,-1.03305,-0.687371,-0.155927,-0.173887,-1.6972,-0.430438,-0.465157,-0.0161475
26,45,-1.0472,-0.698132,-0.174533,-0.174533,-1.03305,-0.687371,-0.155927,-0.173887,-1.6972,-0.430438,-0.465157,-0.0161475
26,45,-1.0472,-0.698132,-0.174533,-0.174533,-1.03305,-0.687371,-0.155927,-0.173887,-1.6972,-0.430438,-0.465157,-0.0161475
26,45,-1.0472,-0.698132,-0.174533,-0.174533,-1.03305,-0.687371,-0.155927,-0.173887,-1.6972,-0.430438,-0.465157,-0.0161475
26,45,-1.0472,-0.698132,-0.174533,-0.174533,-1.03305,-0.687371,-0.155927,-0.173887,-1.6972,-0.430438,-0.465157,-0.0161475
26,45,-1.0472,-0.698132,-0.174533,-0.174533,-1.03305,-0.687371,-0.155927,-0.173887,-1.6972,-0.430438,-0.465157,-0.0161475
26,45,-1.0472,-0.698132,-0.174533,-0.174533,-1.03305,-0.687371,-0.155927,-0.173887,-1.6972,-0.430438,-0.465157,-0.0161475
26,45,-1.0472,-0.698132,-0.174533,-0.174533,-1.03305,-0.687371,-0.155927,-0.173887,-1.6972,-0.430438,-0.465157,-0.0161475
26,45,-1.0472,-0.698132,-0.174533,-0.174533,-1.03305,-0.687371,-0.155927,-0.173887,-1.6972,-0.430438,-0.465157,-0.0161475
26,45,-1.0472,-0.698132,-0.174533,-0.174533,-1.03305,-0.687371,-0.155927,-0.173887,-1.6972,-0.430438,-0.465157,-0.0161475
26,45,-1.0472,-0.698132,-0.174533,-0.174533,-1.03305,-0.687371,-0.155927,-0.173887,-1.6972,-0.430438,-0.465157,-0.0161475
26,45,-1.0472,-0.698132,-0.174533,-0.174533,-1.03305,-0.687371,-0.155927,-0.173887,-1.6972,-0.430438,-0.465157,-0.0161475
26,45,-1.0472,-0.698132,-0.174533,-0.174533,-1.03305,-0.687371,-0.155927,-0.173887,-1.6972,-0.430438,-0.465157,-0.0161475
26,45,-1.0472,-0.698132,-0.174533,-0.174533,-1.03305,-0.687371,-0.155927,-0.173887,-1.6972,-0.430438,-0.465157,-0.0161475
26,45,-1.0472,-0.698132,-0.174533,-0.174533,-1.03305,-0.687371,-0.155927,-0.173887,-1.6972,-0.430438,-0.465157,-0.0161475
26,45,-1.0472,-0.698132,-0.174533,-0.174533,-1.03305,-0.687371,-0.155927,-0.173887,-1.6972,-0.430438,-0.465157,-0.0161475
26,45,-1.0472,-0.698132,-0.174533,-0.174533,-1.03305,-0.687371,-0.155927,-0.173887,-1.6972,-0.430438,-0.465157,-0.0161475
26,45,-1.0472,-0.698132,-0.174533,-0.174533,-1.03305,-0.687371,-0.155927,-0.173887,-1.6972,-0.430438,-0.465157,-0.0161475
26,45,-1.0472,-0.698132,-0.174533,-0.174533,-1.03305,-0.687371,-0.155927,-0.173887,-1.6972,-0.430438,-0.465157,-0.0161475
26,45,-1.0472,-0.698132,-0.174533,-0.174533,-1.03305,-0.687371,-0.155927,-0.173887,-1.6972,-0.430438,-0.465157,-0.0161475
26,45,-1.0472,-0.698132,-0.174533,-0.174533,-1.03305,-0.687371,-0.155927,-0.173887,-1.6972,-0.430438,-0.465157,-0.0161475
26,45,-1.0472,-0.698132,-0.174533,-0.174533,-1.03305,-0.687371,-0.155927,-0.173887,-1.6972,-0.430438,-0.465157,-0.0161475
26,45,-1.0472,-0.698132,-0.174533,-0.174533,-1.03305,-0.687371,-0.155927,-0.173887,-1.6972,-0.430438,-0.465157,-0.0161475
26,45,-1.0472,-0.698132,-0.174533,-0.174533,-1.03305,-0.687371,-0.155927,-0.173887,-1.6972,-0.430438,-0.465157,-0.0161475
26,45,-1.0472,-0.698132,-0.174533,-0.174533,-1.03305,-0.687371,-0.155927,-0.173887,-1.6972,-0.430438,-0.465157,-0.0161475
26,45,-1.0472,-0.698132,-0.174533,-0.174533,-1.03305,-0.687371,-0.155927,-0.173887,-1.6972,-0.430438,-0.465157,-0.0161475
26,45,-1.0472,-0.698132,-0.174533,-0.174533,-1.03305,-0.687371,-0.155927,-0.173887,-1.6972,-0.430438,-0.465157,-0.0161475
26,45,-1.0472,-0.698132,-0.174533,-0.174533,-1.03305,-0.687371,-0.155927,-0.173887,-1.6972,-0.430438,-0.465157,-0.0161475
26,45,-1.0472,-0.698132,-0.174533,-0.174533,-1.03305,-0.687371,-0.155927,-0.173887,-1.6972,-0.430438,-0.465157,-0.0161475
26,45,-1.0472,-0.698132,-0.174533,-0.174533,-1.03305,-0.687371,-0.155927,-0.173887,-1.6972,-0.430438,-0.465157,-0.0161475
26,45,-1.0472,-0.698132,-0.174533,-0.174533,-1.03305,-0.687371,-0.155927,-0.173887,-1.6972,-0.430438,-0.465157,-0.0161475
26,45,-1.0472,-0.698132,-0.174533,-0.174533,-1.03305,-0.687371,-0.155927,-0.173887,-1.6972,-0.430438,-0.465157,-0.0161475
26,45,-1.0472,-0.698132,-0.174533,-0.174533,-1.03305,-0.687371,-0.155927,-0.173887,-1.6972,-0.430438,-0.465157,-0.0161475
26,45,-1.0472,-0.698132,-0.174533,-0.174533,-1.03305,-0.687371,-0.155927,-0.173887,-1.6972,-0.430438,-0.465157,-0.0161475
26,45,-1.0472,-0.698132,-0.174533,-0.174533,-1.03305,-0.687371,-0.155927,-0.173887,-1.6972,-0.430438,-0.465157,-0.0161475
26,45,-1.0472,-0.698132,-0.174533,-0.174533,-1.03305,-0.687371,-0.155927,-0.173887,-1.6972,-0.430438,-0.465157,-0.0161475
26,45,-1.0472,-0.698132,-0.174533,-0.174533,-1.03305,-0.687371,-0.155927,-0.173887,-1.6972,-0.430438,-0.465157,-0.0161475
26,45,-1.0472,-0.698132,-0.174533,-0.174533,-1.03305,-0.687371,-0.155927,-0.173887,-1.6972,-0.430438,-0.465157,-0.0161475
26,45,-1.0472,-0.698132,-0.174533,-0.174533,-1.03305,-0.687371,-0.155927,-0.173887,-1.6972,-0.430438,-0.465157,-0.0161475
26,45,-1.0472,-0.698132,-0.174533,-0.174533,-1.03305,-0.687371,-0.155927,-0.173887,-1.6972,-0.430438,-0.465157,-0.0161475
26,45,-1.0472,-0.698132,-0.174533,-0.174533,-1.03305,-0.687371,-0.155927,-0.173887,-1.6972,-0.430438,-0.465157,-0.0161475
26,45,-1.0472,-0.698132,-0.174533,-0.174533,-1.03305,-0.687371,-0.155927,-0.173887,-1.6972,-0.430438,-0.465157,-0.0161475
26,45,-1.0472,-0.698132,-0.174533,-0.174533,-1.03305,-0.687371,-0.155927,-0.173887,-1.6972,-0.430438,-0.465157,-0.0161475
26,45,-1.0472,-0.698132,-0.174533,-0.174533,-1.03305,-0.687371,-0.155927,-0.173887,-1.6972,-0.430438,-0.465157,-0.0161475
26,45,-1.0472,-0.698132,-0.174533,-0.174533,-1.03305,-0.687371,-0.155927,-0.173887,-1.6972,-0.430438,-0.465157,-0.0161475
26,45,-1.0472,-0.698132,-0.174533,-0.174533,-1.03305,-0.687371,-0.155927,-0.173887,-1.6972,-0.430438,-0.465157,-0.0161475
26,45,-1.0472,-0.698132,-0.174533,-0.174533,-1.03305,-0.687371,-0.155927,-0.173887,-1.6972,-0.430438,-0.465157,-0.0161475
26,45,-1.0472,-0.698132,-0.174533,-0.174533,-1.03305,-0.687371,-0.155927,-0.173887,-1.6972,-0.430438,-0.465157,-0.0161475
26,45,-1.0472,-0.698132,-0.174533,-0.174533,-1.03305,-0.687371,-0.155927,-0.173887,-1.6972,-0.430438,-0.465157,-0.0161475
26,45,-1.0472,-0.698132,-0.174533,-0.174533,-1.03305,-0.687371,-0.155927,-0.173887,-1.6972,-0.430438,-0.465157,-0.0161475
