stim_pw [us],stim_amp [mA],com_elbow_fe [rad],com_forearm_ps [rad],com_wrist_fe [rad],com_wrist_ru [rad],act_elbow_fe [rad],act_forearm_ps [rad],act_wrist_fe [rad],act_wrist_ru [rad],elbow_fe_trq [Nm],forearm_ps_trq [Nm],wrist_fe_trq [Nm],wrist_ru_trq [Nm]
23,45,-1.0472,-0.698132,-0.174533,-0.174533,-1.03305,-0.688896,-0.158283,-0.17448,-1.6972,-0.369429,-0.406242,-0.00132059
23,45,-1.0472,-0.698132,-0.174533,-0.174533,-1.03305,-0.688896,-0.158283,-0.17448,-1.6972,-0.369429,-0.406242,-0.00132059
23,45,-1.0472,-0.698132,-0.174533,-0.174533,-1.03305,-0.688896,-0.158283,-0.17448,-1.6972,-0.369429,-0.406242,-0.00132059
23,45,-1.0472,-0.698132,-0.174533,-0.174533,-1.03305,-0.688896,-0.158283,-0.17448,-1.6972,-0.369429,-0.406242,-0.00132059
23,45,-1.0472,-0.698132,-0.174533,-0.174533,-1.03305,-0.688896,-0.158283,-0.17448,-1.6972,-0.369429,-0.406242,-0.00132059
23,45,-1.0472,-0.698132,-0.174533,-0.174533,-1.03305,-0.688896,-0.158283,-0.17448,-1.6972,-0.369429,-0.406242,-0.00132059
23,45,-1.0472,-0.698132,-0.174533,-0.174533,-1.03305,-0.688896,-0.158283,-0.17448,-1.6972,-0.369429,-0.406242,-0.00132059
23,45,-1.0472,-0.698132,-0.174533,-0.174533,-1.03305,-0.688896,-0.158343,-0.17446,-1.6972,-0.369429,-0.404753,-0.0018133
23,45,-1.0472,-0.698132,-0.174533,-0.174533,-1.03305,-0.688896,-0.158343,-0.17446,-1.6972,-0.369429,-0.404753,-0.0018133
23,45,-1.0472,-0.698132,-0.174533,-0.174533,-1.03305,-0.688896,-0.158343,-0.17446,-1.6972,-0.369429,-0.404753,-0.0018133
23,45,-1.0472,-0.698132,-0.174533,-0.174533,-1.03305,-0.688896,-0.158343,-0.17446,-1.6972,-0.369429,-0.404753,-0.0018133
23,45,-1.0472,-0.698132,-0.174533,-0.174533,-1.03305,-0.688896,-0.158343,-0.17446,-1.6972,-0.369429,-0.404753,-0.0018133
23,45,-1.0472,-0.698132,-0.174533,-0.174533,-1.03305,-0.688896,-0.158343,-0.17446,-1.6972,-0.369429,-0.404753,-0.0018133
23,45,-1.0472,-0.698132,-0.174533,-0.174533,-1.03305,-0.688896,-0.158343,-0.17446,-1.6972,-0.369429,-0.404753,-0.0018133
23,45,-1.0472,-0.698132,-0.174533,-0.174533,-1.03305,-0.688896,-0.158343,-0.17446,-1.6972,-0.369429,-0.404753,-0.0018133
23,45,-1.0472,-0.698132,-0.174533,-0.174533,-1.03305,-0.688896,-0.158343,-0.17446,-1.6972,-0.369429,-0.404753,-0.0018133
23,45,-1.0472,-0.698132,-0.174533,-0.174533,-1.03305,-0.688896,-0.158343,-0.17446,-1.6972,-0.369429,-0.404753,-0.0018133
23,45,-1.0472,-0.698132,-0.174533,-0.174533,-1.03305,-0.688896,-0.158343,-0.17446,-1.6972,-0.369429,-0.404753,-0.0018133
23,45,-1.0472,-0.698132,-0.174533,-0.174533,-1.03305,-0.688896,-0.158343,-0.17446,-1.6972,-0.369429,-0.404753,-0.0018133
23,45,-1.0472,-0.698132,-0.174533,-0.174533,-1.03305,-0.688896,-0.158343,-0.17446,-1.6972,-0.369429,-0.404753,-0.0018133
23,45,-1.0472,-0.698132,-0.174533,-0.174533,-1.03305,-0.688896,-0.158343,-0.17446,-1.6972,-0.369429,-0.404753,-0.0018133
23,45,-1.0472,-0.698132,-0.174533,-0.174533,-1.03305,-0.688896,-0.158343,-0.17446,-1.6972,-0.369429,-0.404753,-0.0018133
23,45,-1.0472,-0.698132,-0.174533,-0.174533,-1.03305,-0.688896,-0.158343,-0.17446,-1.6972,-0.369429,-0.404753,-0.0018133
23,45,-1.0472,-0.698132,-0.174533,-0.174533,-1.03305,-0.688896,-0.158343,-0.17446,-1.6972,-0.369429,-0.404753,-0.0018133
23,45,-1.0472,-0.698132,-0.174533,-0.174533,-1.03305,-0.688896,-0.158343,-0.17446,-1.6972,-0.369429,-0.404753,-0.0018133
23,45,-1.0472,-0.698132,-0.174533,-0.174533,-1.03305,-0.688896,-0.158343,-0.17446,-1.6972,-0.369429,-0.404753,-0.0018133
23,45,-1.0472,-0.698132,-0.174533,-0.174533,-1.03305,-0.688896,-0.158343,-0.17446,-1.6972,-0.369429,-0.404753,-0.0018133
23,45,-1.0472,-0.698132,-0.174533,-0.174533,-1.03305,-0.688896,-0.158343,-0.17446,-1.6972,-0.369429,-0.404753,-0.0018133
23,45,-1.0472,-0.698132,-0.174533,-0.174533,-1.03305,-0.688896,-0.158343,-0.17446,-1.6972,-0.369429,-0.404753,-0.0018133
23,45,-1.0472,-0.698132,-0.174533,-0.174533,-1.03305,-0.688896,-0.158343,-0.17446,-1.6972,-0.369429,-0.404753,-0.0018133
23,45,-1.0472,-0.698132,-0.174533,-0.174533,-1.03305,-0.688896,-0.158343,-0.17446,-1.6972,-0.369429,-0.404753,-0.0018133
23,45,-1.0472,-0.698132,-0.174533,-0.174533,-1.03305,-0.688896,-0.158343,-0.17446,-1.6972,-0.369429,-0.404753,-0.0018133
23,45,-1.0472,-0.698132,-0.174533,-0.174533,-1.03305,-0.688896,-0.158343,-0.17446,-1.6972,-0.369429,-0.404753,-0.0018133
23,45,-1.0472,-0.698132,-0.174533,-0.174533,-1.03305,-0.688896,-0.158343,-0.17446,-1.6972,-0.369429,-0.404753,-0.0018133
23,45,-1.0472,-0.698132,-0.174533,-0.174533,-1.03305,-0.688896,-0.158343,-0.17446,-1.6972,-0.369429,-0.404753,-0.0018133
23,45,-1.0472,-0.698132,-0.174533,-0.174533,-1.03305,-0.688896,-0.158343,-0.17446,-1.6972,-0.369429,-0.404753,-0.0018133
23,45,-1.0472,-0.698132,-0.174533,-0.174533,-1.03305,-0.688896,-0.158343,-0.17446,-1.6972,-0.369429,-0.404753,-0.0018133
23,45,-1.0472,-0.698132,-0.174533,-0.174533,-1.03305,-0.688896,-0.158343,-0.17446,-1.6972,-0.369429,-0.404753,-0.0018133
23,45,-1.0472,-0.698132,-0.174533,-0.174533,-1.03305,-0.688896,-0.158343,-0.17446,-1.6972,-0.369429,-0.404753,-0.0018133
23,45,-1.0472,-0.698132,-0.174533,-0.174533,-1.03305,-0.688896,-0.158343,-0.17446,-1.6972,-0.369429,-0.404753,-0.0018133
23,45,-1.0472,-0.698132,-0.174533,-0.174533,-1.03305,-0.688896,-0.158343,-0.17446,-1.6972,-0.369429,-0.404753,-0.0018133
23,45,-1.0472,-0.698132,-0.174533,-0.174533,-1.03305,-0.688896,-0.158343,-0.17446,-1.6972,-0.369429,-0.404753,-0.0018133
23,45,-1.0472,-0.698132,-0.174533,-0.174533,-1.03305,-0.688896,-0.158343,-0.17446,-1.6972,-0.369429,-0.404753,-0.0018133
23,45,-1.0472,-0.698132,-0.174533,-0.174533,-1.03305,-0.688896,-0.158343,-0.17446,-1.6972,-0.369429,-0.404753,-0.0018133
23,45,-1.0472,-0.698132,-0.174533,-0.174533,-1.03305,-0.688896,-0.158343,-0.17446,-1.6972,-0.369429,-0.404753,-0.0018133
23,45,-1.0472,-0.698132,-0.174533,-0.174533,-1.03305,-0.688896,-0.158343,-0.17446,-1.6972,-0.369429,-0.404753,-0.0018133
23,45,-1.0472,-0.698132,-0.174533,-0.174533,-1.03305,-0.688896,-0.158343,-0.17446,-1.6972,-0.369429,-0.404753,-0.0018133
23,45,-1.0472,-0.698132,-0.174533,-0.174533,-1.03305,-0.688896,-0.158343,-0.17446,-1.6972,-0.369429,-0.404753,-0.0018133
23,45,-1.0472,-0.698132,-0.174533,-0.174533,-1.03305,-0.688896,-0.158343,-0.17446,-1.6972,-0.369429,-0.404753,-0.0018133
23,45,-1.0472,-0.698132,-0.174533,-0.174533,-1.03305,-0.688896,-0.158343,-0.17446,-1.6972,-0.369429,-0.404753,-0.0018133
23,45,-1.0472,-0.698132,-0.174533,-0.174533,-1.03305,-0.688896,-0.158343,-0.17446,-1.6972,-0.369429,-0.404753,-0.0018133
23,45,-1.0472,-0.698132,-0.174533,-0.174533,-1.03305,-0.688896,-0.158343,-0.17446,-1.6972,-0.369429,-0.404753,-0.0018133
23,45,-1.0472,-0.698132,-0.174533,-0.174533,-1.03305,-0.688896,-0.158343,-0.17446,-1.6972,-0.369429,-0.404753,-0.0018133
23,45,-1.0472,-0.698132,-0.174533,-0.174533,-1.03305,-0.688896,-0.158343,-0.17446,-1.6972,-0.369429,-0.404753,-0.0018133
23,45,-1.0472,-0.698132,-0.174533,-0.174533,-1.03305,-0.688896,-0.158343,-0.17446,-1.6972,-0.369429,-0.404753,-0.0018133
23,45,-1.0472,-0.698132,-0.174533,-0.174533,-1.03305,-0.688896,-0.158343,-0.17446,-1.6972,-0.369429,-0.404753,-0.0018133
23,45,-1.0472,-0.698132,-0.174533,-0.174533,-1.03305,-0.688896,-0.158343,-0.17446,-1.6972,-0.369429,-0.404753,-0.0018133
23,45,-1.0472,-0.698132,-0.174533,-0.174533,-1.03305,-0.688896,-0.158343,-0.17446,-1.6972,-0.369429,-0.404753,-0.0018133
23,45,-1.0472,-0.698132,-0.174533,-0.174533,-1.03305,-0.688896,-0.158343,-0.17446,-1.6972,-0.369429,-0.404753,-0.0018133
23,45,-1.0472,-0.698132,-0.174533,-0.174533,-1.03305,-0.688896,-0.158343,-0.17446,-1.6972,-0.369429,-0.404753,-0.0018133
23,45,-1.0472,-0.698132,-0.174533,-0.174533,-1.03305,-0.688896,-0.158343,-0.17446,-1.6972,-0.369429,-0.404753,-0.0018133
23,45,-1.0472,-0.698132,-0.174533,-0.174533,-1.03305,-0.688896,-0.158343,-0.17446,-1.6972,-0.369429,-0.404753,-0.0018133
23,45,-1.0472,-0.698132,-0.174533,-0.174533,-1.03305,-0.688896,-0.158343,-0.17446,-1.6972,-0.369429,-0.404753,-0.0018133
23,45,-1.0472,-0.698132,-0.174533,-0.174533,-1.03305,-0.688896,-0.158343,-0.17446,-1.6972,-0.369429,-0.404753,-0.0018133
23,45,-1.0472,-0.698132,-0.174533,-0.174533,-1.03305,-0.688896,-0.158343,-0.17446,-1.6972,-0.369429,-0.404753,-0.0018133
23,45,-1.0472,-0.698132,-0.174533,-0.174533,-1.03305,-0.688896,-0.158343,-0.17446,-1.6972,-0.369429,-0.404753,-0.0018133
23,45,-1.0472,-0.698132,-0.174533,-0.174533,-1.03305,-0.688896,-0.158343,-0.17446,-1.6972,-0.369429,-0.404753,-0.0018133
23,45,-1.0472,-0.698132,-0.174533,-0.174533,-1.03305,-0.688845,-0.158343,-0.17446,-1.6972,-0.371462,-0.404753,-0.0018133
23,45,-1.0472,-0.698132,-0.174533,-0.174533,-1.03305,-0.688845,-0.158343,-0.17446,-1.6972,-0.371462,-0.404753,-0.0018133
23,45,-1.0472,-0.698132,-0.174533,-0.174533,-1.03305,-0.688845,-0.158343,-0.17446,-1.6972,-0.371462,-0.404753,-0.0018133
23,45,-1.0472,-0.698132,-0.174533,-0.174533,-1.03305,-0.688845,-0.158343,-0.17446,-1.6972,-0.371462,-0.404753,-0.0018133
23,45,-1.0472,-0.698132,-0.174533,-0.174533,-1.03305,-0.688845,-0.158343,-0.17446,-1.6972,-0.371462,-0.404753,-0.0018133
23,45,-1.0472,-0.698132,-0.174533,-0.174533,-1.03305,-0.688845,-0.158343,-0.17446,-1.6972,-0.371462,-0.404753,-0.0018133
23,45,-1.0472,-0.698132,-0.174533,-0.174533,-1.03305,-0.688845,-0.158343,-0.17446,-1.6972,-0.371462,-0.404753,-0.0018133
23,45,-1.0472,-0.698132,-0.174533,-0.174533,-1.03305,-0.688845,-0.158343,-0.17446,-1.6972,-0.371462,-0.404753,-0.0018133
23,45,-1.0472,-0.698132,-0.174533,-0.174533,-1.03305,-0.688845,-0.158343,-0.17446,-1.6972,-0.371462,-0.404753,-0.0018133
23,45,-1.0472,-0.698132,-0.174533,-0.174533,-1.03305,-0.688845,-0.158343,-0.17446,-1.6972,-0.371462,-0.404753,-0.0018133
23,45,-1.0472,-0.698132,-0.174533,-0.174533,-1.03305,-0.688845,-0.158343,-0.17446,-1.6972,-0.371462,-0.404753,-0.0018133
23,45,-1.0472,-0.698132,-0.174533,-0.174533,-1.03305,-0.688845,-0.158343,-0.17446,-1.6972,-0.371462,-0.404753,-0.0018133
23,45,-1.0472,-0.698132,-0.174533,-0.174533,-1.03305,-0.688845,-0.158343,-0.17446,-1.6972,-0.371462,-0.404753,-0.0018133
23,45,-1.0472,-0.698132,-0.174533,-0.174533,-1.03305,-0.688845,-0.158343,-0.17446,-1.6972,-0.371462,-0.404753,-0.0018133
23,45,-1.0472,-0.698132,-0.174533,-0.174533,-1.03305,-0.688845,-0.158343,-0.17446,-1.6972,-0.371462,-0.404753,-0.0018133
23,45,-1.0472,-0.698132,-0.174533,-0.174533,-1.03305,-0.688845,-0.158343,-0.17446,-1.6972,-0.371462,-0.404753,-0.0018133
23,45,-1.0472,-0.698132,-0.174533,-0.174533,-1.03305,-0.688845,-0.158343,-0.17446,-1.6972,-0.371462,-0.404753,-0.0018133
23,45,-1.0472,-0.698132,-0.174533,-0.174533,-1.03305,-0.688845,-0.158343,-0.17446,-1.6972,-0.371462,-0.404753,-0.0018133
23,45,-1.0472,-0.698132,-0.174533,-0.174533,-1.03305,-0.688845,-0.158343,-0.17446,-1.6972,-0.371462,-0.404753,-0.0018133
23,45,-1.0472,-0.698132,-0.174533,-0.174533,-1.03305,-0.688845,-0.158343,-0.17446,-1.6972,-0.371462,-0.404753,-0.0018133
23,45,-1.0472,-0.698132,-0.174533,-0.174533,-1.03305,-0.688845,-0.158343,-0.17446,-1.6972,-0.371462,-0.404753,-0.0018133
23,45,-1.0472,-0.698132,-0.174533,-0.174533,-1.03305,-0.688845,-0.158343,-0.17446,-1.6972,-0.371462,-0.404753,-0.0018133
23,45,-1.0472,-0.698132,-0.174533,-0.174533,-1.03305,-0.688845,-0.158343,-0.17446,-1.6972,-0.371462,-0.404753,-0.0018133
23,45,-1.0472,-0.698132,-0.174533,-0.174533,-1.03305,-0.688845,-0.158343,-0.17446,-1.6972,-0.371462,-0.404753,-0.0018133
23,45,-1.0472,-0.698132,-0.174533,-0.174533,-1.03305,-0.688845,-0.158343,-0.17446,-1.6972,-0.371462,-0.404753,-0.0018133
23,45,-1.0472,-0.698132,-0.174533,-0.174533,-1.03305,-0.688845,-0.158343,-0.17446,-1.6972,-0.371462,-0.404753,-0.0018133
23,45,-1.0472,-0.698132,-0.174533,-0.174533,-1.03305,-0.688845,-0.158343,-0.17446,-1.6972,-0.371462,-0.404753,-0.0018133
23,45,-1.0472,-0.698132,-0.174533,-0.174533,-1.03305,-0.688845,-0.158343,-0.17446,-1.6972,-0.371462,-0.404753,-0.0018133
23,45,-1.0472,-0.698132,-0.174533,-0.174533,-1.03305,-0.688845,-0.158343,-0.17446,-1.6972,-0.371462,-0.404753,-0.0018133
23,45,-1.0472,-0.698132,-0.174533,-0.174533,-1.03305,-0.688845,-0.158343,-0.17446,-1.6972,-0.371462,-0.404753,-0.0018133
23,45,-1.0472,-0.698132,-0.174533,-0.174533,-1.03305,-0.688845,-0.158343,-0.17446,-1.6972,-0.371462,-0.404753,-0.0018133
23,45,-1.0472,-0.698132,-0.174533,-0.174533,-1.03305,-0.688845,-0.158343,-0.17446,-1.6972,-0.371462,-0.404753,-0.0018133
23,45,-1.0472,-0.698132,-0.174533,-0.174533,-1.03305,-0.688845,-0.158402,-0.174441,-1.6972,-0.371462,-0.403264,-0.00230598
23,45,-1.0472,-0.698132,-0.174533,-0.174533,-1.03305,-0.688845,-0.158402,-0.174441,-1.6972,-0.371462,-0.403264,-0.00230598
23,45,-1.0472,-0.698132,-0.174533,-0.174533,-1.03305,-0.688845,-0.158402,-0.174441,-1.6972,-0.371462,-0.403264,-0.00230598
23,45,-1.0472,-0.698132,-0.174533,-0.174533,-1.03305,-0.688845,-0.1584,-0.174381,-1.6972,-0.371462,-0.403318,-0.00379355
23,45,-1.0472,-0.698132,-0.174533,-0.174533,-1.03305,-0.688845,-0.1584,-0.174381,-1.6972,-0.371462,-0.403318,-0.00379355
23,45,-1.0472,-0.698132,-0.174533,-0.174533,-1.03305,-0.688845,-0.1584,-0.174381,-1.6972,-0.371462,-0.403318,-0.00379355
23,45,-1.0472,-0.698132,-0.174533,-0.174533,-1.03305,-0.688845,-0.1584,-0.174381,-1.6972,-0.371462,-0.403318,-0.00379355
23,45,-1.0472,-0.698132,-0.174533,-0.174533,-1.03305,-0.688845,-0.1584,-0.174381,-1.6972,-0.371462,-0.403318,-0.00379355
23,45,-1.0472,-0.698132,-0.174533,-0.174533,-1.03305,-0.688845,-0.1584,-0.174381,-1.6972,-0.371462,-0.403318,-0.00379355
23,45,-1.0472,-0.698132,-0.174533,-0.174533,-1.03305,-0.688845,-0.1584,-0.174381,-1.6972,-0.371462,-0.403318,-0.00379355
23,45,-1.0472,-0.698132,-0.174533,-0.174533,-1.03305,-0.688845,-0.1584,-0.174381,-1.6972,-0.371462,-0.403318,-0.00379355
23,45,-1.0472,-0.698132,-0.174533,-0.174533,-1.03305,-0.688845,-0.1584,-0.174381,-1.6972,-0.371462,-0.403318,-0.00379355
23,45,-1.0472,-0.698132,-0.174533,-0.174533,-1.03305,-0.688845,-0.1584,-0.174381,-1.6972,-0.371462,-0.403318,-0.00379355
23,45,-1.0472,-0.698132,-0.174533,-0.174533,-1.03305,-0.688845,-0.1584,-0.174381,-1.6972,-0.371462,-0.403318,-0.00379355
23,45,-1.0472,-0.698132,-0.174533,-0.174533,-1.03305,-0.688845,-0.1584,-0.174381,-1.6972,-0.371462,-0.403318,-0.00379355
23,45,-1.0472,-0.698132,-0.174533,-0.174533,-1.03305,-0.688845,-0.1584,-0.174381,-1.6972,-0.371462,-0.403318,-0.00379355
23,45,-1.0472,-0.698132,-0.174533,-0.174533,-1.03305,-0.688845,-0.1584,-0.174381,-1.6972,-0.371462,-0.403318,-0.00379355
23,45,-1.0472,-0.698132,-0.174533,-0.174533,-1.03305,-0.688845,-0.1584,-0.174381,-1.6972,-0.371462,-0.403318,-0.00379355
23,45,-1.0472,-0.698132,-0.174533,-0.174533,-1.03305,-0.688845,-0.1584,-0.174381,-1.6972,-0.371462,-0.403318,-0.00379355
23,45,-1.0472,-0.698132,-0.174533,-0.174533,-1.03305,-0.688845,-0.1584,-0.174381,-1.6972,-0.371462,-0.403318,-0.00379355
23,45,-1.0472,-0.698132,-0.174533,-0.174533,-1.03305,-0.688845,-0.1584,-0.174381,-1.6972,-0.371462,-0.403318,-0.00379355
23,45,-1.0472,-0.698132,-0.174533,-0.174533,-1.03305,-0.688845,-0.1584,-0.174381,-1.6972,-0.371462,-0.403318,-0.00379355
23,45,-1.0472,-0.698132,-0.174533,-0.174533,-1.03305,-0.688845,-0.1584,-0.174381,-1.6972,-0.371462,-0.403318,-0.00379355
23,45,-1.0472,-0.698132,-0.174533,-0.174533,-1.03305,-0.688845,-0.1584,-0.174381,-1.6972,-0.371462,-0.403318,-0.00379355
23,45,-1.0472,-0.698132,-0.174533,-0.174533,-1.03305,-0.688845,-0.1584,-0.174381,-1.6972,-0.371462,-0.403318,-0.00379355
23,45,-1.0472,-0.698132,-0.174533,-0.174533,-1.03305,-0.688845,-0.1584,-0.174381,-1.6972,-0.371462,-0.403318,-0.00379355
23,45,-1.0472,-0.698132,-0.174533,-0.174533,-1.03305,-0.688845,-0.1584,-0.174381,-1.6972,-0.371462,-0.403318,-0.00379355
23,45,-1.0472,-0.698132,-0.174533,-0.174533,-1.03305,-0.688845,-0.1584,-0.174381,-1.6972,-0.371462,-0.403318,-0.00379355
23,45,-1.0472,-0.698132,-0.174533,-0.174533,-1.03305,-0.688845,-0.1584,-0.174381,-1.6972,-0.371462,-0.403318,-0.00379355
23,45,-1.0472,-0.698132,-0.174533,-0.174533,-1.03305,-0.688845,-0.1584,-0.174381,-1.6972,-0.371462,-0.403318,-0.00379355
23,45,-1.0472,-0.698132,-0.174533,-0.174533,-1.03305,-0.688845,-0.1584,-0.174381,-1.6972,-0.371462,-0.403318,-0.00379355
23,45,-1.0472,-0.698132,-0.174533,-0.174533,-1.03305,-0.688845,-0.1584,-0.174381,-1.6972,-0.371462,-0.403318,-0.00379355
23,45,-1.0472,-0.698132,-0.174533,-0.174533,-1.03305,-0.688845,-0.1584,-0.174381,-1.6972,-0.371462,-0.403318,-0.00379355
23,45,-1.0472,-0.698132,-0.174533,-0.174533,-1.03305,-0.688845,-0.1584,-0.174381,-1.6972,-0.371462,-0.403318,-0.00379355
23,45,-1.0472,-0.698132,-0.174533,-0.174533,-1.03305,-0.688845,-0.1584,-0.174381,-1.6972,-0.371462,-0.403318,-0.00379355
23,45,-1.0472,-0.698132,-0.174533,-0.174533,-1.03305,-0.688845,-0.1584,-0.174381,-1.6972,-0.371462,-0.403318,-0.00379355
23,45,-1.0472,-0.698132,-0.174533,-0.174533,-1.03305,-0.688845,-0.1584,-0.174381,-1.6972,-0.371462,-0.403318,-0.00379355
23,45,-1.0472,-0.698132,-0.174533,-0.174533,-1.03305,-0.688845,-0.1584,-0.174381,-1.6972,-0.371462,-0.403318,-0.00379355
23,45,-1.0472,-0.698132,-0.174533,-0.174533,-1.03305,-0.688845,-0.1584,-0.174381,-1.6972,-0.371462,-0.403318,-0.00379355
23,45,-1.0472,-0.698132,-0.174533,-0.174533,-1.03305,-0.688845,-0.1584,-0.174381,-1.6972,-0.371462,-0.403318,-0.00379355
23,45,-1.0472,-0.698132,-0.174533,-0.174533,-1.03305,-0.688845,-0.1584,-0.174381,-1.6972,-0.371462,-0.403318,-0.00379355
23,45,-1.0472,-0.698132,-0.174533,-0.174533,-1.03305,-0.688845,-0.1584,-0.174381,-1.6972,-0.371462,-0.403318,-0.00379355
23,45,-1.0472,-0.698132,-0.174533,-0.174533,-1.03305,-0.688845,-0.1584,-0.174381,-1.6972,-0.371462,-0.403318,-0.00379355
23,45,-1.0472,-0.698132,-0.174533,-0.174533,-1.03305,-0.688845,-0.1584,-0.174381,-1.6972,-0.371462,-0.403318,-0.00379355
23,45,-1.0472,-0.698132,-0.174533,-0.174533,-1.03305,-0.688845,-0.1584,-0.174381,-1.6972,-0.371462,-0.403318,-0.00379355
23,45,-1.0472,-0.698132,-0.174533,-0.174533,-1.03305,-0.688845,-0.1584,-0.174381,-1.6972,-0.371462,-0.403318,-0.00379355
23,45,-1.0472,-0.698132,-0.174533,-0.174533,-1.03305,-0.688845,-0.1584,-0.174381,-1.6972,-0.371462,-0.403318,-0.00379355
23,45,-1.0472,-0.698132,-0.174533,-0.174533,-1.03305,-0.688845,-0.1584,-0.174381,-1.6972,-0.371462,-0.403318,-0.00379355
23,45,-1.0472,-0.698132,-0.174533,-0.174533,-1.03305,-0.688845,-0.1584,-0.174381,-1.6972,-0.371462,-0.403318,-0.00379355
23,45,-1.0472,-0.698132,-0.174533,-0.174533,-1.03305,-0.688845,-0.1584,-0.174381,-1.6972,-0.371462,-0.403318,-0.00379355
23,45,-1.0472,-0.698132,-0.174533,-0.174533,-1.03305,-0.688845,-0.1584,-0.174381,-1.6972,-0.371462,-0.403318,-0.00379355
23,45,-1.0472,-0.698132,-0.174533,-0.174533,-1.03305,-0.688845,-0.1584,-0.174381,-1.6972,-0.371462,-0.403318,-0.00379355
23,45,-1.0472,-0.698132,-0.174533,-0.174533,-1.03305,-0.688845,-0.1584,-0.174381,-1.6972,-0.371462,-0.403318,-0.00379355
23,45,-1.0472,-0.698132,-0.174533,-0.174533,-1.03305,-0.688845,-0.1584,-0.174381,-1.6972,-0.371462,-0.403318,-0.00379355
23,45,-1.0472,-0.698132,-0.174533,-0.174533,-1.03305,-0.688845,-0.1584,-0.174381,-1.6972,-0.371462,-0.403318,-0.00379355
23,45,-1.0472,-0.698132,-0.174533,-0.174533,-1.03305,-0.688845,-0.1584,-0.174381,-1.6972,-0.371462,-0.403318,-0.00379355
23,45,-1.0472,-0.698132,-0.174533,-0.174533,-1.03305,-0.688845,-0.1584,-0.174381,-1.6972,-0.371462,-0.403318,-0.00379355
23,45,-1.0472,-0.698132,-0.174533,-0.174533,-1.03305,-0.688845,-0.1584,-0.174381,-1.6972,-0.371462,-0.403318,-0.00379355
23,45,-1.0472,-0.698132,-0.174533,-0.174533,-1.03305,-0.688845,-0.1584,-0.174381,-1.6972,-0.371462,-0.403318,-0.00379355
23,45,-1.0472,-0.698132,-0.174533,-0.174533,-1.03305,-0.688845,-0.1584,-0.174381,-1.6972,-0.371462,-0.403318,-0.00379355
23,45,-1.0472,-0.698132,-0.174533,-0.174533,-1.03305,-0.688845,-0.1584,-0.174381,-1.6972,-0.371462,-0.403318,-0.00379355
23,45,-1.0472,-0.698132,-0.174533,-0.174533,-1.03305,-0.688845,-0.1584,-0.174381,-1.6972,-0.371462,-0.403318,-0.00379355
23,45,-1.0472,-0.698132,-0.174533,-0.174533,-1.03305,-0.688845,-0.1584,-0.174381,-1.6972,-0.371462,-0.403318,-0.00379355
23,45,-1.0472,-0.698132,-0.174533,-0.174533,-1.03305,-0.688845,-0.1584,-0.174381,-1.6972,-0.371462,-0.403318,-0.00379355
23,45,-1.0472,-0.698132,-0.174533,-0.174533,-1.03305,-0.688845,-0.1584,-0.174381,-1.6972,-0.371462,-0.403318,-0.00379355
23,45,-1.0472,-0.698132,-0.174533,-0.174533,-1.03305,-0.688845,-0.1584,-0.174381,-1.6972,-0.371462,-0.403318,-0.00379355
23,45,-1.0472,-0.698132,-0.174533,-0.174533,-1.03305,-0.688845,-0.1584,-0.174381,-1.6972,-0.371462,-0.403318,-0.00379355
23,45,-1.0472,-0.698132,-0.174533,-0.174533,-1.03305,-0.688845,-0.1584,-0.174381,-1.6972,-0.371462,-0.403318,-0.00379355
23,45,-1.0472,-0.698132,-0.174533,-0.174533,-1.03305,-0.688845,-0.1584,-0.174381,-1.6972,-0.371462,-0.403318,-0.00379355
23,45,-1.0472,-0.698132,-0.174533,-0.174533,-1.03305,-0.688845,-0.1584,-0.174381,-1.6972,-0.371462,-0.403318,-0.00379355
23,45,-1.0472,-0.698132,-0.174533,-0.174533,-1.03305,-0.688845,-0.1584,-0.174381,-1.6972,-0.371462,-0.403318,-0.00379355
23,45,-1.0472,-0.698132,-0.174533,-0.174533,-1.03305,-0.688845,-0.1584,-0.174381,-1.6972,-0.371462,-0.403318,-0.00379355
23,45,-1.0472,-0.698132,-0.174533,-0.174533,-1.03305,-0.688845,-0.1584,-0.174381,-1.6972,-0.371462,-0.403318,-0.00379355
23,45,-1.0472,-0.698132,-0.174533,-0.174533,-1.03305,-0.688845,-0.1584,-0.174381,-1.6972,-0.371462,-0.403318,-0.00379355
23,45,-1.0472,-0.698132,-0.174533,-0.174533,-1.03305,-0.688845,-0.1584,-0.174381,-1.6972,-0.371462,-0.403318,-0.00379355
23,45,-1.0472,-0.698132,-0.174533,-0.174533,-1.03305,-0.688845,-0.1584,-0.174381,-1.6972,-0.371462,-0.403318,-0.00379355
23,45,-1.0472,-0.698132,-0.174533,-0.174533,-1.03305,-0.688845,-0.1584,-0.174381,-1.6972,-0.371462,-0.403318,-0.00379355
23,45,-1.0472,-0.698132,-0.174533,-0.174533,-1.03305,-0.688845,-0.1584,-0.174381,-1.6972,-0.371462,-0.403318,-0.00379355
23,45,-1.0472,-0.698132,-0.174533,-0.174533,-1.03305,-0.688845,-0.1584,-0.174381,-1.6972,-0.371462,-0.403318,-0.00379355
23,45,-1.0472,-0.698132,-0.174533,-0.174533,-1.03305,-0.688845,-0.1584,-0.174381,-1.6972,-0.371462,-0.403318,-0.00379355
23,45,-1.0472,-0.698132,-0.174533,-0.174533,-1.03305,-0.688845,-0.1584,-0.174381,-1.6972,-0.371462,-0.403318,-0.00379355
23,45,-1.0472,-0.698132,-0.174533,-0.174533,-1.03305,-0.688845,-0.1584,-0.174381,-1.6972,-0.371462,-0.403318,-0.00379355
23,45,-1.0472,-0.698132,-0.174533,-0.174533,-1.03305,-0.688845,-0.1584,-0.174381,-1.6972,-0.371462,-0.403318,-0.00379355
23,45,-1.0472,-0.698132,-0.174533,-0.174533,-1.03305,-0.688845,-0.1584,-0.174381,-1.6972,-0.371462,-0.403318,-0.00379355
23,45,-1.0472,-0.698132,-0.174533,-0.174533,-1.03305,-0.688845,-0.1584,-0.174381,-1.6972,-0.371462,-0.403318,-0.00379355
23,45,-1.0472,-0.698132,-0.174533,-0.174533,-1.03305,-0.688845,-0.1584,-0.174381,-1.6972,-0.371462,-0.403318,-0.00379355
23,45,-1.0472,-0.698132,-0.174533,-0.174533,-1.03305,-0.688845,-0.1584,-0.174381,-1.6972,-0.371462,-0.403318,-0.00379355
23,45,-1.0472,-0.698132,-0.174533,-0.174533,-1.03305,-0.688845,-0.1584,-0.174381,-1.6972,-0.371462,-0.403318,-0.00379355
23,45,-1.0472,-0.698132,-0.174533,-0.174533,-1.03305,-0.688845,-0.1584,-0.174381,-1.6972,-0.371462,-0.403318,-0.00379355
23,45,-1.0472,-0.698132,-0.174533,-0.174533,-1.03305,-0.688845,-0.1584,-0.174381,-1.6972,-0.371462,-0.403318,-0.00379355
23,45,-1.0472,-0.698132,-0.174533,-0.174533,-1.03305,-0.688845,-0.1584,-0.174381,-1.6972,-0.371462,-0.403318,-0.00379355
23,45,-1.0472,-0.698132,-0.174533,-0.174533,-1.03305,-0.688845,-0.1584,-0.174381,-1.6972,-0.371462,-0.403318,-0.00379355
23,45,-1.0472,-0.698132,-0.174533,-0.174533,-1.03305,-0.688845,-0.1584,-0.174381,-1.6972,-0.371462,-0.403318,-0.00379355
23,45,-1.0472,-0.698132,-0.174533,-0.174533,-1.03305,-0.688845,-0.1584,-0.174381,-1.6972,-0.371462,-0.403318,-0.00379355
23,45,-1.0472,-0.698132,-0.174533,-0.174533,-1.03305,-0.688845,-0.1584,-0.174381,-1.6972,-0.371462,-0.403318,-0.00379355
23,45,-1.0472,-0.698132,-0.174533,-0.174533,-1.03305,-0.688845,-0.1584,-0.174381,-1.6972,-0.371462,-0.403318,-0.00379355
23,45,-1.0472,-0.698132,-0.174533,-0.174533,-1.03305,-0.688845,-0.15846,-0.174361,-1.6972,-0.371462,-0.401829,-0.00428622
23,45,-1.0472,-0.698132,-0.174533,-0.174533,-1.03305,-0.688845,-0.15846,-0.174361,-1.6972,-0.371462,-0.401829,-0.00428622
23,45,-1.0472,-0.698132,-0.174533,-0.174533,-1.03305,-0.688845,-0.15846,-0.174361,-1.6972,-0.371462,-0.401829,-0.00428622
23,45,-1.0472,-0.698132,-0.174533,-0.174533,-1.03305,-0.688845,-0.15846,-0.174361,-1.6972,-0.371462,-0.401829,-0.00428622
23,45,-1.0472,-0.698132,-0.174533,-0.174533,-1.03305,-0.688845,-0.15846,-0.174361,-1.6972,-0.371462,-0.401829,-0.00428622
23,45,-1.0472,-0.698132,-0.174533,-0.174533,-1.03305,-0.688845,-0.15846,-0.174361,-1.6972,-0.371462,-0.401829,-0.00428622
23,45,-1.0472,-0.698132,-0.174533,-0.174533,-1.03305,-0.688845,-0.15846,-0.174361,-1.6972,-0.371462,-0.401829,-0.00428622
23,45,-1.0472,-0.698132,-0.174533,-0.174533,-1.03305,-0.688845,-0.15846,-0.174361,-1.6972,-0.371462,-0.401829,-0.00428622
23,45,-1.0472,-0.698132,-0.174533,-0.174533,-1.03305,-0.688845,-0.15846,-0.174361,-1.6972,-0.371462,-0.401829,-0.00428622
23,45,-1.0472,-0.698132,-0.174533,-0.174533,-1.03305,-0.688845,-0.15846,-0.174361,-1.6972,-0.371462,-0.401829,-0.00428622
23,45,-1.0472,-0.698132,-0.174533,-0.174533,-1.03305,-0.688845,-0.15846,-0.174361,-1.6972,-0.371462,-0.401829,-0.00428622
23,45,-1.0472,-0.698132,-0.174533,-0.174533,-1.03305,-0.688845,-0.15846,-0.174361,-1.6972,-0.371462,-0.401829,-0.00428622
23,45,-1.0472,-0.698132,-0.174533,-0.174533,-1.03305,-0.688845,-0.15846,-0.174361,-1.6972,-0.371462,-0.401829,-0.00428622
23,45,-1.0472,-0.698132,-0.174533,-0.174533,-1.03305,-0.688845,-0.15846,-0.174361,-1.6972,-0.371462,-0.401829,-0.00428622
23,45,-1.0472,-0.698132,-0.174533,-0.174533,-1.03305,-0.688845,-0.15846,-0.174361,-1.6972,-0.371462,-0.401829,-0.00428622
23,45,-1.0472,-0.698132,-0.174533,-0.174533,-1.03305,-0.688845,-0.15846,-0.174361,-1.6972,-0.371462,-0.401829,-0.00428622
23,45,-1.0472,-0.698132,-0.174533,-0.174533,-1.03305,-0.688845,-0.15846,-0.174361,-1.6972,-0.371462,-0.401829,-0.00428622
23,45,-1.0472,-0.698132,-0.174533,-0.174533,-1.03305,-0.688845,-0.15846,-0.174361,-1.6972,-0.371462,-0.401829,-0.00428622
23,45,-1.0472,-0.698132,-0.174533,-0.174533,-1.03305,-0.688845,-0.15846,-0.174361,-1.6972,-0.371462,-0.401829,-0.00428622
23,45,-1.0472,-0.698132,-0.174533,-0.174533,-1.03305,-0.688845,-0.15846,-0.174361,-1.6972,-0.371462,-0.401829,-0.00428622
23,45,-1.0472,-0.698132,-0.174533,-0.174533,-1.03305,-0.688845,-0.15846,-0.174361,-1.6972,-0.371462,-0.401829,-0.00428622
23,45,-1.0472,-0.698132,-0.174533,-0.174533,-1.03305,-0.688845,-0.15846,-0.174361,-1.6972,-0.371462,-0.401829,-0.00428622
23,45,-1.0472,-0.698132,-0.174533,-0.174533,-1.03305,-0.688845,-0.15846,-0.174361,-1.6972,-0.371462,-0.401829,-0.00428622
23,45,-1.0472,-0.698132,-0.174533,-0.174533,-1.03305,-0.688845,-0.15846,-0.174361,-1.6972,-0.371462,-0.401829,-0.00428622
23,45,-1.0472,-0.698132,-0.174533,-0.174533,-1.03305,-0.688845,-0.15846,-0.174361,-1.6972,-0.371462,-0.401829,-0.00428622
23,45,-1.0472,-0.698132,-0.174533,-0.174533,-1.03305,-0.688845,-0.15846,-0.174361,-1.6972,-0.371462,-0.401829,-0.00428622
23,45,-1.0472,-0.698132,-0.174533,-0.174533,-1.03305,-0.688845,-0.15846,-0.174361,-1.6972,-0.371462,-0.401829,-0.00428622
23,45,-1.0472,-0.698132,-0.174533,-0.174533,-1.03305,-0.688845,-0.15846,-0.174361,-1.6972,-0.371462,-0.401829,-0.00428622
23,45,-1.0472,-0.698132,-0.174533,-0.174533,-1.03305,-0.688845,-0.15846,-0.174361,-1.6972,-0.371462,-0.401829,-0.00428622
23,45,-1.0472,-0.698132,-0.174533,-0.174533,-1.03305,-0.688845,-0.15846,-0.174361,-1.6972,-0.371462,-0.401829,-0.00428622
23,45,-1.0472,-0.698132,-0.174533,-0.174533,-1.03305,-0.688845,-0.15846,-0.174361,-1.6972,-0.371462,-0.401829,-0.00428622
23,45,-1.0472,-0.698132,-0.174533,-0.174533,-1.03305,-0.688845,-0.15846,-0.174361,-1.6972,-0.371462,-0.401829,-0.00428622
23,45,-1.0472,-0.698132,-0.174533,-0.174533,-1.03305,-0.688845,-0.15846,-0.174361,-1.6972,-0.371462,-0.401829,-0.00428622
23,45,-1.0472,-0.698132,-0.174533,-0.174533,-1.03305,-0.688845,-0.15846,-0.174361,-1.6972,-0.371462,-0.401829,-0.00428622
23,45,-1.0472,-0.698132,-0.174533,-0.174533,-1.03305,-0.688845,-0.15846,-0.174361,-1.6972,-0.371462,-0.401829,-0.00428622
23,45,-1.0472,-0.698132,-0.174533,-0.174533,-1.03305,-0.688845,-0.15846,-0.174361,-1.6972,-0.371462,-0.401829,-0.00428622
23,45,-1.0472,-0.698132,-0.174533,-0.174533,-1.03305,-0.688845,-0.15846,-0.174361,-1.6972,-0.371462,-0.401829,-0.00428622
23,45,-1.0472,-0.698132,-0.174533,-0.174533,-1.03305,-0.688845,-0.15846,-0.174361,-1.6972,-0.371462,-0.401829,-0.00428622
23,45,-1.0472,-0.698132,-0.174533,-0.174533,-1.03305,-0.688845,-0.15846,-0.174361,-1.6972,-0.371462,-0.401829,-0.00428622
23,45,-1.0472,-0.698132,-0.174533,-0.174533,-1.03305,-0.688845,-0.15846,-0.174361,-1.6972,-0.371462,-0.401829,-0.00428622
23,45,-1.0472,-0.698132,-0.174533,-0.174533,-1.03305,-0.688794,-0.15846,-0.174361,-1.6972,-0.373496,-0.401829,-0.00428622
23,45,-1.0472,-0.698132,-0.174533,-0.174533,-1.03305,-0.688794,-0.15846,-0.174361,-1.6972,-0.373496,-0.401829,-0.00428622
23,45,-1.0472,-0.698132,-0.174533,-0.174533,-1.03305,-0.688794,-0.15846,-0.174361,-1.6972,-0.373496,-0.401829,-0.00428622
23,45,-1.0472,-0.698132,-0.174533,-0.174533,-1.03305,-0.688794,-0.15846,-0.174361,-1.6972,-0.373496,-0.401829,-0.00428622
23,45,-1.0472,-0.698132,-0.174533,-0.174533,-1.03305,-0.688794,-0.15846,-0.174361,-1.6972,-0.373496,-0.401829,-0.00428622
23,45,-1.0472,-0.698132,-0.174533,-0.174533,-1.03305,-0.688794,-0.15846,-0.174361,-1.6972,-0.373496,-0.401829,-0.00428622
23,45,-1.0472,-0.698132,-0.174533,-0.174533,-1.03305,-0.688794,-0.15846,-0.174361,-1.6972,-0.373496,-0.401829,-0.00428622
23,45,-1.0472,-0.698132,-0.174533,-0.174533,-1.03305,-0.688794,-0.15846,-0.174361,-1.6972,-0.373496,-0.401829,-0.00428622
23,45,-1.0472,-0.698132,-0.174533,-0.174533,-1.03305,-0.688794,-0.15846,-0.174361,-1.6972,-0.373496,-0.401829,-0.00428622
23,45,-1.0472,-0.698132,-0.174533,-0.174533,-1.03305,-0.688794,-0.15846,-0.174361,-1.6972,-0.373496,-0.401829,-0.00428622
23,45,-1.0472,-0.698132,-0.174533,-0.174533,-1.03305,-0.688794,-0.15846,-0.174361,-1.6972,-0.373496,-0.401829,-0.00428622
23,45,-1.0472,-0.698132,-0.174533,-0.174533,-1.03305,-0.688794,-0.15846,-0.174361,-1.6972,-0.373496,-0.401829,-0.00428622
23,45,-1.0472,-0.698132,-0.174533,-0.174533,-1.03305,-0.688794,-0.15846,-0.174361,-1.6972,-0.373496,-0.401829,-0.00428622
23,45,-1.0472,-0.698132,-0.174533,-0.174533,-1.03305,-0.688794,-0.15846,-0.174361,-1.6972,-0.373496,-0.401829,-0.00428622
23,45,-1.0472,-0.698132,-0.174533,-0.174533,-1.03305,-0.688794,-0.15846,-0.174361,-1.6972,-0.373496,-0.401829,-0.00428622
23,45,-1.0472,-0.698132,-0.174533,-0.174533,-1.03305,-0.688794,-0.15846,-0.174361,-1.6972,-0.373496,-0.401829,-0.00428622
23,45,-1.0472,-0.698132,-0.174533,-0.174533,-1.03305,-0.688794,-0.15846,-0.174361,-1.6972,-0.373496,-0.401829,-0.00428622
23,45,-1.0472,-0.698132,-0.174533,-0.174533,-1.03305,-0.688794,-0.15846,-0.174361,-1.6972,-0.373496,-0.401829,-0.00428622
23,45,-1.0472,-0.698132,-0.174533,-0.174533,-1.03305,-0.688794,-0.15846,-0.174361,-1.6972,-0.373496,-0.401829,-0.00428622
23,45,-1.0472,-0.698132,-0.174533,-0.174533,-1.03305,-0.688794,-0.15846,-0.174361,-1.6972,-0.373496,-0.401829,-0.00428622
23,45,-1.0472,-0.698132,-0.174533,-0.174533,-1.03305,-0.688794,-0.15846,-0.174361,-1.6972,-0.373496,-0.401829,-0.00428622
23,45,-1.0472,-0.698132,-0.174533,-0.174533,-1.03305,-0.688794,-0.15846,-0.174361,-1.6972,-0.373496,-0.401829,-0.00428622
23,45,-1.0472,-0.698132,-0.174533,-0.174533,-1.03305,-0.688794,-0.15846,-0.174361,-1.6972,-0.373496,-0.401829,-0.00428622
23,45,-1.0472,-0.698132,-0.174533,-0.174533,-1.03305,-0.688794,-0.15846,-0.174361,-1.6972,-0.373496,-0.401829,-0.00428622
23,45,-1.0472,-0.698132,-0.174533,-0.174533,-1.03305,-0.688794,-0.15846,-0.174361,-1.6972,-0.373496,-0.401829,-0.00428622
23,45,-1.0472,-0.698132,-0.174533,-0.174533,-1.03305,-0.688794,-0.15846,-0.174361,-1.6972,-0.373496,-0.401829,-0.00428622
23,45,-1.0472,-0.698132,-0.174533,-0.174533,-1.03305,-0.688794,-0.15846,-0.174361,-1.6972,-0.373496,-0.401829,-0.00428622
23,45,-1.0472,-0.698132,-0.174533,-0.174533,-1.03305,-0.688794,-0.15846,-0.174361,-1.6972,-0.373496,-0.401829,-0.00428622
23,45,-1.0472,-0.698132,-0.174533,-0.174533,-1.03305,-0.688794,-0.15846,-0.174361,-1.6972,-0.373496,-0.401829,-0.00428622
23,45,-1.0472,-0.698132,-0.174533,-0.174533,-1.03305,-0.688794,-0.15846,-0.174361,-1.6972,-0.373496,-0.401829,-0.00428622
23,45,-1.0472,-0.698132,-0.174533,-0.174533,-1.03305,-0.688794,-0.15846,-0.174361,-1.6972,-0.373496,-0.401829,-0.00428622
23,45,-1.0472,-0.698132,-0.174533,-0.174533,-1.03305,-0.688794,-0.15846,-0.174361,-1.6972,-0.373496,-0.401829,-0.00428622
23,45,-1.0472,-0.698132,-0.174533,-0.174533,-1.03305,-0.688794,-0.15846,-0.174361,-1.6972,-0.373496,-0.401829,-0.00428622
23,45,-1.0472,-0.698132,-0.174533,-0.174533,-1.03305,-0.688794,-0.15846,-0.174361,-1.6972,-0.373496,-0.401829,-0.00428622
23,45,-1.0472,-0.698132,-0.174533,-0.174533,-1.03305,-0.688794,-0.15846,-0.174361,-1.6972,-0.373496,-0.401829,-0.00428622
23,45,-1.0472,-0.698132,-0.174533,-0.174533,-1.03305,-0.688794,-0.15846,-0.174361,-1.6972,-0.373496,-0.401829,-0.00428622
23,45,-1.0472,-0.698132,-0.174533,-0.174533,-1.03305,-0.688794,-0.15846,-0.174361,-1.6972,-0.373496,-0.401829,-0.00428622
23,45,-1.0472,-0.698132,-0.174533,-0.174533,-1.03305,-0.688794,-0.15846,-0.174361,-1.6972,-0.373496,-0.401829,-0.00428622
23,45,-1.0472,-0.698132,-0.174533,-0.174533,-1.03305,-0.688794,-0.15846,-0.174361,-1.6972,-0.373496,-0.401829,-0.00428622
23,45,-1.0472,-0.698132,-0.174533,-0.174533,-1.03305,-0.688794,-0.15846,-0.174361,-1.6972,-0.373496,-0.401829,-0.00428622
23,45,-1.0472,-0.698132,-0.174533,-0.174533,-1.03305,-0.688794,-0.15846,-0.174361,-1.6972,-0.373496,-0.401829,-0.00428622
23,45,-1.0472,-0.698132,-0.174533,-0.174533,-1.03305,-0.688794,-0.15846,-0.174361,-1.6972,-0.373496,-0.401829,-0.00428622
23,45,-1.0472,-0.698132,-0.174533,-0.174533,-1.03305,-0.688794,-0.15846,-0.174361,-1.6972,-0.373496,-0.401829,-0.00428622
23,45,-1.0472,-0.698132,-0.174533,-0.174533,-1.03305,-0.688794,-0.15846,-0.174361,-1.6972,-0.373496,-0.401829,-0.00428622
23,45,-1.0472,-0.698132,-0.174533,-0.174533,-1.03305,-0.688794,-0.15846,-0.174361,-1.6972,-0.373496,-0.401829,-0.00428622
23,45,-1.0472,-0.698132,-0.174533,-0.174533,-1.03305,-0.688794,-0.15846,-0.174361,-1.6972,-0.373496,-0.401829,-0.00428622
23,45,-1.0472,-0.698132,-0.174533,-0.174533,-1.03305,-0.688794,-0.15846,-0.174361,-1.6972,-0.373496,-0.401829,-0.00428622
23,45,-1.0472,-0.698132,-0.174533,-0.174533,-1.03305,-0.688794,-0.15846,-0.174361,-1.6972,-0.373496,-0.401829,-0.00428622
23,45,-1.0472,-0.698132,-0.174533,-0.174533,-1.03305,-0.688794,-0.15846,-0.174361,-1.6972,-0.373496,-0.401829,-0.00428622
23,45,-1.0472,-0.698132,-0.174533,-0.174533,-1.03305,-0.688794,-0.158458,-0.174302,-1.6972,-0.373496,-0.401883,-0.00577384
23,45,-1.0472,-0.698132,-0.174533,-0.174533,-1.03305,-0.688794,-0.158458,-0.174302,-1.6972,-0.373496,-0.401883,-0.00577384
23,45,-1.0472,-0.698132,-0.174533,-0.174533,-1.03305,-0.688794,-0.158458,-0.174302,-1.6972,-0.373496,-0.401883,-0.00577384
23,45,-1.0472,-0.698132,-0.174533,-0.174533,-1.03305,-0.688794,-0.158458,-0.174302,-1.6972,-0.373496,-0.401883,-0.00577384
23,45,-1.0472,-0.698132,-0.174533,-0.174533,-1.03305,-0.688794,-0.158458,-0.174302,-1.6972,-0.373496,-0.401883,-0.00577384
23,45,-1.0472,-0.698132,-0.174533,-0.174533,-1.03305,-0.688794,-0.158458,-0.174302,-1.6972,-0.373496,-0.401883,-0.00577384
23,45,-1.0472,-0.698132,-0.174533,-0.174533,-1.03305,-0.688794,-0.158458,-0.174302,-1.6972,-0.373496,-0.401883,-0.00577384
23,45,-1.0472,-0.698132,-0.174533,-0.174533,-1.03305,-0.688794,-0.158458,-0.174302,-1.6972,-0.373496,-0.401883,-0.00577384
23,45,-1.0472,-0.698132,-0.174533,-0.174533,-1.03305,-0.688794,-0.158458,-0.174302,-1.6972,-0.373496,-0.401883,-0.00577384
23,45,-1.0472,-0.698132,-0.174533,-0.174533,-1.03305,-0.688794,-0.158458,-0.174302,-1.6972,-0.373496,-0.401883,-0.00577384
23,45,-1.0472,-0.698132,-0.174533,-0.174533,-1.03305,-0.688794,-0.158458,-0.174302,-1.6972,-0.373496,-0.401883,-0.00577384
23,45,-1.0472,-0.698132,-0.174533,-0.174533,-1.03305,-0.688794,-0.158458,-0.174302,-1.6972,-0.373496,-0.401883,-0.00577384
23,45,-1.0472,-0.698132,-0.174533,-0.174533,-1.03305,-0.688794,-0.158458,-0.174302,-1.6972,-0.373496,-0.401883,-0.00577384
23,45,-1.0472,-0.698132,-0.174533,-0.174533,-1.03305,-0.688794,-0.158458,-0.174302,-1.6972,-0.373496,-0.401883,-0.00577384
23,45,-1.0472,-0.698132,-0.174533,-0.174533,-1.03305,-0.688794,-0.158458,-0.174302,-1.6972,-0.373496,-0.401883,-0.00577384
23,45,-1.0472,-0.698132,-0.174533,-0.174533,-1.03305,-0.688794,-0.158458,-0.174302,-1.6972,-0.373496,-0.401883,-0.00577384
23,45,-1.0472,-0.698132,-0.174533,-0.174533,-1.03305,-0.688794,-0.158458,-0.174302,-1.6972,-0.373496,-0.401883,-0.00577384
23,45,-1.0472,-0.698132,-0.174533,-0.174533,-1.03305,-0.688794,-0.158458,-0.174302,-1.6972,-0.373496,-0.401883,-0.00577384
23,45,-1.0472,-0.698132,-0.174533,-0.174533,-1.03305,-0.688794,-0.158458,-0.174302,-1.6972,-0.373496,-0.401883,-0.00577384
23,45,-1.0472,-0.698132,-0.174533,-0.174533,-1.03305,-0.688794,-0.158458,-0.174302,-1.6972,-0.373496,-0.401883,-0.00577384
23,45,-1.0472,-0.698132,-0.174533,-0.174533,-1.03305,-0.688794,-0.158458,-0.174302,-1.6972,-0.373496,-0.401883,-0.00577384
23,45,-1.0472,-0.698132,-0.174533,-0.174533,-1.03305,-0.688794,-0.158458,-0.174302,-1.6972,-0.373496,-0.401883,-0.00577384
23,45,-1.0472,-0.698132,-0.174533,-0.174533,-1.03305,-0.688794,-0.158458,-0.174302,-1.6972,-0.373496,-0.401883,-0.00577384
23,45,-1.0472,-0.698132,-0.174533,-0.174533,-1.03305,-0.688794,-0.158458,-0.174302,-1.6972,-0.373496,-0.401883,-0.00577384
23,45,-1.0472,-0.698132,-0.174533,-0.174533,-1.03305,-0.688794,-0.158458,-0.174302,-1.6972,-0.373496,-0.401883,-0.00577384
23,45,-1.0472,-0.698132,-0.174533,-0.174533,-1.03305,-0.688794,-0.158458,-0.174302,-1.6972,-0.373496,-0.401883,-0.00577384
23,45,-1.0472,-0.698132,-0.174533,-0.174533,-1.03305,-0.688794,-0.158458,-0.174302,-1.6972,-0.373496,-0.401883,-0.00577384
23,45,-1.0472,-0.698132,-0.174533,-0.174533,-1.03305,-0.688794,-0.158458,-0.174302,-1.6972,-0.373496,-0.401883,-0.00577384
23,45,-1.0472,-0.698132,-0.174533,-0.174533,-1.03305,-0.688794,-0.158458,-0.174302,-1.6972,-0.373496,-0.401883,-0.00577384
23,45,-1.0472,-0.698132,-0.174533,-0.174533,-1.03305,-0.688794,-0.158458,-0.174302,-1.6972,-0.373496,-0.401883,-0.00577384
23,45,-1.0472,-0.698132,-0.174533,-0.174533,-1.03305,-0.688794,-0.158458,-0.174302,-1.6972,-0.373496,-0.401883,-0.00577384
23,45,-1.0472,-0.698132,-0.174533,-0.174533,-1.03305,-0.688794,-0.158458,-0.174302,-1.6972,-0.373496,-0.401883,-0.00577384
23,45,-1.0472,-0.698132,-0.174533,-0.174533,-1.03305,-0.688794,-0.158458,-0.174302,-1.6972,-0.373496,-0.401883,-0.00577384
23,45,-1.0472,-0.698132,-0.174533,-0.174533,-1.03305,-0.688794,-0.158458,-0.174302,-1.6972,-0.373496,-0.401883,-0.00577384
23,45,-1.0472,-0.698132,-0.174533,-0.174533,-1.03305,-0.688794,-0.158458,-0.174302,-1.6972,-0.373496,-0.401883,-0.00577384
23,45,-1.0472,-0.698132,-0.174533,-0.174533,-1.03305,-0.688794,-0.158458,-0.174302,-1.6972,-0.373496,-0.401883,-0.00577384
23,45,-1.0472,-0.698132,-0.174533,-0.174533,-1.03305,-0.688794,-0.158458,-0.174302,-1.6972,-0.373496,-0.401883,-0.00577384
23,45,-1.0472,-0.698132,-0.174533,-0.174533,-1.03305,-0.688794,-0.158458,-0.174302,-1.6972,-0.373496,-0.401883,-0.00577384
23,45,-1.0472,-0.698132,-0.174533,-0.174533,-1.03305,-0.688794,-0.158458,-0.174302,-1.6972,-0.373496,-0.401883,-0.00577384
23,45,-1.0472,-0.698132,-0.174533,-0.174533,-1.03305,-0.688794,-0.158458,-0.174302,-1.6972,-0.373496,-0.401883,-0.00577384
23,45,-1.0472,-0.698132,-0.174533,-0.174533,-1.03305,-0.688794,-0.158458,-0.174302,-1.6972,-0.373496,-0.401883,-0.00577384
23,45,-1.0472,-0.698132,-0.174533,-0.174533,-1.03305,-0.688794,-0.158458,-0.174302,-1.6972,-0.373496,-0.401883,-0.00577384
23,45,-1.0472,-0.698132,-0.174533,-0.174533,-1.03305,-0.688794,-0.158458,-0.174302,-1.6972,-0.373496,-0.401883,-0.00577384
23,45,-1.0472,-0.698132,-0.174533,-0.174533,-1.03305,-0.688794,-0.158458,-0.174302,-1.6972,-0.373496,-0.401883,-0.00577384
23,45,-1.0472,-0.698132,-0.174533,-0.174533,-1.03305,-0.688794,-0.158458,-0.174302,-1.6972,-0.373496,-0.401883,-0.00577384
23,45,-1.0472,-0.698132,-0.174533,-0.174533,-1.03305,-0.688794,-0.158458,-0.174302,-1.6972,-0.373496,-0.401883,-0.00577384
23,45,-1.0472,-0.698132,-0.174533,-0.174533,-1.03305,-0.688794,-0.158458,-0.174302,-1.6972,-0.373496,-0.401883,-0.00577384
23,45,-1.0472,-0.698132,-0.174533,-0.174533,-1.03305,-0.688794,-0.158458,-0.174302,-1.6972,-0.373496,-0.401883,-0.00577384
23,45,-1.0472,-0.698132,-0.174533,-0.174533,-1.03305,-0.688794,-0.158458,-0.174302,-1.6972,-0.373496,-0.401883,-0.00577384
23,45,-1.0472,-0.698132,-0.174533,-0.174533,-1.03305,-0.688794,-0.158458,-0.174302,-1.6972,-0.373496,-0.401883,-0.00577384
23,45,-1.0472,-0.698132,-0.174533,-0.174533,-1.03305,-0.688794,-0.158458,-0.174302,-1.6972,-0.373496,-0.401883,-0.00577384
23,45,-1.0472,-0.698132,-0.174533,-0.174533,-1.03305,-0.688794,-0.158458,-0.174302,-1.6972,-0.373496,-0.401883,-0.00577384
23,45,-1.0472,-0.698132,-0.174533,-0.174533,-1.03305,-0.688794,-0.158458,-0.174302,-1.6972,-0.373496,-0.401883,-0.00577384
23,45,-1.0472,-0.698132,-0.174533,-0.174533,-1.03305,-0.688794,-0.158458,-0.174302,-1.6972,-0.373496,-0.401883,-0.00577384
23,45,-1.0472,-0.698132,-0.174533,-0.174533,-1.03305,-0.688794,-0.158458,-0.174302,-1.6972,-0.373496,-0.401883,-0.00577384
23,45,-1.0472,-0.698132,-0.174533,-0.174533,-1.03305,-0.688794,-0.158458,-0.174302,-1.6972,-0.373496,-0.401883,-0.00577384
23,45,-1.0472,-0.698132,-0.174533,-0.174533,-1.03305,-0.688794,-0.158458,-0.174302,-1.6972,-0.373496,-0.401883,-0.00577384
23,45,-1.0472,-0.698132,-0.174533,-0.174533,-1.03305,-0.688794,-0.158458,-0.174302,-1.6972,-0.373496,-0.401883,-0.00577384
23,45,-1.0472,-0.698132,-0.174533,-0.174533,-1.03305,-0.688794,-0.158458,-0.174302,-1.6972,-0.373496,-0.401883,-0.00577384
23,45,-1.0472,-0.698132,-0.174533,-0.174533,-1.03305,-0.688794,-0.158458,-0.174302,-1.6972,-0.373496,-0.401883,-0.00577384
23,45,-1.0472,-0.698132,-0.174533,-0.174533,-1.03305,-0.688794,-0.158458,-0.174302,-1.6972,-0.373496,-0.401883,-0.00577384
23,45,-1.0472,-0.698132,-0.174533,-0.174533,-1.03305,-0.688794,-0.158517,-0.174282,-1.6972,-0.373496,-0.400395,-0.00626651
23,45,-1.0472,-0.698132,-0.174533,-0.174533,-1.03305,-0.688794,-0.158517,-0.174282,-1.6972,-0.373496,-0.400395,-0.00626651
23,45,-1.0472,-0.698132,-0.174533,-0.174533,-1.03305,-0.688794,-0.158517,-0.174282,-1.6972,-0.373496,-0.400395,-0.00626651
23,45,-1.0472,-0.698132,-0.174533,-0.174533,-1.03305,-0.688794,-0.158517,-0.174282,-1.6972,-0.373496,-0.400395,-0.00626651
23,45,-1.0472,-0.698132,-0.174533,-0.174533,-1.03305,-0.688794,-0.158517,-0.174282,-1.6972,-0.373496,-0.400395,-0.00626651
23,45,-1.0472,-0.698132,-0.174533,-0.174533,-1.03305,-0.688794,-0.158517,-0.174282,-1.6972,-0.373496,-0.400395,-0.00626651
23,45,-1.0472,-0.698132,-0.174533,-0.174533,-1.03305,-0.688794,-0.158517,-0.174282,-1.6972,-0.373496,-0.400395,-0.00626651
23,45,-1.0472,-0.698132,-0.174533,-0.174533,-1.03305,-0.688794,-0.158517,-0.174282,-1.6972,-0.373496,-0.400395,-0.00626651
23,45,-1.0472,-0.698132,-0.174533,-0.174533,-1.03305,-0.688794,-0.158517,-0.174282,-1.6972,-0.373496,-0.400395,-0.00626651
23,45,-1.0472,-0.698132,-0.174533,-0.174533,-1.03305,-0.688794,-0.158517,-0.174282,-1.6972,-0.373496,-0.400395,-0.00626651
23,45,-1.0472,-0.698132,-0.174533,-0.174533,-1.03305,-0.688794,-0.158517,-0.174282,-1.6972,-0.373496,-0.400395,-0.00626651
23,45,-1.0472,-0.698132,-0.174533,-0.174533,-1.03305,-0.688743,-0.158517,-0.174282,-1.6972,-0.37553,-0.400395,-0.00626651
23,45,-1.0472,-0.698132,-0.174533,-0.174533,-1.03305,-0.688743,-0.158517,-0.174282,-1.6972,-0.37553,-0.400395,-0.00626651
23,45,-1.0472,-0.698132,-0.174533,-0.174533,-1.03305,-0.688743,-0.158517,-0.174282,-1.6972,-0.37553,-0.400395,-0.00626651
23,45,-1.0472,-0.698132,-0.174533,-0.174533,-1.03305,-0.688743,-0.158517,-0.174282,-1.6972,-0.37553,-0.400395,-0.00626651
23,45,-1.0472,-0.698132,-0.174533,-0.174533,-1.03305,-0.688743,-0.158517,-0.174282,-1.6972,-0.37553,-0.400395,-0.00626651
23,45,-1.0472,-0.698132,-0.174533,-0.174533,-1.03305,-0.688743,-0.158517,-0.174282,-1.6972,-0.37553,-0.400395,-0.00626651
23,45,-1.0472,-0.698132,-0.174533,-0.174533,-1.03305,-0.688743,-0.158517,-0.174282,-1.6972,-0.37553,-0.400395,-0.00626651
23,45,-1.0472,-0.698132,-0.174533,-0.174533,-1.03305,-0.688743,-0.158517,-0.174282,-1.6972,-0.37553,-0.400395,-0.00626651
23,45,-1.0472,-0.698132,-0.174533,-0.174533,-1.03305,-0.688743,-0.158517,-0.174282,-1.6972,-0.37553,-0.400395,-0.00626651
23,45,-1.0472,-0.698132,-0.174533,-0.174533,-1.03305,-0.688743,-0.158517,-0.174282,-1.6972,-0.37553,-0.400395,-0.00626651
23,45,-1.0472,-0.698132,-0.174533,-0.174533,-1.03305,-0.688743,-0.158517,-0.174282,-1.6972,-0.37553,-0.400395,-0.00626651
23,45,-1.0472,-0.698132,-0.174533,-0.174533,-1.03305,-0.688743,-0.158517,-0.174282,-1.6972,-0.37553,-0.400395,-0.00626651
23,45,-1.0472,-0.698132,-0.174533,-0.174533,-1.03305,-0.688743,-0.158517,-0.174282,-1.6972,-0.37553,-0.400395,-0.00626651
23,45,-1.0472,-0.698132,-0.174533,-0.174533,-1.03305,-0.688743,-0.158517,-0.174282,-1.6972,-0.37553,-0.400395,-0.00626651
23,45,-1.0472,-0.698132,-0.174533,-0.174533,-1.03305,-0.688743,-0.158517,-0.174282,-1.6972,-0.37553,-0.400395,-0.00626651
23,45,-1.0472,-0.698132,-0.174533,-0.174533,-1.03305,-0.688743,-0.158517,-0.174282,-1.6972,-0.37553,-0.400395,-0.00626651
23,45,-1.0472,-0.698132,-0.174533,-0.174533,-1.03305,-0.688743,-0.158517,-0.174282,-1.6972,-0.37553,-0.400395,-0.00626651
23,45,-1.0472,-0.698132,-0.174533,-0.174533,-1.03305,-0.688743,-0.158517,-0.174282,-1.6972,-0.37553,-0.400395,-0.00626651
23,45,-1.0472,-0.698132,-0.174533,-0.174533,-1.03305,-0.688743,-0.158517,-0.174282,-1.6972,-0.37553,-0.400395,-0.00626651
23,45,-1.0472,-0.698132,-0.174533,-0.174533,-1.03305,-0.688743,-0.158517,-0.174282,-1.6972,-0.37553,-0.400395,-0.00626651
23,45,-1.0472,-0.698132,-0.174533,-0.174533,-1.03305,-0.688743,-0.158517,-0.174282,-1.6972,-0.37553,-0.400395,-0.00626651
23,45,-1.0472,-0.698132,-0.174533,-0.174533,-1.03305,-0.688743,-0.158517,-0.174282,-1.6972,-0.37553,-0.400395,-0.00626651
23,45,-1.0472,-0.698132,-0.174533,-0.174533,-1.03305,-0.688743,-0.158517,-0.174282,-1.6972,-0.37553,-0.400395,-0.00626651
23,45,-1.0472,-0.698132,-0.174533,-0.174533,-1.03305,-0.688743,-0.158517,-0.174282,-1.6972,-0.37553,-0.400395,-0.00626651
23,45,-1.0472,-0.698132,-0.174533,-0.174533,-1.03305,-0.688743,-0.158517,-0.174282,-1.6972,-0.37553,-0.400395,-0.00626651
23,45,-1.0472,-0.698132,-0.174533,-0.174533,-1.03305,-0.688743,-0.158517,-0.174282,-1.6972,-0.37553,-0.400395,-0.00626651
23,45,-1.0472,-0.698132,-0.174533,-0.174533,-1.03305,-0.688743,-0.158517,-0.174282,-1.6972,-0.37553,-0.400395,-0.00626651
23,45,-1.0472,-0.698132,-0.174533,-0.174533,-1.03305,-0.688743,-0.158517,-0.174282,-1.6972,-0.37553,-0.400395,-0.00626651
23,45,-1.0472,-0.698132,-0.174533,-0.174533,-1.03305,-0.688743,-0.158517,-0.174282,-1.6972,-0.37553,-0.400395,-0.00626651
23,45,-1.0472,-0.698132,-0.174533,-0.174533,-1.03305,-0.688743,-0.158517,-0.174282,-1.6972,-0.37553,-0.400395,-0.00626651
23,45,-1.0472,-0.698132,-0.174533,-0.174533,-1.03305,-0.688743,-0.158577,-0.174263,-1.6972,-0.37553,-0.398906,-0.00675915
23,45,-1.0472,-0.698132,-0.174533,-0.174533,-1.03305,-0.688743,-0.158577,-0.174263,-1.6972,-0.37553,-0.398906,-0.00675915
23,45,-1.0472,-0.698132,-0.174533,-0.174533,-1.03305,-0.688743,-0.158577,-0.174263,-1.6972,-0.37553,-0.398906,-0.00675915
23,45,-1.0472,-0.698132,-0.174533,-0.174533,-1.03305,-0.688743,-0.158577,-0.174263,-1.6972,-0.37553,-0.398906,-0.00675915
23,45,-1.0472,-0.698132,-0.174533,-0.174533,-1.03305,-0.688743,-0.158577,-0.174263,-1.6972,-0.37553,-0.398906,-0.00675915
23,45,-1.0472,-0.698132,-0.174533,-0.174533,-1.03305,-0.688743,-0.158577,-0.174263,-1.6972,-0.37553,-0.398906,-0.00675915
23,45,-1.0472,-0.698132,-0.174533,-0.174533,-1.03305,-0.688743,-0.158577,-0.174263,-1.6972,-0.37553,-0.398906,-0.00675915
23,45,-1.0472,-0.698132,-0.174533,-0.174533,-1.03305,-0.688743,-0.158577,-0.174263,-1.6972,-0.37553,-0.398906,-0.00675915
23,45,-1.0472,-0.698132,-0.174533,-0.174533,-1.03305,-0.688743,-0.158634,-0.174183,-1.6972,-0.37553,-0.397472,-0.00873947
23,45,-1.0472,-0.698132,-0.174533,-0.174533,-1.03305,-0.688743,-0.158634,-0.174183,-1.6972,-0.37553,-0.397472,-0.00873947
23,45,-1.0472,-0.698132,-0.174533,-0.174533,-1.03305,-0.688743,-0.158634,-0.174183,-1.6972,-0.37553,-0.397472,-0.00873947
23,45,-1.0472,-0.698132,-0.174533,-0.174533,-1.03305,-0.688743,-0.158634,-0.174183,-1.6972,-0.37553,-0.397472,-0.00873947
23,45,-1.0472,-0.698132,-0.174533,-0.174533,-1.03305,-0.688743,-0.158634,-0.174183,-1.6972,-0.37553,-0.397472,-0.00873947
23,45,-1.0472,-0.698132,-0.174533,-0.174533,-1.03305,-0.688743,-0.158634,-0.174183,-1.6972,-0.37553,-0.397472,-0.00873947
23,45,-1.0472,-0.698132,-0.174533,-0.174533,-1.03305,-0.688743,-0.158634,-0.174183,-1.6972,-0.37553,-0.397472,-0.00873947
23,45,-1.0472,-0.698132,-0.174533,-0.174533,-1.03305,-0.688743,-0.158634,-0.174183,-1.6972,-0.37553,-0.397472,-0.00873947
23,45,-1.0472,-0.698132,-0.174533,-0.174533,-1.03305,-0.688743,-0.158634,-0.174183,-1.6972,-0.37553,-0.397472,-0.00873947
23,45,-1.0472,-0.698132,-0.174533,-0.174533,-1.03305,-0.688743,-0.158634,-0.174183,-1.6972,-0.37553,-0.397472,-0.00873947
23,45,-1.0472,-0.698132,-0.174533,-0.174533,-1.03305,-0.688743,-0.158634,-0.174183,-1.6972,-0.37553,-0.397472,-0.00873947
23,45,-1.0472,-0.698132,-0.174533,-0.174533,-1.03305,-0.688743,-0.158634,-0.174183,-1.6972,-0.37553,-0.397472,-0.00873947
23,45,-1.0472,-0.698132,-0.174533,-0.174533,-1.03305,-0.688743,-0.158634,-0.174183,-1.6972,-0.37553,-0.397472,-0.00873947
23,45,-1.0472,-0.698132,-0.174533,-0.174533,-1.03305,-0.688743,-0.158634,-0.174183,-1.6972,-0.37553,-0.397472,-0.00873947
23,45,-1.0472,-0.698132,-0.174533,-0.174533,-1.03305,-0.688743,-0.158634,-0.174183,-1.6972,-0.37553,-0.397472,-0.00873947
23,45,-1.0472,-0.698132,-0.174533,-0.174533,-1.03305,-0.688743,-0.158634,-0.174183,-1.6972,-0.37553,-0.397472,-0.00873947
23,45,-1.0472,-0.698132,-0.174533,-0.174533,-1.03305,-0.688743,-0.158634,-0.174183,-1.6972,-0.37553,-0.397472,-0.00873947
23,45,-1.0472,-0.698132,-0.174533,-0.174533,-1.03305,-0.688743,-0.158634,-0.174183,-1.6972,-0.37553,-0.397472,-0.00873947
23,45,-1.0472,-0.698132,-0.174533,-0.174533,-1.03305,-0.688743,-0.158634,-0.174183,-1.6972,-0.37553,-0.397472,-0.00873947
23,45,-1.0472,-0.698132,-0.174533,-0.174533,-1.03305,-0.688743,-0.158634,-0.174183,-1.6972,-0.37553,-0.397472,-0.00873947
23,45,-1.0472,-0.698132,-0.174533,-0.174533,-1.03305,-0.688743,-0.158634,-0.174183,-1.6972,-0.37553,-0.397472,-0.00873947
23,45,-1.0472,-0.698132,-0.174533,-0.174533,-1.03305,-0.688743,-0.158634,-0.174183,-1.6972,-0.37553,-0.397472,-0.00873947
23,45,-1.0472,-0.698132,-0.174533,-0.174533,-1.03305,-0.688743,-0.158634,-0.174183,-1.6972,-0.37553,-0.397472,-0.00873947
23,45,-1.0472,-0.698132,-0.174533,-0.174533,-1.03305,-0.688743,-0.158634,-0.174183,-1.6972,-0.37553,-0.397472,-0.00873947
23,45,-1.0472,-0.698132,-0.174533,-0.174533,-1.03305,-0.688743,-0.158634,-0.174183,-1.6972,-0.37553,-0.397472,-0.00873947
23,45,-1.0472,-0.698132,-0.174533,-0.174533,-1.03305,-0.688743,-0.158634,-0.174183,-1.6972,-0.37553,-0.397472,-0.00873947
23,45,-1.0472,-0.698132,-0.174533,-0.174533,-1.03305,-0.688743,-0.158694,-0.174164,-1.6972,-0.37553,-0.395983,-0.00923208
23,45,-1.0472,-0.698132,-0.174533,-0.174533,-1.03305,-0.688743,-0.158694,-0.174164,-1.6972,-0.37553,-0.395983,-0.00923208
23,45,-1.0472,-0.698132,-0.174533,-0.174533,-1.03305,-0.688743,-0.158694,-0.174164,-1.6972,-0.37553,-0.395983,-0.00923208
23,45,-1.0472,-0.698132,-0.174533,-0.174533,-1.03305,-0.688743,-0.158694,-0.174164,-1.6972,-0.37553,-0.395983,-0.00923208
23,45,-1.0472,-0.698132,-0.174533,-0.174533,-1.03305,-0.688743,-0.158694,-0.174164,-1.6972,-0.37553,-0.395983,-0.00923208
23,45,-1.0472,-0.698132,-0.174533,-0.174533,-1.03305,-0.688743,-0.158694,-0.174164,-1.6972,-0.37553,-0.395983,-0.00923208
23,45,-1.0472,-0.698132,-0.174533,-0.174533,-1.03305,-0.688743,-0.158694,-0.174164,-1.6972,-0.37553,-0.395983,-0.00923208
23,45,-1.0472,-0.698132,-0.174533,-0.174533,-1.03305,-0.688743,-0.158694,-0.174164,-1.6972,-0.37553,-0.395983,-0.00923208
23,45,-1.0472,-0.698132,-0.174533,-0.174533,-1.03305,-0.688743,-0.158694,-0.174164,-1.6972,-0.37553,-0.395983,-0.00923208
23,45,-1.0472,-0.698132,-0.174533,-0.174533,-1.03305,-0.688743,-0.158694,-0.174164,-1.6972,-0.37553,-0.395983,-0.00923208
23,45,-1.0472,-0.698132,-0.174533,-0.174533,-1.03305,-0.688743,-0.158694,-0.174164,-1.6972,-0.37553,-0.395983,-0.00923208
23,45,-1.0472,-0.698132,-0.174533,-0.174533,-1.03305,-0.688743,-0.158694,-0.174164,-1.6972,-0.37553,-0.395983,-0.00923208
23,45,-1.0472,-0.698132,-0.174533,-0.174533,-1.03305,-0.688743,-0.158694,-0.174164,-1.6972,-0.37553,-0.395983,-0.00923208
23,45,-1.0472,-0.698132,-0.174533,-0.174533,-1.03305,-0.688743,-0.158694,-0.174164,-1.6972,-0.37553,-0.395983,-0.00923208
23,45,-1.0472,-0.698132,-0.174533,-0.174533,-1.03305,-0.688743,-0.158694,-0.174164,-1.6972,-0.37553,-0.395983,-0.00923208
23,45,-1.0472,-0.698132,-0.174533,-0.174533,-1.03305,-0.688743,-0.158694,-0.174164,-1.6972,-0.37553,-0.395983,-0.00923208
23,45,-1.0472,-0.698132,-0.174533,-0.174533,-1.03305,-0.688743,-0.158694,-0.174164,-1.6972,-0.37553,-0.395983,-0.00923208
23,45,-1.0472,-0.698132,-0.174533,-0.174533,-1.03305,-0.688743,-0.158694,-0.174164,-1.6972,-0.37553,-0.395983,-0.00923208
23,45,-1.0472,-0.698132,-0.174533,-0.174533,-1.03305,-0.688743,-0.158694,-0.174164,-1.6972,-0.37553,-0.395983,-0.00923208
23,45,-1.0472,-0.698132,-0.174533,-0.174533,-1.03305,-0.688743,-0.158694,-0.174164,-1.6972,-0.37553,-0.395983,-0.00923208
23,45,-1.0472,-0.698132,-0.174533,-0.174533,-1.03305,-0.688743,-0.158694,-0.174164,-1.6972,-0.37553,-0.395983,-0.00923208
23,45,-1.0472,-0.698132,-0.174533,-0.174533,-1.03305,-0.688743,-0.158694,-0.174164,-1.6972,-0.37553,-0.395983,-0.00923208
23,45,-1.0472,-0.698132,-0.174533,-0.174533,-1.03305,-0.688743,-0.158694,-0.174164,-1.6972,-0.37553,-0.395983,-0.00923208
23,45,-1.0472,-0.698132,-0.174533,-0.174533,-1.03305,-0.688693,-0.158694,-0.174164,-1.6972,-0.377563,-0.395983,-0.00923208
23,45,-1.0472,-0.698132,-0.174533,-0.174533,-1.03305,-0.688693,-0.158694,-0.174164,-1.6972,-0.377563,-0.395983,-0.00923208
23,45,-1.0472,-0.698132,-0.174533,-0.174533,-1.03305,-0.688693,-0.158694,-0.174164,-1.6972,-0.377563,-0.395983,-0.00923208
23,45,-1.0472,-0.698132,-0.174533,-0.174533,-1.03305,-0.688693,-0.158694,-0.174164,-1.6972,-0.377563,-0.395983,-0.00923208
23,45,-1.0472,-0.698132,-0.174533,-0.174533,-1.03305,-0.688693,-0.158694,-0.174164,-1.6972,-0.377563,-0.395983,-0.00923208
23,45,-1.0472,-0.698132,-0.174533,-0.174533,-1.03305,-0.688693,-0.158694,-0.174164,-1.6972,-0.377563,-0.395983,-0.00923208
23,45,-1.0472,-0.698132,-0.174533,-0.174533,-1.03305,-0.688693,-0.158694,-0.174164,-1.6972,-0.377563,-0.395983,-0.00923208
23,45,-1.0472,-0.698132,-0.174533,-0.174533,-1.03305,-0.688693,-0.158694,-0.174164,-1.6972,-0.377563,-0.395983,-0.00923208
23,45,-1.0472,-0.698132,-0.174533,-0.174533,-1.03305,-0.688693,-0.158694,-0.174164,-1.6972,-0.377563,-0.395983,-0.00923208
23,45,-1.0472,-0.698132,-0.174533,-0.174533,-1.03305,-0.688693,-0.158694,-0.174164,-1.6972,-0.377563,-0.395983,-0.00923208
23,45,-1.0472,-0.698132,-0.174533,-0.174533,-1.03305,-0.688693,-0.158694,-0.174164,-1.6972,-0.377563,-0.395983,-0.00923208
23,45,-1.0472,-0.698132,-0.174533,-0.174533,-1.03305,-0.688693,-0.158694,-0.174164,-1.6972,-0.377563,-0.395983,-0.00923208
23,45,-1.0472,-0.698132,-0.174533,-0.174533,-1.03305,-0.688693,-0.158694,-0.174164,-1.6972,-0.377563,-0.395983,-0.00923208
23,45,-1.0472,-0.698132,-0.174533,-0.174533,-1.03305,-0.688693,-0.158694,-0.174164,-1.6972,-0.377563,-0.395983,-0.00923208
23,45,-1.0472,-0.698132,-0.174533,-0.174533,-1.03305,-0.688693,-0.158694,-0.174164,-1.6972,-0.377563,-0.395983,-0.00923208
23,45,-1.0472,-0.698132,-0.174533,-0.174533,-1.03305,-0.688693,-0.158694,-0.174164,-1.6972,-0.377563,-0.395983,-0.00923208
23,45,-1.0472,-0.698132,-0.174533,-0.174533,-1.03305,-0.688693,-0.158694,-0.174164,-1.6972,-0.377563,-0.395983,-0.00923208
23,45,-1.0472,-0.698132,-0.174533,-0.174533,-1.03305,-0.688693,-0.158694,-0.174164,-1.6972,-0.377563,-0.395983,-0.00923208
23,45,-1.0472,-0.698132,-0.174533,-0.174533,-1.03305,-0.688693,-0.158694,-0.174164,-1.6972,-0.377563,-0.395983,-0.00923208
23,45,-1.0472,-0.698132,-0.174533,-0.174533,-1.03305,-0.688693,-0.158694,-0.174164,-1.6972,-0.377563,-0.395983,-0.00923208
23,45,-1.0472,-0.698132,-0.174533,-0.174533,-1.03305,-0.688693,-0.158694,-0.174164,-1.6972,-0.377563,-0.395983,-0.00923208
23,45,-1.0472,-0.698132,-0.174533,-0.174533,-1.03305,-0.688693,-0.158694,-0.174164,-1.6972,-0.377563,-0.395983,-0.00923208
23,45,-1.0472,-0.698132,-0.174533,-0.174533,-1.03305,-0.688693,-0.158694,-0.174164,-1.6972,-0.377563,-0.395983,-0.00923208
23,45,-1.0472,-0.698132,-0.174533,-0.174533,-1.03305,-0.688693,-0.158694,-0.174164,-1.6972,-0.377563,-0.395983,-0.00923208
23,45,-1.0472,-0.698132,-0.174533,-0.174533,-1.03305,-0.688693,-0.158694,-0.174164,-1.6972,-0.377563,-0.395983,-0.00923208
23,45,-1.0472,-0.698132,-0.174533,-0.174533,-1.03305,-0.688693,-0.158694,-0.174164,-1.6972,-0.377563,-0.395983,-0.00923208
23,45,-1.0472,-0.698132,-0.174533,-0.174533,-1.03305,-0.688693,-0.158694,-0.174164,-1.6972,-0.377563,-0.395983,-0.00923208
23,45,-1.0472,-0.698132,-0.174533,-0.174533,-1.03305,-0.688693,-0.158694,-0.174164,-1.6972,-0.377563,-0.395983,-0.00923208
23,45,-1.0472,-0.698132,-0.174533,-0.174533,-1.03305,-0.688693,-0.158694,-0.174164,-1.6972,-0.377563,-0.395983,-0.00923208
23,45,-1.0472,-0.698132,-0.174533,-0.174533,-1.03305,-0.688693,-0.158694,-0.174164,-1.6972,-0.377563,-0.395983,-0.00923208
23,45,-1.0472,-0.698132,-0.174533,-0.174533,-1.03305,-0.688693,-0.158694,-0.174164,-1.6972,-0.377563,-0.395983,-0.00923208
23,45,-1.0472,-0.698132,-0.174533,-0.174533,-1.03305,-0.688693,-0.158694,-0.174164,-1.6972,-0.377563,-0.395983,-0.00923208
23,45,-1.0472,-0.698132,-0.174533,-0.174533,-1.03305,-0.688693,-0.158694,-0.174164,-1.6972,-0.377563,-0.395983,-0.00923208
23,45,-1.0472,-0.698132,-0.174533,-0.174533,-1.03305,-0.688693,-0.158694,-0.174164,-1.6972,-0.377563,-0.395983,-0.00923208
23,45,-1.0472,-0.698132,-0.174533,-0.174533,-1.03305,-0.688693,-0.158694,-0.174164,-1.6972,-0.377563,-0.395983,-0.00923208
23,45,-1.0472,-0.698132,-0.174533,-0.174533,-1.03305,-0.688693,-0.158694,-0.174164,-1.6972,-0.377563,-0.395983,-0.00923208
23,45,-1.0472,-0.698132,-0.174533,-0.174533,-1.03305,-0.688693,-0.158694,-0.174164,-1.6972,-0.377563,-0.395983,-0.00923208
23,45,-1.0472,-0.698132,-0.174533,-0.174533,-1.03305,-0.688693,-0.158694,-0.174164,-1.6972,-0.377563,-0.395983,-0.00923208
23,45,-1.0472,-0.698132,-0.174533,-0.174533,-1.03305,-0.688693,-0.158694,-0.174164,-1.6972,-0.377563,-0.395983,-0.00923208
23,45,-1.0472,-0.698132,-0.174533,-0.174533,-1.03305,-0.688693,-0.158694,-0.174164,-1.6972,-0.377563,-0.395983,-0.00923208
23,45,-1.0472,-0.698132,-0.174533,-0.174533,-1.03305,-0.688693,-0.158694,-0.174164,-1.6972,-0.377563,-0.395983,-0.00923208
23,45,-1.0472,-0.698132,-0.174533,-0.174533,-1.03305,-0.688693,-0.158694,-0.174164,-1.6972,-0.377563,-0.395983,-0.00923208
23,45,-1.0472,-0.698132,-0.174533,-0.174533,-1.03305,-0.688693,-0.158694,-0.174164,-1.6972,-0.377563,-0.395983,-0.00923208
23,45,-1.0472,-0.698132,-0.174533,-0.174533,-1.03305,-0.688693,-0.158694,-0.174164,-1.6972,-0.377563,-0.395983,-0.00923208
23,45,-1.0472,-0.698132,-0.174533,-0.174533,-1.03305,-0.688693,-0.158694,-0.174164,-1.6972,-0.377563,-0.395983,-0.00923208
23,45,-1.0472,-0.698132,-0.174533,-0.174533,-1.03305,-0.688693,-0.158694,-0.174164,-1.6972,-0.377563,-0.395983,-0.00923208
23,45,-1.0472,-0.698132,-0.174533,-0.174533,-1.03305,-0.688693,-0.158694,-0.174164,-1.6972,-0.377563,-0.395983,-0.00923208
23,45,-1.0472,-0.698132,-0.174533,-0.174533,-1.03305,-0.688693,-0.158694,-0.174164,-1.6972,-0.377563,-0.395983,-0.00923208
23,45,-1.0472,-0.698132,-0.174533,-0.174533,-1.03305,-0.688693,-0.158694,-0.174164,-1.6972,-0.377563,-0.395983,-0.00923208
23,45,-1.0472,-0.698132,-0.174533,-0.174533,-1.03305,-0.688693,-0.158694,-0.174164,-1.6972,-0.377563,-0.395983,-0.00923208
23,45,-1.0472,-0.698132,-0.174533,-0.174533,-1.03305,-0.688693,-0.158694,-0.174164,-1.6972,-0.377563,-0.395983,-0.00923208
23,45,-1.0472,-0.698132,-0.174533,-0.174533,-1.03305,-0.688693,-0.158694,-0.174164,-1.6972,-0.377563,-0.395983,-0.00923208
23,45,-1.0472,-0.698132,-0.174533,-0.174533,-1.03305,-0.688693,-0.158694,-0.174164,-1.6972,-0.377563,-0.395983,-0.00923208
23,45,-1.0472,-0.698132,-0.174533,-0.174533,-1.03305,-0.688693,-0.158694,-0.174164,-1.6972,-0.377563,-0.395983,-0.00923208
23,45,-1.0472,-0.698132,-0.174533,-0.174533,-1.03305,-0.688693,-0.158694,-0.174164,-1.6972,-0.377563,-0.395983,-0.00923208
23,45,-1.0472,-0.698132,-0.174533,-0.174533,-1.03305,-0.688693,-0.158694,-0.174164,-1.6972,-0.377563,-0.395983,-0.00923208
23,45,-1.0472,-0.698132,-0.174533,-0.174533,-1.03305,-0.688693,-0.158694,-0.174164,-1.6972,-0.377563,-0.395983,-0.00923208
23,45,-1.0472,-0.698132,-0.174533,-0.174533,-1.03305,-0.688693,-0.158694,-0.174164,-1.6972,-0.377563,-0.395983,-0.00923208
23,45,-1.0472,-0.698132,-0.174533,-0.174533,-1.03305,-0.688693,-0.158694,-0.174164,-1.6972,-0.377563,-0.395983,-0.00923208
23,45,-1.0472,-0.698132,-0.174533,-0.174533,-1.03305,-0.688693,-0.158694,-0.174164,-1.6972,-0.377563,-0.395983,-0.00923208
23,45,-1.0472,-0.698132,-0.174533,-0.174533,-1.03305,-0.688693,-0.158694,-0.174164,-1.6972,-0.377563,-0.395983,-0.00923208
23,45,-1.0472,-0.698132,-0.174533,-0.174533,-1.03305,-0.688693,-0.158694,-0.174164,-1.6972,-0.377563,-0.395983,-0.00923208
23,45,-1.0472,-0.698132,-0.174533,-0.174533,-1.03305,-0.688693,-0.158694,-0.174164,-1.6972,-0.377563,-0.395983,-0.00923208
23,45,-1.0472,-0.698132,-0.174533,-0.174533,-1.03305,-0.688693,-0.158694,-0.174164,-1.6972,-0.377563,-0.395983,-0.00923208
23,45,-1.0472,-0.698132,-0.174533,-0.174533,-1.03305,-0.688693,-0.158694,-0.174164,-1.6972,-0.377563,-0.395983,-0.00923208
23,45,-1.0472,-0.698132,-0.174533,-0.174533,-1.03305,-0.688693,-0.158753,-0.174144,-1.6972,-0.377563,-0.394494,-0.00972466
23,45,-1.0472,-0.698132,-0.174533,-0.174533,-1.03305,-0.688693,-0.158753,-0.174144,-1.6972,-0.377563,-0.394494,-0.00972466
23,45,-1.0472,-0.698132,-0.174533,-0.174533,-1.03305,-0.688693,-0.158753,-0.174144,-1.6972,-0.377563,-0.394494,-0.00972466
23,45,-1.0472,-0.698132,-0.174533,-0.174533,-1.03305,-0.688693,-0.158753,-0.174144,-1.6972,-0.377563,-0.394494,-0.00972466
23,45,-1.0472,-0.698132,-0.174533,-0.174533,-1.03305,-0.688693,-0.158753,-0.174144,-1.6972,-0.377563,-0.394494,-0.00972466
23,45,-1.0472,-0.698132,-0.174533,-0.174533,-1.03305,-0.688693,-0.158753,-0.174144,-1.6972,-0.377563,-0.394494,-0.00972466
23,45,-1.0472,-0.698132,-0.174533,-0.174533,-1.03305,-0.688693,-0.158751,-0.174084,-1.6972,-0.377563,-0.394549,-0.0112124
23,45,-1.0472,-0.698132,-0.174533,-0.174533,-1.03305,-0.688693,-0.158751,-0.174084,-1.6972,-0.377563,-0.394549,-0.0112124
23,45,-1.0472,-0.698132,-0.174533,-0.174533,-1.03305,-0.688693,-0.158751,-0.174084,-1.6972,-0.377563,-0.394549,-0.0112124
23,45,-1.0472,-0.698132,-0.174533,-0.174533,-1.03305,-0.688693,-0.158751,-0.174084,-1.6972,-0.377563,-0.394549,-0.0112124
23,45,-1.0472,-0.698132,-0.174533,-0.174533,-1.03305,-0.688693,-0.158751,-0.174084,-1.6972,-0.377563,-0.394549,-0.0112124
23,45,-1.0472,-0.698132,-0.174533,-0.174533,-1.03305,-0.688693,-0.158751,-0.174084,-1.6972,-0.377563,-0.394549,-0.0112124
23,45,-1.0472,-0.698132,-0.174533,-0.174533,-1.03305,-0.688693,-0.158751,-0.174084,-1.6972,-0.377563,-0.394549,-0.0112124
23,45,-1.0472,-0.698132,-0.174533,-0.174533,-1.03305,-0.688693,-0.158751,-0.174084,-1.6972,-0.377563,-0.394549,-0.0112124
23,45,-1.0472,-0.698132,-0.174533,-0.174533,-1.03305,-0.688693,-0.158751,-0.174084,-1.6972,-0.377563,-0.394549,-0.0112124
23,45,-1.0472,-0.698132,-0.174533,-0.174533,-1.03305,-0.688693,-0.158751,-0.174084,-1.6972,-0.377563,-0.394549,-0.0112124
23,45,-1.0472,-0.698132,-0.174533,-0.174533,-1.03305,-0.688693,-0.158751,-0.174084,-1.6972,-0.377563,-0.394549,-0.0112124
23,45,-1.0472,-0.698132,-0.174533,-0.174533,-1.03305,-0.688693,-0.158751,-0.174084,-1.6972,-0.377563,-0.394549,-0.0112124
23,45,-1.0472,-0.698132,-0.174533,-0.174533,-1.03305,-0.688693,-0.158751,-0.174084,-1.6972,-0.377563,-0.394549,-0.0112124
23,45,-1.0472,-0.698132,-0.174533,-0.174533,-1.03305,-0.688693,-0.158751,-0.174084,-1.6972,-0.377563,-0.394549,-0.0112124
23,45,-1.0472,-0.698132,-0.174533,-0.174533,-1.03305,-0.688693,-0.158751,-0.174084,-1.6972,-0.377563,-0.394549,-0.0112124
23,45,-1.0472,-0.698132,-0.174533,-0.174533,-1.03305,-0.688693,-0.158751,-0.174084,-1.6972,-0.377563,-0.394549,-0.0112124
23,45,-1.0472,-0.698132,-0.174533,-0.174533,-1.03305,-0.688693,-0.158751,-0.174084,-1.6972,-0.377563,-0.394549,-0.0112124
23,45,-1.0472,-0.698132,-0.174533,-0.174533,-1.03305,-0.688693,-0.158751,-0.174084,-1.6972,-0.377563,-0.394549,-0.0112124
23,45,-1.0472,-0.698132,-0.174533,-0.174533,-1.03305,-0.688693,-0.158751,-0.174084,-1.6972,-0.377563,-0.394549,-0.0112124
23,45,-1.0472,-0.698132,-0.174533,-0.174533,-1.03305,-0.688693,-0.158751,-0.174084,-1.6972,-0.377563,-0.394549,-0.0112124
23,45,-1.0472,-0.698132,-0.174533,-0.174533,-1.03305,-0.688693,-0.158751,-0.174084,-1.6972,-0.377563,-0.394549,-0.0112124
23,45,-1.0472,-0.698132,-0.174533,-0.174533,-1.03305,-0.688693,-0.158751,-0.174084,-1.6972,-0.377563,-0.394549,-0.0112124
23,45,-1.0472,-0.698132,-0.174533,-0.174533,-1.03305,-0.688693,-0.158751,-0.174084,-1.6972,-0.377563,-0.394549,-0.0112124
23,45,-1.0472,-0.698132,-0.174533,-0.174533,-1.03305,-0.688693,-0.158751,-0.174084,-1.6972,-0.377563,-0.394549,-0.0112124
23,45,-1.0472,-0.698132,-0.174533,-0.174533,-1.03305,-0.688693,-0.158751,-0.174084,-1.6972,-0.377563,-0.394549,-0.0112124
23,45,-1.0472,-0.698132,-0.174533,-0.174533,-1.03305,-0.688693,-0.158751,-0.174084,-1.6972,-0.377563,-0.394549,-0.0112124
23,45,-1.0472,-0.698132,-0.174533,-0.174533,-1.03305,-0.688693,-0.158751,-0.174084,-1.6972,-0.377563,-0.394549,-0.0112124
23,45,-1.0472,-0.698132,-0.174533,-0.174533,-1.03305,-0.688693,-0.158751,-0.174084,-1.6972,-0.377563,-0.394549,-0.0112124
23,45,-1.0472,-0.698132,-0.174533,-0.174533,-1.03305,-0.688693,-0.158751,-0.174084,-1.6972,-0.377563,-0.394549,-0.0112124
23,45,-1.0472,-0.698132,-0.174533,-0.174533,-1.03305,-0.688693,-0.158751,-0.174084,-1.6972,-0.377563,-0.394549,-0.0112124
23,45,-1.0472,-0.698132,-0.174533,-0.174533,-1.03305,-0.688693,-0.158751,-0.174084,-1.6972,-0.377563,-0.394549,-0.0112124
23,45,-1.0472,-0.698132,-0.174533,-0.174533,-1.03305,-0.688693,-0.158751,-0.174084,-1.6972,-0.377563,-0.394549,-0.0112124
23,45,-1.0472,-0.698132,-0.174533,-0.174533,-1.03305,-0.688693,-0.158751,-0.174084,-1.6972,-0.377563,-0.394549,-0.0112124
23,45,-1.0472,-0.698132,-0.174533,-0.174533,-1.03305,-0.688693,-0.158751,-0.174084,-1.6972,-0.377563,-0.394549,-0.0112124
23,45,-1.0472,-0.698132,-0.174533,-0.174533,-1.03305,-0.688693,-0.158751,-0.174084,-1.6972,-0.377563,-0.394549,-0.0112124
23,45,-1.0472,-0.698132,-0.174533,-0.174533,-1.03305,-0.688693,-0.158751,-0.174084,-1.6972,-0.377563,-0.394549,-0.0112124
23,45,-1.0472,-0.698132,-0.174533,-0.174533,-1.03305,-0.688693,-0.158751,-0.174084,-1.6972,-0.377563,-0.394549,-0.0112124
23,45,-1.0472,-0.698132,-0.174533,-0.174533,-1.03305,-0.688693,-0.158751,-0.174084,-1.6972,-0.377563,-0.394549,-0.0112124
23,45,-1.0472,-0.698132,-0.174533,-0.174533,-1.03305,-0.688693,-0.158751,-0.174084,-1.6972,-0.377563,-0.394549,-0.0112124
23,45,-1.0472,-0.698132,-0.174533,-0.174533,-1.03305,-0.688693,-0.158751,-0.174084,-1.6972,-0.377563,-0.394549,-0.0112124
23,45,-1.0472,-0.698132,-0.174533,-0.174533,-1.03305,-0.688693,-0.158751,-0.174084,-1.6972,-0.377563,-0.394549,-0.0112124
23,45,-1.0472,-0.698132,-0.174533,-0.174533,-1.03305,-0.688693,-0.158751,-0.174084,-1.6972,-0.377563,-0.394549,-0.0112124
23,45,-1.0472,-0.698132,-0.174533,-0.174533,-1.03305,-0.688693,-0.158751,-0.174084,-1.6972,-0.377563,-0.394549,-0.0112124
23,45,-1.0472,-0.698132,-0.174533,-0.174533,-1.03305,-0.688693,-0.158751,-0.174084,-1.6972,-0.377563,-0.394549,-0.0112124
23,45,-1.0472,-0.698132,-0.174533,-0.174533,-1.03305,-0.688693,-0.158751,-0.174084,-1.6972,-0.377563,-0.394549,-0.0112124
23,45,-1.0472,-0.698132,-0.174533,-0.174533,-1.03305,-0.688693,-0.158751,-0.174084,-1.6972,-0.377563,-0.394549,-0.0112124
23,45,-1.0472,-0.698132,-0.174533,-0.174533,-1.03305,-0.688693,-0.158751,-0.174084,-1.6972,-0.377563,-0.394549,-0.0112124
23,45,-1.0472,-0.698132,-0.174533,-0.174533,-1.03305,-0.688693,-0.158751,-0.174084,-1.6972,-0.377563,-0.394549,-0.0112124
23,45,-1.0472,-0.698132,-0.174533,-0.174533,-1.03305,-0.688693,-0.158751,-0.174084,-1.6972,-0.377563,-0.394549,-0.0112124
23,45,-1.0472,-0.698132,-0.174533,-0.174533,-1.03305,-0.688693,-0.158751,-0.174084,-1.6972,-0.377563,-0.394549,-0.0112124
23,45,-1.0472,-0.698132,-0.174533,-0.174533,-1.03305,-0.688693,-0.158751,-0.174084,-1.6972,-0.377563,-0.394549,-0.0112124
23,45,-1.0472,-0.698132,-0.174533,-0.174533,-1.03305,-0.688693,-0.158751,-0.174084,-1.6972,-0.377563,-0.394549,-0.0112124
23,45,-1.0472,-0.698132,-0.174533,-0.174533,-1.03305,-0.688693,-0.158751,-0.174084,-1.6972,-0.377563,-0.394549,-0.0112124
23,45,-1.0472,-0.698132,-0.174533,-0.174533,-1.03305,-0.688693,-0.158751,-0.174084,-1.6972,-0.377563,-0.394549,-0.0112124
23,45,-1.0472,-0.698132,-0.174533,-0.174533,-1.03305,-0.688693,-0.158751,-0.174084,-1.6972,-0.377563,-0.394549,-0.0112124
23,45,-1.0472,-0.698132,-0.174533,-0.174533,-1.03305,-0.688693,-0.158751,-0.174084,-1.6972,-0.377563,-0.394549,-0.0112124
23,45,-1.0472,-0.698132,-0.174533,-0.174533,-1.03305,-0.688693,-0.158751,-0.174084,-1.6972,-0.377563,-0.394549,-0.0112124
23,45,-1.0472,-0.698132,-0.174533,-0.174533,-1.03305,-0.688693,-0.158751,-0.174084,-1.6972,-0.377563,-0.394549,-0.0112124
23,45,-1.0472,-0.698132,-0.174533,-0.174533,-1.03305,-0.688693,-0.158751,-0.174084,-1.6972,-0.377563,-0.394549,-0.0112124
23,45,-1.0472,-0.698132,-0.174533,-0.174533,-1.03305,-0.688693,-0.158751,-0.174084,-1.6972,-0.377563,-0.394549,-0.0112124
23,45,-1.0472,-0.698132,-0.174533,-0.174533,-1.03305,-0.688693,-0.158751,-0.174084,-1.6972,-0.377563,-0.394549,-0.0112124
23,45,-1.0472,-0.698132,-0.174533,-0.174533,-1.03305,-0.688693,-0.158751,-0.174084,-1.6972,-0.377563,-0.394549,-0.0112124
23,45,-1.0472,-0.698132,-0.174533,-0.174533,-1.03305,-0.688693,-0.158751,-0.174084,-1.6972,-0.377563,-0.394549,-0.0112124
23,45,-1.0472,-0.698132,-0.174533,-0.174533,-1.03305,-0.688693,-0.158751,-0.174084,-1.6972,-0.377563,-0.394549,-0.0112124
23,45,-1.0472,-0.698132,-0.174533,-0.174533,-1.03305,-0.688693,-0.158751,-0.174084,-1.6972,-0.377563,-0.394549,-0.0112124
23,45,-1.0472,-0.698132,-0.174533,-0.174533,-1.03305,-0.688693,-0.158751,-0.174084,-1.6972,-0.377563,-0.394549,-0.0112124
23,45,-1.0472,-0.698132,-0.174533,-0.174533,-1.03305,-0.688693,-0.158751,-0.174084,-1.6972,-0.377563,-0.394549,-0.0112124
23,45,-1.0472,-0.698132,-0.174533,-0.174533,-1.03305,-0.688693,-0.158751,-0.174084,-1.6972,-0.377563,-0.394549,-0.0112124
23,45,-1.0472,-0.698132,-0.174533,-0.174533,-1.03305,-0.688693,-0.158751,-0.174084,-1.6972,-0.377563,-0.394549,-0.0112124
23,45,-1.0472,-0.698132,-0.174533,-0.174533,-1.03305,-0.688693,-0.158751,-0.174084,-1.6972,-0.377563,-0.394549,-0.0112124
23,45,-1.0472,-0.698132,-0.174533,-0.174533,-1.03305,-0.688693,-0.158751,-0.174084,-1.6972,-0.377563,-0.394549,-0.0112124
23,45,-1.0472,-0.698132,-0.174533,-0.174533,-1.03305,-0.688693,-0.158751,-0.174084,-1.6972,-0.377563,-0.394549,-0.0112124
23,45,-1.0472,-0.698132,-0.174533,-0.174533,-1.03305,-0.688693,-0.158751,-0.174084,-1.6972,-0.377563,-0.394549,-0.0112124
23,45,-1.0472,-0.698132,-0.174533,-0.174533,-1.03305,-0.688693,-0.158751,-0.174084,-1.6972,-0.377563,-0.394549,-0.0112124
23,45,-1.0472,-0.698132,-0.174533,-0.174533,-1.03305,-0.688693,-0.158751,-0.174084,-1.6972,-0.377563,-0.394549,-0.0112124
23,45,-1.0472,-0.698132,-0.174533,-0.174533,-1.03305,-0.688693,-0.158751,-0.174084,-1.6972,-0.377563,-0.394549,-0.0112124
23,45,-1.0472,-0.698132,-0.174533,-0.174533,-1.03305,-0.688693,-0.158751,-0.174084,-1.6972,-0.377563,-0.394549,-0.0112124
23,45,-1.0472,-0.698132,-0.174533,-0.174533,-1.03305,-0.688693,-0.158751,-0.174084,-1.6972,-0.377563,-0.394549,-0.0112124
23,45,-1.0472,-0.698132,-0.174533,-0.174533,-1.03305,-0.688693,-0.158751,-0.174084,-1.6972,-0.377563,-0.394549,-0.0112124
23,45,-1.0472,-0.698132,-0.174533,-0.174533,-1.03305,-0.688693,-0.158751,-0.174084,-1.6972,-0.377563,-0.394549,-0.0112124
23,45,-1.0472,-0.698132,-0.174533,-0.174533,-1.03305,-0.688693,-0.158751,-0.174084,-1.6972,-0.377563,-0.394549,-0.0112124
23,45,-1.0472,-0.698132,-0.174533,-0.174533,-1.03305,-0.688693,-0.158751,-0.174084,-1.6972,-0.377563,-0.394549,-0.0112124
23,45,-1.0472,-0.698132,-0.174533,-0.174533,-1.03305,-0.688693,-0.158751,-0.174084,-1.6972,-0.377563,-0.394549,-0.0112124
23,45,-1.0472,-0.698132,-0.174533,-0.174533,-1.03305,-0.688642,-0.158751,-0.174084,-1.6972,-0.379597,-0.394549,-0.0112124
23,45,-1.0472,-0.698132,-0.174533,-0.174533,-1.03305,-0.688642,-0.158751,-0.174084,-1.6972,-0.379597,-0.394549,-0.0112124
23,45,-1.0472,-0.698132,-0.174533,-0.174533,-1.03305,-0.688642,-0.158751,-0.174084,-1.6972,-0.379597,-0.394549,-0.0112124
23,45,-1.0472,-0.698132,-0.174533,-0.174533,-1.03305,-0.688642,-0.158751,-0.174084,-1.6972,-0.379597,-0.394549,-0.0112124
23,45,-1.0472,-0.698132,-0.174533,-0.174533,-1.03305,-0.688642,-0.158751,-0.174084,-1.6972,-0.379597,-0.394549,-0.0112124
23,45,-1.0472,-0.698132,-0.174533,-0.174533,-1.03305,-0.688642,-0.158751,-0.174084,-1.6972,-0.379597,-0.394549,-0.0112124
23,45,-1.0472,-0.698132,-0.174533,-0.174533,-1.03305,-0.688642,-0.158751,-0.174084,-1.6972,-0.379597,-0.394549,-0.0112124
23,45,-1.0472,-0.698132,-0.174533,-0.174533,-1.03305,-0.688642,-0.158751,-0.174084,-1.6972,-0.379597,-0.394549,-0.0112124
23,45,-1.0472,-0.698132,-0.174533,-0.174533,-1.03305,-0.688642,-0.158751,-0.174084,-1.6972,-0.379597,-0.394549,-0.0112124
23,45,-1.0472,-0.698132,-0.174533,-0.174533,-1.03305,-0.688642,-0.158751,-0.174084,-1.6972,-0.379597,-0.394549,-0.0112124
23,45,-1.0472,-0.698132,-0.174533,-0.174533,-1.03305,-0.688642,-0.158751,-0.174084,-1.6972,-0.379597,-0.394549,-0.0112124
23,45,-1.0472,-0.698132,-0.174533,-0.174533,-1.03305,-0.688642,-0.158751,-0.174084,-1.6972,-0.379597,-0.394549,-0.0112124
23,45,-1.0472,-0.698132,-0.174533,-0.174533,-1.03305,-0.688642,-0.158751,-0.174084,-1.6972,-0.379597,-0.394549,-0.0112124
23,45,-1.0472,-0.698132,-0.174533,-0.174533,-1.03305,-0.688642,-0.158751,-0.174084,-1.6972,-0.379597,-0.394549,-0.0112124
23,45,-1.0472,-0.698132,-0.174533,-0.174533,-1.03305,-0.688642,-0.158751,-0.174084,-1.6972,-0.379597,-0.394549,-0.0112124
23,45,-1.0472,-0.698132,-0.174533,-0.174533,-1.03305,-0.688642,-0.158751,-0.174084,-1.6972,-0.379597,-0.394549,-0.0112124
23,45,-1.0472,-0.698132,-0.174533,-0.174533,-1.03305,-0.688642,-0.158751,-0.174084,-1.6972,-0.379597,-0.394549,-0.0112124
23,45,-1.0472,-0.698132,-0.174533,-0.174533,-1.03305,-0.688642,-0.158751,-0.174084,-1.6972,-0.379597,-0.394549,-0.0112124
23,45,-1.0472,-0.698132,-0.174533,-0.174533,-1.03305,-0.688642,-0.158751,-0.174084,-1.6972,-0.379597,-0.394549,-0.0112124
23,45,-1.0472,-0.698132,-0.174533,-0.174533,-1.03305,-0.688642,-0.158751,-0.174084,-1.6972,-0.379597,-0.394549,-0.0112124
23,45,-1.0472,-0.698132,-0.174533,-0.174533,-1.03305,-0.688642,-0.158751,-0.174084,-1.6972,-0.379597,-0.394549,-0.0112124
23,45,-1.0472,-0.698132,-0.174533,-0.174533,-1.03305,-0.688642,-0.158751,-0.174084,-1.6972,-0.379597,-0.394549,-0.0112124
23,45,-1.0472,-0.698132,-0.174533,-0.174533,-1.03305,-0.688642,-0.158751,-0.174084,-1.6972,-0.379597,-0.394549,-0.0112124
23,45,-1.0472,-0.698132,-0.174533,-0.174533,-1.03305,-0.688642,-0.158751,-0.174084,-1.6972,-0.379597,-0.394549,-0.0112124
23,45,-1.0472,-0.698132,-0.174533,-0.174533,-1.03305,-0.688642,-0.158751,-0.174084,-1.6972,-0.379597,-0.394549,-0.0112124
23,45,-1.0472,-0.698132,-0.174533,-0.174533,-1.03305,-0.688642,-0.158751,-0.174084,-1.6972,-0.379597,-0.394549,-0.0112124
23,45,-1.0472,-0.698132,-0.174533,-0.174533,-1.03305,-0.688642,-0.158751,-0.174084,-1.6972,-0.379597,-0.394549,-0.0112124
23,45,-1.0472,-0.698132,-0.174533,-0.174533,-1.03305,-0.688642,-0.158751,-0.174084,-1.6972,-0.379597,-0.394549,-0.0112124
23,45,-1.0472,-0.698132,-0.174533,-0.174533,-1.03305,-0.688642,-0.158751,-0.174084,-1.6972,-0.379597,-0.394549,-0.0112124
23,45,-1.0472,-0.698132,-0.174533,-0.174533,-1.03305,-0.688642,-0.158751,-0.174084,-1.6972,-0.379597,-0.394549,-0.0112124
23,45,-1.0472,-0.698132,-0.174533,-0.174533,-1.03305,-0.688642,-0.158751,-0.174084,-1.6972,-0.379597,-0.394549,-0.0112124
23,45,-1.0472,-0.698132,-0.174533,-0.174533,-1.03305,-0.688642,-0.158751,-0.174084,-1.6972,-0.379597,-0.394549,-0.0112124
23,45,-1.0472,-0.698132,-0.174533,-0.174533,-1.03305,-0.688642,-0.158751,-0.174084,-1.6972,-0.379597,-0.394549,-0.0112124
23,45,-1.0472,-0.698132,-0.174533,-0.174533,-1.03305,-0.688642,-0.158751,-0.174084,-1.6972,-0.379597,-0.394549,-0.0112124
23,45,-1.0472,-0.698132,-0.174533,-0.174533,-1.03305,-0.688642,-0.158751,-0.174084,-1.6972,-0.379597,-0.394549,-0.0112124
23,45,-1.0472,-0.698132,-0.174533,-0.174533,-1.03305,-0.688642,-0.158751,-0.174084,-1.6972,-0.379597,-0.394549,-0.0112124
23,45,-1.0472,-0.698132,-0.174533,-0.174533,-1.03305,-0.688642,-0.158751,-0.174084,-1.6972,-0.379597,-0.394549,-0.0112124
23,45,-1.0472,-0.698132,-0.174533,-0.174533,-1.03305,-0.688642,-0.158751,-0.174084,-1.6972,-0.379597,-0.394549,-0.0112124
23,45,-1.0472,-0.698132,-0.174533,-0.174533,-1.03305,-0.688642,-0.158751,-0.174084,-1.6972,-0.379597,-0.394549,-0.0112124
23,45,-1.0472,-0.698132,-0.174533,-0.174533,-1.03305,-0.688642,-0.158751,-0.174084,-1.6972,-0.379597,-0.394549,-0.0112124
23,45,-1.0472,-0.698132,-0.174533,-0.174533,-1.03305,-0.688642,-0.158751,-0.174084,-1.6972,-0.379597,-0.394549,-0.0112124
23,45,-1.0472,-0.698132,-0.174533,-0.174533,-1.03305,-0.688642,-0.158751,-0.174084,-1.6972,-0.379597,-0.394549,-0.0112124
23,45,-1.0472,-0.698132,-0.174533,-0.174533,-1.03305,-0.688642,-0.158751,-0.174084,-1.6972,-0.379597,-0.394549,-0.0112124
23,45,-1.0472,-0.698132,-0.174533,-0.174533,-1.03305,-0.688642,-0.158751,-0.174084,-1.6972,-0.379597,-0.394549,-0.0112124
23,45,-1.0472,-0.698132,-0.174533,-0.174533,-1.03305,-0.688642,-0.158751,-0.174084,-1.6972,-0.379597,-0.394549,-0.0112124
23,45,-1.0472,-0.698132,-0.174533,-0.174533,-1.03305,-0.688642,-0.158751,-0.174084,-1.6972,-0.379597,-0.394549,-0.0112124
23,45,-1.0472,-0.698132,-0.174533,-0.174533,-1.03305,-0.688642,-0.158751,-0.174084,-1.6972,-0.379597,-0.394549,-0.0112124
23,45,-1.0472,-0.698132,-0.174533,-0.174533,-1.03305,-0.688642,-0.158751,-0.174084,-1.6972,-0.379597,-0.394549,-0.0112124
23,45,-1.0472,-0.698132,-0.174533,-0.174533,-1.03305,-0.688642,-0.158751,-0.174084,-1.6972,-0.379597,-0.394549,-0.0112124
23,45,-1.0472,-0.698132,-0.174533,-0.174533,-1.03305,-0.688642,-0.158751,-0.174084,-1.6972,-0.379597,-0.394549,-0.0112124
23,45,-1.0472,-0.698132,-0.174533,-0.174533,-1.03305,-0.688642,-0.158751,-0.174084,-1.6972,-0.379597,-0.394549,-0.0112124
23,45,-1.0472,-0.698132,-0.174533,-0.174533,-1.03305,-0.688642,-0.158751,-0.174084,-1.6972,-0.379597,-0.394549,-0.0112124
23,45,-1.0472,-0.698132,-0.174533,-0.174533,-1.03305,-0.688642,-0.158751,-0.174084,-1.6972,-0.379597,-0.394549,-0.0112124
23,45,-1.0472,-0.698132,-0.174533,-0.174533,-1.03305,-0.688642,-0.158751,-0.174084,-1.6972,-0.379597,-0.394549,-0.0112124
23,45,-1.0472,-0.698132,-0.174533,-0.174533,-1.03305,-0.688642,-0.158751,-0.174084,-1.6972,-0.379597,-0.394549,-0.0112124
23,45,-1.0472,-0.698132,-0.174533,-0.174533,-1.03305,-0.688642,-0.158751,-0.174084,-1.6972,-0.379597,-0.394549,-0.0112124
23,45,-1.0472,-0.698132,-0.174533,-0.174533,-1.03305,-0.688642,-0.158751,-0.174084,-1.6972,-0.379597,-0.394549,-0.0112124
23,45,-1.0472,-0.698132,-0.174533,-0.174533,-1.03305,-0.688642,-0.158751,-0.174084,-1.6972,-0.379597,-0.394549,-0.0112124
23,45,-1.0472,-0.698132,-0.174533,-0.174533,-1.03305,-0.688642,-0.158751,-0.174084,-1.6972,-0.379597,-0.394549,-0.0112124
23,45,-1.0472,-0.698132,-0.174533,-0.174533,-1.03305,-0.688642,-0.158751,-0.174084,-1.6972,-0.379597,-0.394549,-0.0112124
23,45,-1.0472,-0.698132,-0.174533,-0.174533,-1.03305,-0.688642,-0.158751,-0.174084,-1.6972,-0.379597,-0.394549,-0.0112124
23,45,-1.0472,-0.698132,-0.174533,-0.174533,-1.03305,-0.688642,-0.158751,-0.174084,-1.6972,-0.379597,-0.394549,-0.0112124
23,45,-1.0472,-0.698132,-0.174533,-0.174533,-1.03305,-0.688642,-0.158811,-0.174065,-1.6972,-0.379597,-0.39306,-0.011705
23,45,-1.0472,-0.698132,-0.174533,-0.174533,-1.03305,-0.688642,-0.158811,-0.174065,-1.6972,-0.379597,-0.39306,-0.011705
23,45,-1.0472,-0.698132,-0.174533,-0.174533,-1.03305,-0.688642,-0.158811,-0.174065,-1.6972,-0.379597,-0.39306,-0.011705
23,45,-1.0472,-0.698132,-0.174533,-0.174533,-1.03305,-0.688642,-0.158811,-0.174065,-1.6972,-0.379597,-0.39306,-0.011705
23,45,-1.0472,-0.698132,-0.174533,-0.174533,-1.03305,-0.688642,-0.158811,-0.174065,-1.6972,-0.379597,-0.39306,-0.011705
23,45,-1.0472,-0.698132,-0.174533,-0.174533,-1.03305,-0.688642,-0.158811,-0.174065,-1.6972,-0.379597,-0.39306,-0.011705
23,45,-1.0472,-0.698132,-0.174533,-0.174533,-1.03305,-0.688642,-0.158811,-0.174065,-1.6972,-0.379597,-0.39306,-0.011705
23,45,-1.0472,-0.698132,-0.174533,-0.174533,-1.03305,-0.688642,-0.158811,-0.174065,-1.6972,-0.379597,-0.39306,-0.011705
23,45,-1.0472,-0.698132,-0.174533,-0.174533,-1.03305,-0.688642,-0.158811,-0.174065,-1.6972,-0.379597,-0.39306,-0.011705
23,45,-1.0472,-0.698132,-0.174533,-0.174533,-1.03305,-0.688642,-0.158811,-0.174065,-1.6972,-0.379597,-0.39306,-0.011705
23,45,-1.0472,-0.698132,-0.174533,-0.174533,-1.03305,-0.688642,-0.158811,-0.174065,-1.6972,-0.379597,-0.39306,-0.011705
23,45,-1.0472,-0.698132,-0.174533,-0.174533,-1.03305,-0.688642,-0.158811,-0.174065,-1.6972,-0.379597,-0.39306,-0.011705
23,45,-1.0472,-0.698132,-0.174533,-0.174533,-1.03305,-0.688642,-0.158811,-0.174065,-1.6972,-0.379597,-0.39306,-0.011705
23,45,-1.0472,-0.698132,-0.174533,-0.174533,-1.03305,-0.688642,-0.158811,-0.174065,-1.6972,-0.379597,-0.39306,-0.011705
23,45,-1.0472,-0.698132,-0.174533,-0.174533,-1.03305,-0.688642,-0.158811,-0.174065,-1.6972,-0.379597,-0.39306,-0.011705
23,45,-1.0472,-0.698132,-0.174533,-0.174533,-1.03305,-0.688642,-0.158811,-0.174065,-1.6972,-0.379597,-0.39306,-0.011705
23,45,-1.0472,-0.698132,-0.174533,-0.174533,-1.03305,-0.688642,-0.158811,-0.174065,-1.6972,-0.379597,-0.39306,-0.011705
23,45,-1.0472,-0.698132,-0.174533,-0.174533,-1.03305,-0.688642,-0.158811,-0.174065,-1.6972,-0.379597,-0.39306,-0.011705
23,45,-1.0472,-0.698132,-0.174533,-0.174533,-1.03305,-0.688642,-0.158811,-0.174065,-1.6972,-0.379597,-0.39306,-0.011705
23,45,-1.0472,-0.698132,-0.174533,-0.174533,-1.03305,-0.688642,-0.158811,-0.174065,-1.6972,-0.379597,-0.39306,-0.011705
23,45,-1.0472,-0.698132,-0.174533,-0.174533,-1.03305,-0.688642,-0.158811,-0.174065,-1.6972,-0.379597,-0.39306,-0.011705
23,45,-1.0472,-0.698132,-0.174533,-0.174533,-1.03305,-0.688642,-0.158811,-0.174065,-1.6972,-0.379597,-0.39306,-0.011705
23,45,-1.0472,-0.698132,-0.174533,-0.174533,-1.03305,-0.688642,-0.158811,-0.174065,-1.6972,-0.379597,-0.39306,-0.011705
23,45,-1.0472,-0.698132,-0.174533,-0.174533,-1.03305,-0.688642,-0.158811,-0.174065,-1.6972,-0.379597,-0.39306,-0.011705
23,45,-1.0472,-0.698132,-0.174533,-0.174533,-1.03305,-0.688642,-0.158811,-0.174065,-1.6972,-0.379597,-0.39306,-0.011705
23,45,-1.0472,-0.698132,-0.174533,-0.174533,-1.03305,-0.688642,-0.158811,-0.174065,-1.6972,-0.379597,-0.39306,-0.011705
23,45,-1.0472,-0.698132,-0.174533,-0.174533,-1.03305,-0.688642,-0.158811,-0.174065,-1.6972,-0.379597,-0.39306,-0.011705
23,45,-1.0472,-0.698132,-0.174533,-0.174533,-1.03305,-0.688642,-0.158811,-0.174065,-1.6972,-0.379597,-0.39306,-0.011705
23,45,-1.0472,-0.698132,-0.174533,-0.174533,-1.03305,-0.688642,-0.158811,-0.174065,-1.6972,-0.379597,-0.39306,-0.011705
23,45,-1.0472,-0.698132,-0.174533,-0.174533,-1.03305,-0.688642,-0.158811,-0.174065,-1.6972,-0.379597,-0.39306,-0.011705
23,45,-1.0472,-0.698132,-0.174533,-0.174533,-1.03305,-0.688642,-0.158811,-0.174065,-1.6972,-0.379597,-0.39306,-0.011705
23,45,-1.0472,-0.698132,-0.174533,-0.174533,-1.03305,-0.688642,-0.158808,-0.174005,-1.6972,-0.379597,-0.393115,-0.0131928
23,45,-1.0472,-0.698132,-0.174533,-0.174533,-1.03305,-0.688642,-0.158808,-0.174005,-1.6972,-0.379597,-0.393115,-0.0131928
23,45,-1.0472,-0.698132,-0.174533,-0.174533,-1.03305,-0.688642,-0.158808,-0.174005,-1.6972,-0.379597,-0.393115,-0.0131928
23,45,-1.0472,-0.698132,-0.174533,-0.174533,-1.03305,-0.688642,-0.158808,-0.174005,-1.6972,-0.379597,-0.393115,-0.0131928
23,45,-1.0472,-0.698132,-0.174533,-0.174533,-1.03305,-0.688642,-0.158808,-0.174005,-1.6972,-0.379597,-0.393115,-0.0131928
23,45,-1.0472,-0.698132,-0.174533,-0.174533,-1.03305,-0.688642,-0.158808,-0.174005,-1.6972,-0.379597,-0.393115,-0.0131928
23,45,-1.0472,-0.698132,-0.174533,-0.174533,-1.03305,-0.688642,-0.158808,-0.174005,-1.6972,-0.379597,-0.393115,-0.0131928
23,45,-1.0472,-0.698132,-0.174533,-0.174533,-1.03305,-0.688642,-0.158808,-0.174005,-1.6972,-0.379597,-0.393115,-0.0131928
23,45,-1.0472,-0.698132,-0.174533,-0.174533,-1.03305,-0.688642,-0.158808,-0.174005,-1.6972,-0.379597,-0.393115,-0.0131928
23,45,-1.0472,-0.698132,-0.174533,-0.174533,-1.03305,-0.688642,-0.158808,-0.174005,-1.6972,-0.379597,-0.393115,-0.0131928
23,45,-1.0472,-0.698132,-0.174533,-0.174533,-1.03305,-0.688642,-0.158808,-0.174005,-1.6972,-0.379597,-0.393115,-0.0131928
23,45,-1.0472,-0.698132,-0.174533,-0.174533,-1.03305,-0.688642,-0.158808,-0.174005,-1.6972,-0.379597,-0.393115,-0.0131928
23,45,-1.0472,-0.698132,-0.174533,-0.174533,-1.03305,-0.688642,-0.158808,-0.174005,-1.6972,-0.379597,-0.393115,-0.0131928
23,45,-1.0472,-0.698132,-0.174533,-0.174533,-1.03305,-0.688642,-0.158808,-0.174005,-1.6972,-0.379597,-0.393115,-0.0131928
23,45,-1.0472,-0.698132,-0.174533,-0.174533,-1.03305,-0.688642,-0.158808,-0.174005,-1.6972,-0.379597,-0.393115,-0.0131928
23,45,-1.0472,-0.698132,-0.174533,-0.174533,-1.03305,-0.688642,-0.158808,-0.174005,-1.6972,-0.379597,-0.393115,-0.0131928
23,45,-1.0472,-0.698132,-0.174533,-0.174533,-1.03305,-0.688642,-0.158808,-0.174005,-1.6972,-0.379597,-0.393115,-0.0131928
23,45,-1.0472,-0.698132,-0.174533,-0.174533,-1.03305,-0.688642,-0.158808,-0.174005,-1.6972,-0.379597,-0.393115,-0.0131928
23,45,-1.0472,-0.698132,-0.174533,-0.174533,-1.03305,-0.688642,-0.158808,-0.174005,-1.6972,-0.379597,-0.393115,-0.0131928
23,45,-1.0472,-0.698132,-0.174533,-0.174533,-1.03305,-0.688642,-0.158808,-0.174005,-1.6972,-0.379597,-0.393115,-0.0131928
23,45,-1.0472,-0.698132,-0.174533,-0.174533,-1.03305,-0.688642,-0.158808,-0.174005,-1.6972,-0.379597,-0.393115,-0.0131928
23,45,-1.0472,-0.698132,-0.174533,-0.174533,-1.03305,-0.688642,-0.158808,-0.174005,-1.6972,-0.379597,-0.393115,-0.0131928
23,45,-1.0472,-0.698132,-0.174533,-0.174533,-1.03305,-0.688642,-0.158808,-0.174005,-1.6972,-0.379597,-0.393115,-0.0131928
23,45,-1.0472,-0.698132,-0.174533,-0.174533,-1.03305,-0.688642,-0.158808,-0.174005,-1.6972,-0.379597,-0.393115,-0.0131928
23,45,-1.0472,-0.698132,-0.174533,-0.174533,-1.03305,-0.688642,-0.158808,-0.174005,-1.6972,-0.379597,-0.393115,-0.0131928
23,45,-1.0472,-0.698132,-0.174533,-0.174533,-1.03305,-0.688642,-0.158808,-0.174005,-1.6972,-0.379597,-0.393115,-0.0131928
23,45,-1.0472,-0.698132,-0.174533,-0.174533,-1.03305,-0.688642,-0.158808,-0.174005,-1.6972,-0.379597,-0.393115,-0.0131928
23,45,-1.0472,-0.698132,-0.174533,-0.174533,-1.03305,-0.688642,-0.158808,-0.174005,-1.6972,-0.379597,-0.393115,-0.0131928
23,45,-1.0472,-0.698132,-0.174533,-0.174533,-1.03305,-0.688642,-0.158808,-0.174005,-1.6972,-0.379597,-0.393115,-0.0131928
23,45,-1.0472,-0.698132,-0.174533,-0.174533,-1.03305,-0.688642,-0.158808,-0.174005,-1.6972,-0.379597,-0.393115,-0.0131928
23,45,-1.0472,-0.698132,-0.174533,-0.174533,-1.03305,-0.688642,-0.158808,-0.174005,-1.6972,-0.379597,-0.393115,-0.0131928
23,45,-1.0472,-0.698132,-0.174533,-0.174533,-1.03305,-0.688642,-0.158808,-0.174005,-1.6972,-0.379597,-0.393115,-0.0131928
23,45,-1.0472,-0.698132,-0.174533,-0.174533,-1.03305,-0.688642,-0.158808,-0.174005,-1.6972,-0.379597,-0.393115,-0.0131928
23,45,-1.0472,-0.698132,-0.174533,-0.174533,-1.03305,-0.688642,-0.158808,-0.174005,-1.6972,-0.379597,-0.393115,-0.0131928
23,45,-1.0472,-0.698132,-0.174533,-0.174533,-1.03305,-0.688642,-0.158808,-0.174005,-1.6972,-0.379597,-0.393115,-0.0131928
23,45,-1.0472,-0.698132,-0.174533,-0.174533,-1.03305,-0.688642,-0.158808,-0.174005,-1.6972,-0.379597,-0.393115,-0.0131928
23,45,-1.0472,-0.698132,-0.174533,-0.174533,-1.03305,-0.688642,-0.158808,-0.174005,-1.6972,-0.379597,-0.393115,-0.0131928
23,45,-1.0472,-0.698132,-0.174533,-0.174533,-1.03305,-0.688642,-0.158808,-0.174005,-1.6972,-0.379597,-0.393115,-0.0131928
23,45,-1.0472,-0.698132,-0.174533,-0.174533,-1.03305,-0.688642,-0.158808,-0.174005,-1.6972,-0.379597,-0.393115,-0.0131928
23,45,-1.0472,-0.698132,-0.174533,-0.174533,-1.03305,-0.688642,-0.158808,-0.174005,-1.6972,-0.379597,-0.393115,-0.0131928
23,45,-1.0472,-0.698132,-0.174533,-0.174533,-1.03305,-0.688642,-0.158808,-0.174005,-1.6972,-0.379597,-0.393115,-0.0131928
23,45,-1.0472,-0.698132,-0.174533,-0.174533,-1.03305,-0.688642,-0.158808,-0.174005,-1.6972,-0.379597,-0.393115,-0.0131928
23,45,-1.0472,-0.698132,-0.174533,-0.174533,-1.03305,-0.688642,-0.158808,-0.174005,-1.6972,-0.379597,-0.393115,-0.0131928
23,45,-1.0472,-0.698132,-0.174533,-0.174533,-1.03305,-0.688642,-0.158808,-0.174005,-1.6972,-0.379597,-0.393115,-0.0131928
23,45,-1.0472,-0.698132,-0.174533,-0.174533,-1.03305,-0.688642,-0.158808,-0.174005,-1.6972,-0.379597,-0.393115,-0.0131928
23,45,-1.0472,-0.698132,-0.174533,-0.174533,-1.03305,-0.688642,-0.158808,-0.174005,-1.6972,-0.379597,-0.393115,-0.0131928
23,45,-1.0472,-0.698132,-0.174533,-0.174533,-1.03305,-0.688642,-0.158808,-0.174005,-1.6972,-0.379597,-0.393115,-0.0131928
23,45,-1.0472,-0.698132,-0.174533,-0.174533,-1.03305,-0.688642,-0.158808,-0.174005,-1.6972,-0.379597,-0.393115,-0.0131928
23,45,-1.0472,-0.698132,-0.174533,-0.174533,-1.03305,-0.688642,-0.158808,-0.174005,-1.6972,-0.379597,-0.393115,-0.0131928
23,45,-1.0472,-0.698132,-0.174533,-0.174533,-1.03305,-0.688642,-0.158808,-0.174005,-1.6972,-0.379597,-0.393115,-0.0131928
23,45,-1.0472,-0.698132,-0.174533,-0.174533,-1.03305,-0.688642,-0.158808,-0.174005,-1.6972,-0.379597,-0.393115,-0.0131928
23,45,-1.0472,-0.698132,-0.174533,-0.174533,-1.03305,-0.688642,-0.158808,-0.174005,-1.6972,-0.379597,-0.393115,-0.0131928
23,45,-1.0472,-0.698132,-0.174533,-0.174533,-1.03305,-0.688642,-0.158808,-0.174005,-1.6972,-0.379597,-0.393115,-0.0131928
23,45,-1.0472,-0.698132,-0.174533,-0.174533,-1.03305,-0.688642,-0.158808,-0.174005,-1.6972,-0.379597,-0.393115,-0.0131928
23,45,-1.0472,-0.698132,-0.174533,-0.174533,-1.03305,-0.688642,-0.158808,-0.174005,-1.6972,-0.379597,-0.393115,-0.0131928
23,45,-1.0472,-0.698132,-0.174533,-0.174533,-1.03305,-0.688642,-0.158808,-0.174005,-1.6972,-0.379597,-0.393115,-0.0131928
23,45,-1.0472,-0.698132,-0.174533,-0.174533,-1.03305,-0.688642,-0.158808,-0.174005,-1.6972,-0.379597,-0.393115,-0.0131928
23,45,-1.0472,-0.698132,-0.174533,-0.174533,-1.03305,-0.688642,-0.158808,-0.174005,-1.6972,-0.379597,-0.393115,-0.0131928
23,45,-1.0472,-0.698132,-0.174533,-0.174533,-1.03305,-0.688642,-0.158808,-0.174005,-1.6972,-0.379597,-0.393115,-0.0131928
23,45,-1.0472,-0.698132,-0.174533,-0.174533,-1.03305,-0.688642,-0.158808,-0.174005,-1.6972,-0.379597,-0.393115,-0.0131928
23,45,-1.0472,-0.698132,-0.174533,-0.174533,-1.03305,-0.688642,-0.158808,-0.174005,-1.6972,-0.379597,-0.393115,-0.0131928
23,45,-1.0472,-0.698132,-0.174533,-0.174533,-1.03305,-0.688642,-0.158808,-0.174005,-1.6972,-0.379597,-0.393115,-0.0131928
23,45,-1.0472,-0.698132,-0.174533,-0.174533,-1.03305,-0.688642,-0.158808,-0.174005,-1.6972,-0.379597,-0.393115,-0.0131928
23,45,-1.0472,-0.698132,-0.174533,-0.174533,-1.03305,-0.688642,-0.158808,-0.174005,-1.6972,-0.379597,-0.393115,-0.0131928
23,45,-1.0472,-0.698132,-0.174533,-0.174533,-1.03305,-0.688642,-0.158808,-0.174005,-1.6972,-0.379597,-0.393115,-0.0131928
23,45,-1.0472,-0.698132,-0.174533,-0.174533,-1.03305,-0.688642,-0.158808,-0.174005,-1.6972,-0.379597,-0.393115,-0.0131928
23,45,-1.0472,-0.698132,-0.174533,-0.174533,-1.03305,-0.688642,-0.158808,-0.174005,-1.6972,-0.379597,-0.393115,-0.0131928
23,45,-1.0472,-0.698132,-0.174533,-0.174533,-1.03305,-0.688642,-0.158808,-0.174005,-1.6972,-0.379597,-0.393115,-0.0131928
23,45,-1.0472,-0.698132,-0.174533,-0.174533,-1.03305,-0.688642,-0.158808,-0.174005,-1.6972,-0.379597,-0.393115,-0.0131928
23,45,-1.0472,-0.698132,-0.174533,-0.174533,-1.03305,-0.688642,-0.158808,-0.174005,-1.6972,-0.379597,-0.393115,-0.0131928
23,45,-1.0472,-0.698132,-0.174533,-0.174533,-1.03305,-0.688642,-0.158808,-0.174005,-1.6972,-0.379597,-0.393115,-0.0131928
23,45,-1.0472,-0.698132,-0.174533,-0.174533,-1.03305,-0.688642,-0.158808,-0.174005,-1.6972,-0.379597,-0.393115,-0.0131928
23,45,-1.0472,-0.698132,-0.174533,-0.174533,-1.03305,-0.688642,-0.158808,-0.174005,-1.6972,-0.379597,-0.393115,-0.0131928
23,45,-1.0472,-0.698132,-0.174533,-0.174533,-1.03305,-0.688642,-0.158808,-0.174005,-1.6972,-0.379597,-0.393115,-0.0131928
23,45,-1.0472,-0.698132,-0.174533,-0.174533,-1.03305,-0.688642,-0.158808,-0.174005,-1.6972,-0.379597,-0.393115,-0.0131928
23,45,-1.0472,-0.698132,-0.174533,-0.174533,-1.03305,-0.688642,-0.158808,-0.174005,-1.6972,-0.379597,-0.393115,-0.0131928
23,45,-1.0472,-0.698132,-0.174533,-0.174533,-1.03305,-0.688642,-0.158808,-0.174005,-1.6972,-0.379597,-0.393115,-0.0131928
23,45,-1.0472,-0.698132,-0.174533,-0.174533,-1.03305,-0.688642,-0.158808,-0.174005,-1.6972,-0.379597,-0.393115,-0.0131928
23,45,-1.0472,-0.698132,-0.174533,-0.174533,-1.03305,-0.688642,-0.158808,-0.174005,-1.6972,-0.379597,-0.393115,-0.0131928
23,45,-1.0472,-0.698132,-0.174533,-0.174533,-1.03305,-0.688642,-0.158808,-0.174005,-1.6972,-0.379597,-0.393115,-0.0131928
23,45,-1.0472,-0.698132,-0.174533,-0.174533,-1.03305,-0.688642,-0.158808,-0.174005,-1.6972,-0.379597,-0.393115,-0.0131928
23,45,-1.0472,-0.698132,-0.174533,-0.174533,-1.03305,-0.688642,-0.158808,-0.174005,-1.6972,-0.379597,-0.393115,-0.0131928
23,45,-1.0472,-0.698132,-0.174533,-0.174533,-1.03305,-0.688642,-0.158808,-0.174005,-1.6972,-0.379597,-0.393115,-0.0131928
23,45,-1.0472,-0.698132,-0.174533,-0.174533,-1.03305,-0.688642,-0.158808,-0.174005,-1.6972,-0.379597,-0.393115,-0.0131928
23,45,-1.0472,-0.698132,-0.174533,-0.174533,-1.03305,-0.688642,-0.158808,-0.174005,-1.6972,-0.379597,-0.393115,-0.0131928
23,45,-1.0472,-0.698132,-0.174533,-0.174533,-1.03305,-0.688642,-0.158808,-0.174005,-1.6972,-0.379597,-0.393115,-0.0131928
23,45,-1.0472,-0.698132,-0.174533,-0.174533,-1.03305,-0.688642,-0.158808,-0.174005,-1.6972,-0.379597,-0.393115,-0.0131928
23,45,-1.0472,-0.698132,-0.174533,-0.174533,-1.03305,-0.688642,-0.158808,-0.174005,-1.6972,-0.379597,-0.393115,-0.0131928
23,45,-1.0472,-0.698132,-0.174533,-0.174533,-1.03305,-0.688642,-0.158808,-0.174005,-1.6972,-0.379597,-0.393115,-0.0131928
23,45,-1.0472,-0.698132,-0.174533,-0.174533,-1.03305,-0.688642,-0.158808,-0.174005,-1.6972,-0.379597,-0.393115,-0.0131928
23,45,-1.0472,-0.698132,-0.174533,-0.174533,-1.03305,-0.688642,-0.158808,-0.174005,-1.6972,-0.379597,-0.393115,-0.0131928
23,45,-1.0472,-0.698132,-0.174533,-0.174533,-1.03305,-0.688642,-0.158808,-0.174005,-1.6972,-0.379597,-0.393115,-0.0131928
23,45,-1.0472,-0.698132,-0.174533,-0.174533,-1.03305,-0.688642,-0.158808,-0.174005,-1.6972,-0.379597,-0.393115,-0.0131928
23,45,-1.0472,-0.698132,-0.174533,-0.174533,-1.03305,-0.688642,-0.158808,-0.174005,-1.6972,-0.379597,-0.393115,-0.0131928
23,45,-1.0472,-0.698132,-0.174533,-0.174533,-1.03305,-0.688642,-0.158808,-0.174005,-1.6972,-0.379597,-0.393115,-0.0131928
23,45,-1.0472,-0.698132,-0.174533,-0.174533,-1.03305,-0.688642,-0.158808,-0.174005,-1.6972,-0.379597,-0.393115,-0.0131928
23,45,-1.0472,-0.698132,-0.174533,-0.174533,-1.03305,-0.688642,-0.158808,-0.174005,-1.6972,-0.379597,-0.393115,-0.0131928
23,45,-1.0472,-0.698132,-0.174533,-0.174533,-1.03305,-0.688642,-0.158808,-0.174005,-1.6972,-0.379597,-0.393115,-0.0131928
23,45,-1.0472,-0.698132,-0.174533,-0.174533,-1.03305,-0.688642,-0.158808,-0.174005,-1.6972,-0.379597,-0.393115,-0.0131928
23,45,-1.0472,-0.698132,-0.174533,-0.174533,-1.03305,-0.688642,-0.158808,-0.174005,-1.6972,-0.379597,-0.393115,-0.0131928
23,45,-1.0472,-0.698132,-0.174533,-0.174533,-1.03305,-0.688642,-0.158808,-0.174005,-1.6972,-0.379597,-0.393115,-0.0131928
23,45,-1.0472,-0.698132,-0.174533,-0.174533,-1.03305,-0.688642,-0.158808,-0.174005,-1.6972,-0.379597,-0.393115,-0.0131928
23,45,-1.0472,-0.698132,-0.174533,-0.174533,-1.03305,-0.688642,-0.158808,-0.174005,-1.6972,-0.379597,-0.393115,-0.0131928
23,45,-1.0472,-0.698132,-0.174533,-0.174533,-1.03305,-0.688642,-0.158808,-0.174005,-1.6972,-0.379597,-0.393115,-0.0131928
23,45,-1.0472,-0.698132,-0.174533,-0.174533,-1.03305,-0.688642,-0.158808,-0.174005,-1.6972,-0.379597,-0.393115,-0.0131928
23,45,-1.0472,-0.698132,-0.174533,-0.174533,-1.03305,-0.688642,-0.158808,-0.174005,-1.6972,-0.379597,-0.393115,-0.0131928
23,45,-1.0472,-0.698132,-0.174533,-0.174533,-1.03305,-0.688642,-0.158808,-0.174005,-1.6972,-0.379597,-0.393115,-0.0131928
23,45,-1.0472,-0.698132,-0.174533,-0.174533,-1.03305,-0.688642,-0.158808,-0.174005,-1.6972,-0.379597,-0.393115,-0.0131928
23,45,-1.0472,-0.698132,-0.174533,-0.174533,-1.03305,-0.688642,-0.158808,-0.174005,-1.6972,-0.379597,-0.393115,-0.0131928
23,45,-1.0472,-0.698132,-0.174533,-0.174533,-1.03305,-0.688642,-0.158808,-0.174005,-1.6972,-0.379597,-0.393115,-0.0131928
23,45,-1.0472,-0.698132,-0.174533,-0.174533,-1.03305,-0.688642,-0.158808,-0.174005,-1.6972,-0.379597,-0.393115,-0.0131928
23,45,-1.0472,-0.698132,-0.174533,-0.174533,-1.03305,-0.688642,-0.158808,-0.174005,-1.6972,-0.379597,-0.393115,-0.0131928
23,45,-1.0472,-0.698132,-0.174533,-0.174533,-1.03305,-0.688642,-0.158808,-0.174005,-1.6972,-0.379597,-0.393115,-0.0131928
23,45,-1.0472,-0.698132,-0.174533,-0.174533,-1.03305,-0.688642,-0.158808,-0.174005,-1.6972,-0.379597,-0.393115,-0.0131928
23,45,-1.0472,-0.698132,-0.174533,-0.174533,-1.03305,-0.688642,-0.158808,-0.174005,-1.6972,-0.379597,-0.393115,-0.0131928
23,45,-1.0472,-0.698132,-0.174533,-0.174533,-1.03305,-0.688642,-0.158808,-0.174005,-1.6972,-0.379597,-0.393115,-0.0131928
23,45,-1.0472,-0.698132,-0.174533,-0.174533,-1.03305,-0.688642,-0.158808,-0.174005,-1.6972,-0.379597,-0.393115,-0.0131928
23,45,-1.0472,-0.698132,-0.174533,-0.174533,-1.03305,-0.688642,-0.158808,-0.174005,-1.6972,-0.379597,-0.393115,-0.0131928
23,45,-1.0472,-0.698132,-0.174533,-0.174533,-1.03305,-0.688642,-0.158808,-0.174005,-1.6972,-0.379597,-0.393115,-0.0131928
23,45,-1.0472,-0.698132,-0.174533,-0.174533,-1.03305,-0.688642,-0.158808,-0.174005,-1.6972,-0.379597,-0.393115,-0.0131928
23,45,-1.0472,-0.698132,-0.174533,-0.174533,-1.03305,-0.688642,-0.158808,-0.174005,-1.6972,-0.379597,-0.393115,-0.0131928
23,45,-1.0472,-0.698132,-0.174533,-0.174533,-1.03305,-0.688642,-0.158808,-0.174005,-1.6972,-0.379597,-0.393115,-0.0131928
23,45,-1.0472,-0.698132,-0.174533,-0.174533,-1.03305,-0.688642,-0.158808,-0.174005,-1.6972,-0.379597,-0.393115,-0.0131928
23,45,-1.0472,-0.698132,-0.174533,-0.174533,-1.03305,-0.688642,-0.158808,-0.174005,-1.6972,-0.379597,-0.393115,-0.0131928
23,45,-1.0472,-0.698132,-0.174533,-0.174533,-1.03305,-0.688642,-0.158808,-0.174005,-1.6972,-0.379597,-0.393115,-0.0131928
23,45,-1.0472,-0.698132,-0.174533,-0.174533,-1.03305,-0.688642,-0.158808,-0.174005,-1.6972,-0.379597,-0.393115,-0.0131928
23,45,-1.0472,-0.698132,-0.174533,-0.174533,-1.03305,-0.688642,-0.158808,-0.174005,-1.6972,-0.379597,-0.393115,-0.0131928
23,45,-1.0472,-0.698132,-0.174533,-0.174533,-1.03305,-0.688642,-0.158808,-0.174005,-1.6972,-0.379597,-0.393115,-0.0131928
23,45,-1.0472,-0.698132,-0.174533,-0.174533,-1.03305,-0.688642,-0.158808,-0.174005,-1.6972,-0.379597,-0.393115,-0.0131928
23,45,-1.0472,-0.698132,-0.174533,-0.174533,-1.03305,-0.688642,-0.158808,-0.174005,-1.6972,-0.379597,-0.393115,-0.0131928
23,45,-1.0472,-0.698132,-0.174533,-0.174533,-1.03305,-0.688642,-0.158808,-0.174005,-1.6972,-0.379597,-0.393115,-0.0131928
23,45,-1.0472,-0.698132,-0.174533,-0.174533,-1.03305,-0.688642,-0.158808,-0.174005,-1.6972,-0.379597,-0.393115,-0.0131928
23,45,-1.0472,-0.698132,-0.174533,-0.174533,-1.03305,-0.688642,-0.158808,-0.174005,-1.6972,-0.379597,-0.393115,-0.0131928
23,45,-1.0472,-0.698132,-0.174533,-0.174533,-1.03305,-0.688642,-0.158808,-0.174005,-1.6972,-0.379597,-0.393115,-0.0131928
23,45,-1.0472,-0.698132,-0.174533,-0.174533,-1.03305,-0.688642,-0.158808,-0.174005,-1.6972,-0.379597,-0.393115,-0.0131928
23,45,-1.0472,-0.698132,-0.174533,-0.174533,-1.03305,-0.688642,-0.158808,-0.174005,-1.6972,-0.379597,-0.393115,-0.0131928
23,45,-1.0472,-0.698132,-0.174533,-0.174533,-1.03305,-0.688642,-0.158808,-0.174005,-1.6972,-0.379597,-0.393115,-0.0131928
23,45,-1.0472,-0.698132,-0.174533,-0.174533,-1.03305,-0.688642,-0.158808,-0.174005,-1.6972,-0.379597,-0.393115,-0.0131928
23,45,-1.0472,-0.698132,-0.174533,-0.174533,-1.03305,-0.688642,-0.158808,-0.174005,-1.6972,-0.379597,-0.393115,-0.0131928
23,45,-1.0472,-0.698132,-0.174533,-0.174533,-1.03305,-0.688642,-0.158808,-0.174005,-1.6972,-0.379597,-0.393115,-0.0131928
23,45,-1.0472,-0.698132,-0.174533,-0.174533,-1.03305,-0.688642,-0.158808,-0.174005,-1.6972,-0.379597,-0.393115,-0.0131928
23,45,-1.0472,-0.698132,-0.174533,-0.174533,-1.03305,-0.688642,-0.158808,-0.174005,-1.6972,-0.379597,-0.393115,-0.0131928
23,45,-1.0472,-0.698132,-0.174533,-0.174533,-1.03305,-0.688642,-0.158808,-0.174005,-1.6972,-0.379597,-0.393115,-0.0131928
23,45,-1.0472,-0.698132,-0.174533,-0.174533,-1.03305,-0.688642,-0.158808,-0.174005,-1.6972,-0.379597,-0.393115,-0.0131928
23,45,-1.0472,-0.698132,-0.174533,-0.174533,-1.03305,-0.688642,-0.158808,-0.174005,-1.6972,-0.379597,-0.393115,-0.0131928
23,45,-1.0472,-0.698132,-0.174533,-0.174533,-1.03305,-0.688642,-0.158808,-0.174005,-1.6972,-0.379597,-0.393115,-0.0131928
23,45,-1.0472,-0.698132,-0.174533,-0.174533,-1.03305,-0.688642,-0.158808,-0.174005,-1.6972,-0.379597,-0.393115,-0.0131928
23,45,-1.0472,-0.698132,-0.174533,-0.174533,-1.03305,-0.688642,-0.158808,-0.174005,-1.6972,-0.379597,-0.393115,-0.0131928
23,45,-1.0472,-0.698132,-0.174533,-0.174533,-1.03305,-0.688642,-0.158808,-0.174005,-1.6972,-0.379597,-0.393115,-0.0131928
23,45,-1.0472,-0.698132,-0.174533,-0.174533,-1.03305,-0.688642,-0.158808,-0.174005,-1.6972,-0.379597,-0.393115,-0.0131928
23,45,-1.0472,-0.698132,-0.174533,-0.174533,-1.03305,-0.688642,-0.158808,-0.174005,-1.6972,-0.379597,-0.393115,-0.0131928
23,45,-1.0472,-0.698132,-0.174533,-0.174533,-1.03305,-0.688642,-0.158808,-0.174005,-1.6972,-0.379597,-0.393115,-0.0131928
23,45,-1.0472,-0.698132,-0.174533,-0.174533,-1.03305,-0.688642,-0.158868,-0.173986,-1.6972,-0.379597,-0.391627,-0.0136854
23,45,-1.0472,-0.698132,-0.174533,-0.174533,-1.03305,-0.688642,-0.158868,-0.173986,-1.6972,-0.379597,-0.391627,-0.0136854
23,45,-1.0472,-0.698132,-0.174533,-0.174533,-1.03305,-0.688642,-0.158868,-0.173986,-1.6972,-0.379597,-0.391627,-0.0136854
23,45,-1.0472,-0.698132,-0.174533,-0.174533,-1.03305,-0.688642,-0.158868,-0.173986,-1.6972,-0.379597,-0.391627,-0.0136854
23,45,-1.0472,-0.698132,-0.174533,-0.174533,-1.03305,-0.688642,-0.158868,-0.173986,-1.6972,-0.379597,-0.391627,-0.0136854
23,45,-1.0472,-0.698132,-0.174533,-0.174533,-1.03305,-0.688642,-0.158868,-0.173986,-1.6972,-0.379597,-0.391627,-0.0136854
23,45,-1.0472,-0.698132,-0.174533,-0.174533,-1.03305,-0.688642,-0.158868,-0.173986,-1.6972,-0.379597,-0.391627,-0.0136854
23,45,-1.0472,-0.698132,-0.174533,-0.174533,-1.03305,-0.688642,-0.158868,-0.173986,-1.6972,-0.379597,-0.391627,-0.0136854
23,45,-1.0472,-0.698132,-0.174533,-0.174533,-1.03305,-0.688642,-0.158868,-0.173986,-1.6972,-0.379597,-0.391627,-0.0136854
23,45,-1.0472,-0.698132,-0.174533,-0.174533,-1.03305,-0.688642,-0.158868,-0.173986,-1.6972,-0.379597,-0.391627,-0.0136854
23,45,-1.0472,-0.698132,-0.174533,-0.174533,-1.03305,-0.688642,-0.158868,-0.173986,-1.6972,-0.379597,-0.391627,-0.0136854
23,45,-1.0472,-0.698132,-0.174533,-0.174533,-1.03305,-0.688642,-0.158868,-0.173986,-1.6972,-0.379597,-0.391627,-0.0136854
23,45,-1.0472,-0.698132,-0.174533,-0.174533,-1.03305,-0.688642,-0.158868,-0.173986,-1.6972,-0.379597,-0.391627,-0.0136854
23,45,-1.0472,-0.698132,-0.174533,-0.174533,-1.03305,-0.688642,-0.158868,-0.173986,-1.6972,-0.379597,-0.391627,-0.0136854
23,45,-1.0472,-0.698132,-0.174533,-0.174533,-1.03305,-0.688642,-0.158868,-0.173986,-1.6972,-0.379597,-0.391627,-0.0136854
23,45,-1.0472,-0.698132,-0.174533,-0.174533,-1.03305,-0.688642,-0.158868,-0.173986,-1.6972,-0.379597,-0.391627,-0.0136854
23,45,-1.0472,-0.698132,-0.174533,-0.174533,-1.03305,-0.688642,-0.158868,-0.173986,-1.6972,-0.379597,-0.391627,-0.0136854
23,45,-1.0472,-0.698132,-0.174533,-0.174533,-1.03305,-0.688642,-0.158868,-0.173986,-1.6972,-0.379597,-0.391627,-0.0136854
23,45,-1.0472,-0.698132,-0.174533,-0.174533,-1.03305,-0.688642,-0.158868,-0.173986,-1.6972,-0.379597,-0.391627,-0.0136854
23,45,-1.0472,-0.698132,-0.174533,-0.174533,-1.03305,-0.688642,-0.158868,-0.173986,-1.6972,-0.379597,-0.391627,-0.0136854
23,45,-1.0472,-0.698132,-0.174533,-0.174533,-1.03305,-0.688642,-0.158868,-0.173986,-1.6972,-0.379597,-0.391627,-0.0136854
23,45,-1.0472,-0.698132,-0.174533,-0.174533,-1.03305,-0.688642,-0.158868,-0.173986,-1.6972,-0.379597,-0.391627,-0.0136854
23,45,-1.0472,-0.698132,-0.174533,-0.174533,-1.03305,-0.688642,-0.158868,-0.173986,-1.6972,-0.379597,-0.391627,-0.0136854
23,45,-1.0472,-0.698132,-0.174533,-0.174533,-1.03305,-0.688642,-0.158868,-0.173986,-1.6972,-0.379597,-0.391627,-0.0136854
23,45,-1.0472,-0.698132,-0.174533,-0.174533,-1.03305,-0.688642,-0.158868,-0.173986,-1.6972,-0.379597,-0.391627,-0.0136854
23,45,-1.0472,-0.698132,-0.174533,-0.174533,-1.03305,-0.688642,-0.158868,-0.173986,-1.6972,-0.379597,-0.391627,-0.0136854
23,45,-1.0472,-0.698132,-0.174533,-0.174533,-1.03305,-0.688642,-0.158868,-0.173986,-1.6972,-0.379597,-0.391627,-0.0136854
23,45,-1.0472,-0.698132,-0.174533,-0.174533,-1.03305,-0.688642,-0.158868,-0.173986,-1.6972,-0.379597,-0.391627,-0.0136854
23,45,-1.0472,-0.698132,-0.174533,-0.174533,-1.03305,-0.688642,-0.158868,-0.173986,-1.6972,-0.379597,-0.391627,-0.0136854
23,45,-1.0472,-0.698132,-0.174533,-0.174533,-1.03305,-0.688642,-0.158868,-0.173986,-1.6972,-0.379597,-0.391627,-0.0136854
23,45,-1.0472,-0.698132,-0.174533,-0.174533,-1.03305,-0.688642,-0.158868,-0.173986,-1.6972,-0.379597,-0.391627,-0.0136854
23,45,-1.0472,-0.698132,-0.174533,-0.174533,-1.03305,-0.688642,-0.158868,-0.173986,-1.6972,-0.379597,-0.391627,-0.0136854
23,45,-1.0472,-0.698132,-0.174533,-0.174533,-1.03305,-0.688642,-0.158868,-0.173986,-1.6972,-0.379597,-0.391627,-0.0136854
23,45,-1.0472,-0.698132,-0.174533,-0.174533,-1.03305,-0.688642,-0.158868,-0.173986,-1.6972,-0.379597,-0.391627,-0.0136854
23,45,-1.0472,-0.698132,-0.174533,-0.174533,-1.03305,-0.688642,-0.158868,-0.173986,-1.6972,-0.379597,-0.391627,-0.0136854
23,45,-1.0472,-0.698132,-0.174533,-0.174533,-1.03305,-0.688642,-0.158868,-0.173986,-1.6972,-0.379597,-0.391627,-0.0136854
23,45,-1.0472,-0.698132,-0.174533,-0.174533,-1.03305,-0.688642,-0.158868,-0.173986,-1.6972,-0.379597,-0.391627,-0.0136854
23,45,-1.0472,-0.698132,-0.174533,-0.174533,-1.03305,-0.688642,-0.158868,-0.173986,-1.6972,-0.379597,-0.391627,-0.0136854
23,45,-1.0472,-0.698132,-0.174533,-0.174533,-1.03305,-0.688642,-0.158868,-0.173986,-1.6972,-0.379597,-0.391627,-0.0136854
23,45,-1.0472,-0.698132,-0.174533,-0.174533,-1.03305,-0.688642,-0.158868,-0.173986,-1.6972,-0.379597,-0.391627,-0.0136854
23,45,-1.0472,-0.698132,-0.174533,-0.174533,-1.03305,-0.688642,-0.158868,-0.173986,-1.6972,-0.379597,-0.391627,-0.0136854
23,45,-1.0472,-0.698132,-0.174533,-0.174533,-1.03305,-0.688642,-0.158868,-0.173986,-1.6972,-0.379597,-0.391627,-0.0136854
23,45,-1.0472,-0.698132,-0.174533,-0.174533,-1.03305,-0.688642,-0.158868,-0.173986,-1.6972,-0.379597,-0.391627,-0.0136854
23,45,-1.0472,-0.698132,-0.174533,-0.174533,-1.03305,-0.688642,-0.158868,-0.173986,-1.6972,-0.379597,-0.391627,-0.0136854
23,45,-1.0472,-0.698132,-0.174533,-0.174533,-1.03305,-0.688642,-0.158868,-0.173986,-1.6972,-0.379597,-0.391627,-0.0136854
23,45,-1.0472,-0.698132,-0.174533,-0.174533,-1.03305,-0.688642,-0.158868,-0.173986,-1.6972,-0.379597,-0.391627,-0.0136854
23,45,-1.0472,-0.698132,-0.174533,-0.174533,-1.03305,-0.688642,-0.158868,-0.173986,-1.6972,-0.379597,-0.391627,-0.0136854
23,45,-1.0472,-0.698132,-0.174533,-0.174533,-1.03305,-0.688642,-0.158868,-0.173986,-1.6972,-0.379597,-0.391627,-0.0136854
23,45,-1.0472,-0.698132,-0.174533,-0.174533,-1.03305,-0.688642,-0.158868,-0.173986,-1.6972,-0.379597,-0.391627,-0.0136854
23,45,-1.0472,-0.698132,-0.174533,-0.174533,-1.03305,-0.688642,-0.158868,-0.173986,-1.6972,-0.379597,-0.391627,-0.0136854
23,45,-1.0472,-0.698132,-0.174533,-0.174533,-1.03305,-0.688642,-0.158868,-0.173986,-1.6972,-0.379597,-0.391627,-0.0136854
23,45,-1.0472,-0.698132,-0.174533,-0.174533,-1.03305,-0.688642,-0.158868,-0.173986,-1.6972,-0.379597,-0.391627,-0.0136854
23,45,-1.0472,-0.698132,-0.174533,-0.174533,-1.03305,-0.688642,-0.158868,-0.173986,-1.6972,-0.379597,-0.391627,-0.0136854
23,45,-1.0472,-0.698132,-0.174533,-0.174533,-1.03305,-0.688642,-0.158868,-0.173986,-1.6972,-0.379597,-0.391627,-0.0136854
23,45,-1.0472,-0.698132,-0.174533,-0.174533,-1.03305,-0.688642,-0.158868,-0.173986,-1.6972,-0.379597,-0.391627,-0.0136854
23,45,-1.0472,-0.698132,-0.174533,-0.174533,-1.03305,-0.688642,-0.158868,-0.173986,-1.6972,-0.379597,-0.391627,-0.0136854
23,45,-1.0472,-0.698132,-0.174533,-0.174533,-1.03305,-0.688642,-0.158868,-0.173986,-1.6972,-0.379597,-0.391627,-0.0136854
23,45,-1.0472,-0.698132,-0.174533,-0.174533,-1.03305,-0.688642,-0.158868,-0.173986,-1.6972,-0.379597,-0.391627,-0.0136854
23,45,-1.0472,-0.698132,-0.174533,-0.174533,-1.03305,-0.688642,-0.158868,-0.173986,-1.6972,-0.379597,-0.391627,-0.0136854
23,45,-1.0472,-0.698132,-0.174533,-0.174533,-1.03305,-0.688642,-0.158868,-0.173986,-1.6972,-0.379597,-0.391627,-0.0136854
23,45,-1.0472,-0.698132,-0.174533,-0.174533,-1.03305,-0.688642,-0.158868,-0.173986,-1.6972,-0.379597,-0.391627,-0.0136854
23,45,-1.0472,-0.698132,-0.174533,-0.174533,-1.03305,-0.688642,-0.158868,-0.173986,-1.6972,-0.379597,-0.391627,-0.0136854
23,45,-1.0472,-0.698132,-0.174533,-0.174533,-1.03305,-0.688642,-0.158868,-0.173986,-1.6972,-0.379597,-0.391627,-0.0136854
23,45,-1.0472,-0.698132,-0.174533,-0.174533,-1.03305,-0.688642,-0.158868,-0.173986,-1.6972,-0.379597,-0.391627,-0.0136854
23,45,-1.0472,-0.698132,-0.174533,-0.174533,-1.03305,-0.688642,-0.158868,-0.173986,-1.6972,-0.379597,-0.391627,-0.0136854
23,45,-1.0472,-0.698132,-0.174533,-0.174533,-1.03305,-0.688642,-0.158868,-0.173986,-1.6972,-0.379597,-0.391627,-0.0136854
23,45,-1.0472,-0.698132,-0.174533,-0.174533,-1.03305,-0.688642,-0.158868,-0.173986,-1.6972,-0.379597,-0.391627,-0.0136854
23,45,-1.0472,-0.698132,-0.174533,-0.174533,-1.03305,-0.688642,-0.158868,-0.173986,-1.6972,-0.379597,-0.391627,-0.0136854
23,45,-1.0472,-0.698132,-0.174533,-0.174533,-1.03305,-0.688642,-0.158868,-0.173986,-1.6972,-0.379597,-0.391627,-0.0136854
23,45,-1.0472,-0.698132,-0.174533,-0.174533,-1.03305,-0.688642,-0.158868,-0.173986,-1.6972,-0.379597,-0.391627,-0.0136854
23,45,-1.0472,-0.698132,-0.174533,-0.174533,-1.03305,-0.688642,-0.158868,-0.173986,-1.6972,-0.379597,-0.391627,-0.0136854
23,45,-1.0472,-0.698132,-0.174533,-0.174533,-1.03305,-0.688642,-0.158868,-0.173986,-1.6972,-0.379597,-0.391627,-0.0136854
23,45,-1.0472,-0.698132,-0.174533,-0.174533,-1.03305,-0.688642,-0.158868,-0.173986,-1.6972,-0.379597,-0.391627,-0.0136854
23,45,-1.0472,-0.698132,-0.174533,-0.174533,-1.03305,-0.688642,-0.158868,-0.173986,-1.6972,-0.379597,-0.391627,-0.0136854
23,45,-1.0472,-0.698132,-0.174533,-0.174533,-1.03305,-0.688642,-0.158868,-0.173986,-1.6972,-0.379597,-0.391627,-0.0136854
23,45,-1.0472,-0.698132,-0.174533,-0.174533,-1.03305,-0.688642,-0.158868,-0.173986,-1.6972,-0.379597,-0.391627,-0.0136854
23,45,-1.0472,-0.698132,-0.174533,-0.174533,-1.03305,-0.688642,-0.158868,-0.173986,-1.6972,-0.379597,-0.391627,-0.0136854
23,45,-1.0472,-0.698132,-0.174533,-0.174533,-1.03305,-0.688642,-0.158868,-0.173986,-1.6972,-0.379597,-0.391627,-0.0136854
23,45,-1.0472,-0.698132,-0.174533,-0.174533,-1.03305,-0.688642,-0.158868,-0.173986,-1.6972,-0.379597,-0.391627,-0.0136854
23,45,-1.0472,-0.698132,-0.174533,-0.174533,-1.03305,-0.688642,-0.158868,-0.173986,-1.6972,-0.379597,-0.391627,-0.0136854
23,45,-1.0472,-0.698132,-0.174533,-0.174533,-1.03305,-0.688642,-0.158868,-0.173986,-1.6972,-0.379597,-0.391627,-0.0136854
23,45,-1.0472,-0.698132,-0.174533,-0.174533,-1.03305,-0.688642,-0.158868,-0.173986,-1.6972,-0.379597,-0.391627,-0.0136854
23,45,-1.0472,-0.698132,-0.174533,-0.174533,-1.03305,-0.688642,-0.158868,-0.173986,-1.6972,-0.379597,-0.391627,-0.0136854
23,45,-1.0472,-0.698132,-0.174533,-0.174533,-1.03305,-0.688642,-0.158868,-0.173986,-1.6972,-0.379597,-0.391627,-0.0136854
23,45,-1.0472,-0.698132,-0.174533,-0.174533,-1.03305,-0.688642,-0.158868,-0.173986,-1.6972,-0.379597,-0.391627,-0.0136854
23,45,-1.0472,-0.698132,-0.174533,-0.174533,-1.03305,-0.688642,-0.158868,-0.173986,-1.6972,-0.379597,-0.391627,-0.0136854
23,45,-1.0472,-0.698132,-0.174533,-0.174533,-1.03305,-0.688642,-0.158868,-0.173986,-1.6972,-0.379597,-0.391627,-0.0136854
23,45,-1.0472,-0.698132,-0.174533,-0.174533,-1.03305,-0.688642,-0.158868,-0.173986,-1.6972,-0.379597,-0.391627,-0.0136854
23,45,-1.0472,-0.698132,-0.174533,-0.174533,-1.03305,-0.688642,-0.158868,-0.173986,-1.6972,-0.379597,-0.391627,-0.0136854
23,45,-1.0472,-0.698132,-0.174533,-0.174533,-1.03305,-0.688642,-0.158868,-0.173986,-1.6972,-0.379597,-0.391627,-0.0136854
23,45,-1.0472,-0.698132,-0.174533,-0.174533,-1.03305,-0.688642,-0.158868,-0.173986,-1.6972,-0.379597,-0.391627,-0.0136854
23,45,-1.0472,-0.698132,-0.174533,-0.174533,-1.03305,-0.688642,-0.158868,-0.173986,-1.6972,-0.379597,-0.391627,-0.0136854
23,45,-1.0472,-0.698132,-0.174533,-0.174533,-1.03305,-0.688642,-0.158868,-0.173986,-1.6972,-0.379597,-0.391627,-0.0136854
23,45,-1.0472,-0.698132,-0.174533,-0.174533,-1.03305,-0.688642,-0.158868,-0.173986,-1.6972,-0.379597,-0.391627,-0.0136854
23,45,-1.0472,-0.698132,-0.174533,-0.174533,-1.03305,-0.688642,-0.158868,-0.173986,-1.6972,-0.379597,-0.391627,-0.0136854
23,45,-1.0472,-0.698132,-0.174533,-0.174533,-1.03305,-0.688642,-0.158868,-0.173986,-1.6972,-0.379597,-0.391627,-0.0136854
23,45,-1.0472,-0.698132,-0.174533,-0.174533,-1.03305,-0.688642,-0.158868,-0.173986,-1.6972,-0.379597,-0.391627,-0.0136854
23,45,-1.0472,-0.698132,-0.174533,-0.174533,-1.03305,-0.688642,-0.158868,-0.173986,-1.6972,-0.379597,-0.391627,-0.0136854
23,45,-1.0472,-0.698132,-0.174533,-0.174533,-1.03305,-0.688642,-0.158868,-0.173986,-1.6972,-0.379597,-0.391627,-0.0136854
23,45,-1.0472,-0.698132,-0.174533,-0.174533,-1.03305,-0.688642,-0.158868,-0.173986,-1.6972,-0.379597,-0.391627,-0.0136854
23,45,-1.0472,-0.698132,-0.174533,-0.174533,-1.03305,-0.688642,-0.158868,-0.173986,-1.6972,-0.379597,-0.391627,-0.0136854
23,45,-1.0472,-0.698132,-0.174533,-0.174533,-1.03305,-0.688642,-0.158868,-0.173986,-1.6972,-0.379597,-0.391627,-0.0136854
23,45,-1.0472,-0.698132,-0.174533,-0.174533,-1.03305,-0.688642,-0.158868,-0.173986,-1.6972,-0.379597,-0.391627,-0.0136854
23,45,-1.0472,-0.698132,-0.174533,-0.174533,-1.03305,-0.688642,-0.158868,-0.173986,-1.6972,-0.379597,-0.391627,-0.0136854
23,45,-1.0472,-0.698132,-0.174533,-0.174533,-1.03305,-0.688642,-0.158868,-0.173986,-1.6972,-0.379597,-0.391627,-0.0136854
23,45,-1.0472,-0.698132,-0.174533,-0.174533,-1.03305,-0.688642,-0.158868,-0.173986,-1.6972,-0.379597,-0.391627,-0.0136854
23,45,-1.0472,-0.698132,-0.174533,-0.174533,-1.03305,-0.688642,-0.158868,-0.173986,-1.6972,-0.379597,-0.391627,-0.0136854
23,45,-1.0472,-0.698132,-0.174533,-0.174533,-1.03305,-0.688642,-0.158868,-0.173986,-1.6972,-0.379597,-0.391627,-0.0136854
23,45,-1.0472,-0.698132,-0.174533,-0.174533,-1.03305,-0.688642,-0.158868,-0.173986,-1.6972,-0.379597,-0.391627,-0.0136854
23,45,-1.0472,-0.698132,-0.174533,-0.174533,-1.03305,-0.688642,-0.158868,-0.173986,-1.6972,-0.379597,-0.391627,-0.0136854
23,45,-1.0472,-0.698132,-0.174533,-0.174533,-1.03305,-0.688642,-0.158868,-0.173986,-1.6972,-0.379597,-0.391627,-0.0136854
23,45,-1.0472,-0.698132,-0.174533,-0.174533,-1.03305,-0.688642,-0.158868,-0.173986,-1.6972,-0.379597,-0.391627,-0.0136854
23,45,-1.0472,-0.698132,-0.174533,-0.174533,-1.03305,-0.688642,-0.158868,-0.173986,-1.6972,-0.379597,-0.391627,-0.0136854
23,45,-1.0472,-0.698132,-0.174533,-0.174533,-1.03305,-0.688642,-0.158868,-0.173986,-1.6972,-0.379597,-0.391627,-0.0136854
23,45,-1.0472,-0.698132,-0.174533,-0.174533,-1.03305,-0.688642,-0.158868,-0.173986,-1.6972,-0.379597,-0.391627,-0.0136854
23,45,-1.0472,-0.698132,-0.174533,-0.174533,-1.03305,-0.688642,-0.158868,-0.173986,-1.6972,-0.379597,-0.391627,-0.0136854
23,45,-1.0472,-0.698132,-0.174533,-0.174533,-1.03305,-0.688642,-0.158868,-0.173986,-1.6972,-0.379597,-0.391627,-0.0136854
23,45,-1.0472,-0.698132,-0.174533,-0.174533,-1.03305,-0.688642,-0.158868,-0.173986,-1.6972,-0.379597,-0.391627,-0.0136854
23,45,-1.0472,-0.698132,-0.174533,-0.174533,-1.03305,-0.688642,-0.158868,-0.173986,-1.6972,-0.379597,-0.391627,-0.0136854
23,45,-1.0472,-0.698132,-0.174533,-0.174533,-1.03305,-0.688642,-0.158868,-0.173986,-1.6972,-0.379597,-0.391627,-0.0136854
23,45,-1.0472,-0.698132,-0.174533,-0.174533,-1.03305,-0.688642,-0.158868,-0.173986,-1.6972,-0.379597,-0.391627,-0.0136854
23,45,-1.0472,-0.698132,-0.174533,-0.174533,-1.03305,-0.688642,-0.158868,-0.173986,-1.6972,-0.379597,-0.391627,-0.0136854
23,45,-1.0472,-0.698132,-0.174533,-0.174533,-1.03305,-0.688642,-0.158868,-0.173986,-1.6972,-0.379597,-0.391627,-0.0136854
23,45,-1.0472,-0.698132,-0.174533,-0.174533,-1.03305,-0.688642,-0.158868,-0.173986,-1.6972,-0.379597,-0.391627,-0.0136854
23,45,-1.0472,-0.698132,-0.174533,-0.174533,-1.03305,-0.688642,-0.158868,-0.173986,-1.6972,-0.379597,-0.391627,-0.0136854
23,45,-1.0472,-0.698132,-0.174533,-0.174533,-1.03305,-0.688642,-0.158868,-0.173986,-1.6972,-0.379597,-0.391627,-0.0136854
23,45,-1.0472,-0.698132,-0.174533,-0.174533,-1.03305,-0.688642,-0.158868,-0.173986,-1.6972,-0.379597,-0.391627,-0.0136854
23,45,-1.0472,-0.698132,-0.174533,-0.174533,-1.03305,-0.688642,-0.158868,-0.173986,-1.6972,-0.379597,-0.391627,-0.0136854
23,45,-1.0472,-0.698132,-0.174533,-0.174533,-1.03305,-0.688642,-0.158868,-0.173986,-1.6972,-0.379597,-0.391627,-0.0136854
23,45,-1.0472,-0.698132,-0.174533,-0.174533,-1.03305,-0.688642,-0.158868,-0.173986,-1.6972,-0.379597,-0.391627,-0.0136854
23,45,-1.0472,-0.698132,-0.174533,-0.174533,-1.03305,-0.688642,-0.158868,-0.173986,-1.6972,-0.379597,-0.391627,-0.0136854
23,45,-1.0472,-0.698132,-0.174533,-0.174533,-1.03305,-0.688642,-0.158868,-0.173986,-1.6972,-0.379597,-0.391627,-0.0136854
23,45,-1.0472,-0.698132,-0.174533,-0.174533,-1.03305,-0.688642,-0.158868,-0.173986,-1.6972,-0.379597,-0.391627,-0.0136854
23,45,-1.0472,-0.698132,-0.174533,-0.174533,-1.03305,-0.688642,-0.158868,-0.173986,-1.6972,-0.379597,-0.391627,-0.0136854
23,45,-1.0472,-0.698132,-0.174533,-0.174533,-1.03305,-0.688642,-0.158868,-0.173986,-1.6972,-0.379597,-0.391627,-0.0136854
23,45,-1.0472,-0.698132,-0.174533,-0.174533,-1.03305,-0.688642,-0.158868,-0.173986,-1.6972,-0.379597,-0.391627,-0.0136854
23,45,-1.0472,-0.698132,-0.174533,-0.174533,-1.03305,-0.688642,-0.158868,-0.173986,-1.6972,-0.379597,-0.391627,-0.0136854
23,45,-1.0472,-0.698132,-0.174533,-0.174533,-1.03305,-0.688642,-0.158868,-0.173986,-1.6972,-0.379597,-0.391627,-0.0136854
23,45,-1.0472,-0.698132,-0.174533,-0.174533,-1.03305,-0.688642,-0.158868,-0.173986,-1.6972,-0.379597,-0.391627,-0.0136854
23,45,-1.0472,-0.698132,-0.174533,-0.174533,-1.03305,-0.688642,-0.158868,-0.173986,-1.6972,-0.379597,-0.391627,-0.0136854
23,45,-1.0472,-0.698132,-0.174533,-0.174533,-1.03305,-0.688642,-0.158868,-0.173986,-1.6972,-0.379597,-0.391627,-0.0136854
23,45,-1.0472,-0.698132,-0.174533,-0.174533,-1.03305,-0.688642,-0.158868,-0.173986,-1.6972,-0.379597,-0.391627,-0.0136854
23,45,-1.0472,-0.698132,-0.174533,-0.174533,-1.03305,-0.688642,-0.158868,-0.173986,-1.6972,-0.379597,-0.391627,-0.0136854
23,45,-1.0472,-0.698132,-0.174533,-0.174533,-1.03305,-0.688642,-0.158868,-0.173986,-1.6972,-0.379597,-0.391627,-0.0136854
23,45,-1.0472,-0.698132,-0.174533,-0.174533,-1.03305,-0.688642,-0.158868,-0.173986,-1.6972,-0.379597,-0.391627,-0.0136854
23,45,-1.0472,-0.698132,-0.174533,-0.174533,-1.03305,-0.688642,-0.158868,-0.173986,-1.6972,-0.379597,-0.391627,-0.0136854
23,45,-1.0472,-0.698132,-0.174533,-0.174533,-1.03305,-0.688642,-0.158868,-0.173986,-1.6972,-0.379597,-0.391627,-0.0136854
23,45,-1.0472,-0.698132,-0.174533,-0.174533,-1.03305,-0.688642,-0.158868,-0.173986,-1.6972,-0.379597,-0.391627,-0.0136854
23,45,-1.0472,-0.698132,-0.174533,-0.174533,-1.03305,-0.688642,-0.158868,-0.173986,-1.6972,-0.379597,-0.391627,-0.0136854
23,45,-1.0472,-0.698132,-0.174533,-0.174533,-1.03305,-0.688642,-0.158868,-0.173986,-1.6972,-0.379597,-0.391627,-0.0136854
23,45,-1.0472,-0.698132,-0.174533,-0.174533,-1.03305,-0.688642,-0.158868,-0.173986,-1.6972,-0.379597,-0.391627,-0.0136854
23,45,-1.0472,-0.698132,-0.174533,-0.174533,-1.03305,-0.688642,-0.158868,-0.173986,-1.6972,-0.379597,-0.391627,-0.0136854
23,45,-1.0472,-0.698132,-0.174533,-0.174533,-1.03305,-0.688642,-0.158868,-0.173986,-1.6972,-0.379597,-0.391627,-0.0136854
23,45,-1.0472,-0.698132,-0.174533,-0.174533,-1.03305,-0.688642,-0.158868,-0.173986,-1.6972,-0.379597,-0.391627,-0.0136854
23,45,-1.0472,-0.698132,-0.174533,-0.174533,-1.03305,-0.688642,-0.158868,-0.173986,-1.6972,-0.379597,-0.391627,-0.0136854
23,45,-1.0472,-0.698132,-0.174533,-0.174533,-1.03305,-0.688642,-0.158868,-0.173986,-1.6972,-0.379597,-0.391627,-0.0136854
23,45,-1.0472,-0.698132,-0.174533,-0.174533,-1.03305,-0.688642,-0.158868,-0.173986,-1.6972,-0.379597,-0.391627,-0.0136854
23,45,-1.0472,-0.698132,-0.174533,-0.174533,-1.03305,-0.688642,-0.158868,-0.173986,-1.6972,-0.379597,-0.391627,-0.0136854
