stim_pw [us],stim_amp [mA],com_elbow_fe [rad],com_forearm_ps [rad],com_wrist_fe [rad],com_wrist_ru [rad],act_elbow_fe [rad],act_forearm_ps [rad],act_wrist_fe [rad],act_wrist_ru [rad],elbow_fe_trq [Nm],forearm_ps_trq [Nm],wrist_fe_trq [Nm],wrist_ru_trq [Nm]
0,0,-1.0472,-0.698132,-0.174533,-0.174533,-1.04086,-0.682744,-0.161675,-0.154693,-0.634045,-0.430849,-0.192865,-0.297598
0,0,-1.0472,-0.698132,-0.174533,-0.174533,-1.04086,-0.682744,-0.161675,-0.154693,-0.634045,-0.430849,-0.192865,-0.297598
0,0,-1.0472,-0.698132,-0.174533,-0.174533,-1.04086,-0.682744,-0.161675,-0.154693,-0.634045,-0.430849,-0.192865,-0.297598
0,0,-1.0472,-0.698132,-0.174533,-0.174533,-1.04086,-0.682744,-0.161675,-0.154693,-0.634045,-0.430849,-0.192865,-0.297598
0,0,-1.0472,-0.698132,-0.174533,-0.174533,-1.04086,-0.682744,-0.161675,-0.154693,-0.634045,-0.430849,-0.192865,-0.297598
0,0,-1.0472,-0.698132,-0.174533,-0.174533,-1.04086,-0.682744,-0.161675,-0.154693,-0.634045,-0.430849,-0.192865,-0.297598
0,0,-1.0472,-0.698132,-0.174533,-0.174533,-1.04086,-0.682744,-0.161675,-0.154693,-0.634045,-0.430849,-0.192865,-0.297598
0,0,-1.0472,-0.698132,-0.174533,-0.174533,-1.04086,-0.682744,-0.161675,-0.154693,-0.634045,-0.430849,-0.192865,-0.297598
0,0,-1.0472,-0.698132,-0.174533,-0.174533,-1.04086,-0.682744,-0.161675,-0.154693,-0.634045,-0.430849,-0.192865,-0.297598
0,0,-1.0472,-0.698132,-0.174533,-0.174533,-1.04086,-0.682744,-0.161675,-0.154693,-0.634045,-0.430849,-0.192865,-0.297598
0,0,-1.0472,-0.698132,-0.174533,-0.174533,-1.04086,-0.682744,-0.161675,-0.154693,-0.634045,-0.430849,-0.192865,-0.297598
0,0,-1.0472,-0.698132,-0.174533,-0.174533,-1.04086,-0.682744,-0.161675,-0.154693,-0.634045,-0.430849,-0.192865,-0.297598
0,0,-1.0472,-0.698132,-0.174533,-0.174533,-1.04086,-0.682744,-0.161675,-0.154693,-0.634045,-0.430849,-0.192865,-0.297598
0,0,-1.0472,-0.698132,-0.174533,-0.174533,-1.04086,-0.682744,-0.161675,-0.154693,-0.634045,-0.430849,-0.192865,-0.297598
0,0,-1.0472,-0.698132,-0.174533,-0.174533,-1.04086,-0.682744,-0.161675,-0.154693,-0.634045,-0.430849,-0.192865,-0.297598
0,0,-1.0472,-0.698132,-0.174533,-0.174533,-1.04086,-0.682744,-0.161675,-0.154693,-0.634045,-0.430849,-0.192865,-0.297598
0,0,-1.0472,-0.698132,-0.174533,-0.174533,-1.04086,-0.682744,-0.161675,-0.154693,-0.634045,-0.430849,-0.192865,-0.297598
0,0,-1.0472,-0.698132,-0.174533,-0.174533,-1.04086,-0.682744,-0.161675,-0.154693,-0.634045,-0.430849,-0.192865,-0.297598
0,0,-1.0472,-0.698132,-0.174533,-0.174533,-1.04086,-0.682744,-0.161675,-0.154693,-0.634045,-0.430849,-0.192865,-0.297598
0,0,-1.0472,-0.698132,-0.174533,-0.174533,-1.04086,-0.682744,-0.161675,-0.154693,-0.634045,-0.430849,-0.192865,-0.297598
0,0,-1.0472,-0.698132,-0.174533,-0.174533,-1.04086,-0.682744,-0.161675,-0.154693,-0.634045,-0.430849,-0.192865,-0.297598
0,0,-1.0472,-0.698132,-0.174533,-0.174533,-1.04086,-0.682744,-0.161675,-0.154693,-0.634045,-0.430849,-0.192865,-0.297598
0,0,-1.0472,-0.698132,-0.174533,-0.174533,-1.04086,-0.682744,-0.161675,-0.154693,-0.634045,-0.430849,-0.192865,-0.297598
0,0,-1.0472,-0.698132,-0.174533,-0.174533,-1.04086,-0.682744,-0.161675,-0.154693,-0.634045,-0.430849,-0.192865,-0.297598
0,0,-1.0472,-0.698132,-0.174533,-0.174533,-1.04086,-0.682744,-0.161675,-0.154693,-0.634045,-0.430849,-0.192865,-0.297598
0,0,-1.0472,-0.698132,-0.174533,-0.174533,-1.04086,-0.682744,-0.161675,-0.154693,-0.634045,-0.430849,-0.192865,-0.297598
0,0,-1.0472,-0.698132,-0.174533,-0.174533,-1.04086,-0.682744,-0.161675,-0.154693,-0.634045,-0.430849,-0.192865,-0.297598
0,0,-1.0472,-0.698132,-0.174533,-0.174533,-1.04086,-0.682744,-0.161675,-0.154693,-0.634045,-0.430849,-0.192865,-0.297598
0,0,-1.0472,-0.698132,-0.174533,-0.174533,-1.04086,-0.682744,-0.161675,-0.154693,-0.634045,-0.430849,-0.192865,-0.297598
0,0,-1.0472,-0.698132,-0.174533,-0.174533,-1.04086,-0.682744,-0.161675,-0.154693,-0.634045,-0.430849,-0.192865,-0.297598
0,0,-1.0472,-0.698132,-0.174533,-0.174533,-1.04086,-0.682744,-0.161675,-0.154693,-0.634045,-0.430849,-0.192865,-0.297598
0,0,-1.0472,-0.698132,-0.174533,-0.174533,-1.04086,-0.682744,-0.161675,-0.154693,-0.634045,-0.430849,-0.192865,-0.297598
0,0,-1.0472,-0.698132,-0.174533,-0.174533,-1.04086,-0.682744,-0.161675,-0.154693,-0.634045,-0.430849,-0.192865,-0.297598
0,0,-1.0472,-0.698132,-0.174533,-0.174533,-1.04086,-0.682744,-0.161675,-0.154693,-0.634045,-0.430849,-0.192865,-0.297598
0,0,-1.0472,-0.698132,-0.174533,-0.174533,-1.04086,-0.682744,-0.161675,-0.154693,-0.634045,-0.430849,-0.192865,-0.297598
0,0,-1.0472,-0.698132,-0.174533,-0.174533,-1.04086,-0.682744,-0.161675,-0.154693,-0.634045,-0.430849,-0.192865,-0.297598
0,0,-1.0472,-0.698132,-0.174533,-0.174533,-1.04086,-0.682744,-0.161675,-0.154693,-0.634045,-0.430849,-0.192865,-0.297598
0,0,-1.0472,-0.698132,-0.174533,-0.174533,-1.04086,-0.682744,-0.161675,-0.154693,-0.634045,-0.430849,-0.192865,-0.297598
0,0,-1.0472,-0.698132,-0.174533,-0.174533,-1.04086,-0.682744,-0.161675,-0.154693,-0.634045,-0.430849,-0.192865,-0.297598
0,0,-1.0472,-0.698132,-0.174533,-0.174533,-1.04086,-0.682744,-0.161675,-0.154693,-0.634045,-0.430849,-0.192865,-0.297598
0,0,-1.0472,-0.698132,-0.174533,-0.174533,-1.04086,-0.682744,-0.161675,-0.154693,-0.634045,-0.430849,-0.192865,-0.297598
0,0,-1.0472,-0.698132,-0.174533,-0.174533,-1.04086,-0.682744,-0.161675,-0.154693,-0.634045,-0.430849,-0.192865,-0.297598
0,0,-1.0472,-0.698132,-0.174533,-0.174533,-1.04086,-0.682744,-0.161675,-0.154693,-0.634045,-0.430849,-0.192865,-0.297598
0,0,-1.0472,-0.698132,-0.174533,-0.174533,-1.04086,-0.682744,-0.161675,-0.154693,-0.634045,-0.430849,-0.192865,-0.297598
0,0,-1.0472,-0.698132,-0.174533,-0.174533,-1.04086,-0.682744,-0.161675,-0.154693,-0.634045,-0.430849,-0.192865,-0.297598
0,0,-1.0472,-0.698132,-0.174533,-0.174533,-1.04086,-0.682744,-0.161675,-0.154693,-0.634045,-0.430849,-0.192865,-0.297598
0,0,-1.0472,-0.698132,-0.174533,-0.174533,-1.04086,-0.682744,-0.161675,-0.154693,-0.634045,-0.430849,-0.192865,-0.297598
0,0,-1.0472,-0.698132,-0.174533,-0.174533,-1.04086,-0.682744,-0.161675,-0.154693,-0.634045,-0.430849,-0.192865,-0.297598
0,0,-1.0472,-0.698132,-0.174533,-0.174533,-1.04086,-0.682744,-0.161675,-0.154693,-0.634045,-0.430849,-0.192865,-0.297598
0,0,-1.0472,-0.698132,-0.174533,-0.174533,-1.04086,-0.682744,-0.161675,-0.154693,-0.634045,-0.430849,-0.192865,-0.297598
0,0,-1.0472,-0.698132,-0.174533,-0.174533,-1.04086,-0.682744,-0.161675,-0.154693,-0.634045,-0.430849,-0.192865,-0.297598
0,0,-1.0472,-0.698132,-0.174533,-0.174533,-1.04086,-0.682744,-0.161675,-0.154693,-0.634045,-0.430849,-0.192865,-0.297598
0,0,-1.0472,-0.698132,-0.174533,-0.174533,-1.04086,-0.682744,-0.161675,-0.154693,-0.634045,-0.430849,-0.192865,-0.297598
0,0,-1.0472,-0.698132,-0.174533,-0.174533,-1.04086,-0.682744,-0.161675,-0.154693,-0.634045,-0.430849,-0.192865,-0.297598
0,0,-1.0472,-0.698132,-0.174533,-0.174533,-1.04086,-0.682744,-0.161675,-0.154693,-0.634045,-0.430849,-0.192865,-0.297598
0,0,-1.0472,-0.698132,-0.174533,-0.174533,-1.04086,-0.682744,-0.161675,-0.154693,-0.634045,-0.430849,-0.192865,-0.297598
0,0,-1.0472,-0.698132,-0.174533,-0.174533,-1.04086,-0.682744,-0.161675,-0.154693,-0.634045,-0.430849,-0.192865,-0.297598
0,0,-1.0472,-0.698132,-0.174533,-0.174533,-1.04086,-0.682744,-0.161675,-0.154693,-0.634045,-0.430849,-0.192865,-0.297598
0,0,-1.0472,-0.698132,-0.174533,-0.174533,-1.04086,-0.682744,-0.161675,-0.154693,-0.634045,-0.430849,-0.192865,-0.297598
0,0,-1.0472,-0.698132,-0.174533,-0.174533,-1.04086,-0.682744,-0.161675,-0.154693,-0.634045,-0.430849,-0.192865,-0.297598
0,0,-1.0472,-0.698132,-0.174533,-0.174533,-1.04086,-0.682744,-0.161675,-0.154693,-0.634045,-0.430849,-0.192865,-0.297598
0,0,-1.0472,-0.698132,-0.174533,-0.174533,-1.04086,-0.682744,-0.161675,-0.154693,-0.634045,-0.430849,-0.192865,-0.297598
0,0,-1.0472,-0.698132,-0.174533,-0.174533,-1.04086,-0.682744,-0.161675,-0.154693,-0.634045,-0.430849,-0.192865,-0.297598
0,0,-1.0472,-0.698132,-0.174533,-0.174533,-1.04086,-0.682744,-0.161675,-0.154693,-0.634045,-0.430849,-0.192865,-0.297598
0,0,-1.0472,-0.698132,-0.174533,-0.174533,-1.04086,-0.682744,-0.161675,-0.154693,-0.634045,-0.430849,-0.192865,-0.297598
0,0,-1.0472,-0.698132,-0.174533,-0.174533,-1.04086,-0.682744,-0.161675,-0.154693,-0.634045,-0.430849,-0.192865,-0.297598
0,0,-1.0472,-0.698132,-0.174533,-0.174533,-1.04086,-0.682744,-0.161675,-0.154693,-0.634045,-0.430849,-0.192865,-0.297598
0,0,-1.0472,-0.698132,-0.174533,-0.174533,-1.04086,-0.682744,-0.161675,-0.154693,-0.634045,-0.430849,-0.192865,-0.297598
0,0,-1.0472,-0.698132,-0.174533,-0.174533,-1.04086,-0.682744,-0.161675,-0.154693,-0.634045,-0.430849,-0.192865,-0.297598
0,0,-1.0472,-0.698132,-0.174533,-0.174533,-1.04086,-0.682744,-0.161675,-0.154693,-0.634045,-0.430849,-0.192865,-0.297598
0,0,-1.0472,-0.698132,-0.174533,-0.174533,-1.04086,-0.682744,-0.161675,-0.154693,-0.634045,-0.430849,-0.192865,-0.297598
0,0,-1.0472,-0.698132,-0.174533,-0.174533,-1.04086,-0.682744,-0.161675,-0.154693,-0.634045,-0.430849,-0.192865,-0.297598
0,0,-1.0472,-0.698132,-0.174533,-0.174533,-1.04086,-0.682744,-0.161675,-0.154693,-0.634045,-0.430849,-0.192865,-0.297598
0,0,-1.0472,-0.698132,-0.174533,-0.174533,-1.04086,-0.682744,-0.161675,-0.154693,-0.634045,-0.430849,-0.192865,-0.297598
0,0,-1.0472,-0.698132,-0.174533,-0.174533,-1.04086,-0.682744,-0.161675,-0.154693,-0.634045,-0.430849,-0.192865,-0.297598
0,0,-1.0472,-0.698132,-0.174533,-0.174533,-1.04086,-0.682744,-0.161675,-0.154693,-0.634045,-0.430849,-0.192865,-0.297598
0,0,-1.0472,-0.698132,-0.174533,-0.174533,-1.04086,-0.682744,-0.161675,-0.154693,-0.634045,-0.430849,-0.192865,-0.297598
0,0,-1.0472,-0.698132,-0.174533,-0.174533,-1.04086,-0.682744,-0.161675,-0.154693,-0.634045,-0.430849,-0.192865,-0.297598
0,0,-1.0472,-0.698132,-0.174533,-0.174533,-1.04086,-0.682744,-0.161675,-0.154693,-0.634045,-0.430849,-0.192865,-0.297598
0,0,-1.0472,-0.698132,-0.174533,-0.174533,-1.04086,-0.682744,-0.161675,-0.154693,-0.634045,-0.430849,-0.192865,-0.297598
0,0,-1.0472,-0.698132,-0.174533,-0.174533,-1.04086,-0.682744,-0.161675,-0.154693,-0.634045,-0.430849,-0.192865,-0.297598
0,0,-1.0472,-0.698132,-0.174533,-0.174533,-1.04086,-0.682744,-0.161675,-0.154693,-0.634045,-0.430849,-0.192865,-0.297598
0,0,-1.0472,-0.698132,-0.174533,-0.174533,-1.04086,-0.682744,-0.161675,-0.154693,-0.634045,-0.430849,-0.192865,-0.297598
0,0,-1.0472,-0.698132,-0.174533,-0.174533,-1.04086,-0.682744,-0.161675,-0.154693,-0.634045,-0.430849,-0.192865,-0.297598
0,0,-1.0472,-0.698132,-0.174533,-0.174533,-1.04086,-0.682744,-0.161675,-0.154693,-0.634045,-0.430849,-0.192865,-0.297598
0,0,-1.0472,-0.698132,-0.174533,-0.174533,-1.04086,-0.682744,-0.161675,-0.154693,-0.634045,-0.430849,-0.192865,-0.297598
0,0,-1.0472,-0.698132,-0.174533,-0.174533,-1.04086,-0.682744,-0.161675,-0.154693,-0.634045,-0.430849,-0.192865,-0.297598
0,0,-1.0472,-0.698132,-0.174533,-0.174533,-1.04086,-0.682744,-0.161675,-0.154693,-0.634045,-0.430849,-0.192865,-0.297598
0,0,-1.0472,-0.698132,-0.174533,-0.174533,-1.04086,-0.682744,-0.161675,-0.154693,-0.634045,-0.430849,-0.192865,-0.297598
0,0,-1.0472,-0.698132,-0.174533,-0.174533,-1.04086,-0.682744,-0.161675,-0.154693,-0.634045,-0.430849,-0.192865,-0.297598
0,0,-1.0472,-0.698132,-0.174533,-0.174533,-1.04086,-0.682744,-0.161675,-0.154693,-0.634045,-0.430849,-0.192865,-0.297598
0,0,-1.0472,-0.698132,-0.174533,-0.174533,-1.04086,-0.682744,-0.161675,-0.154693,-0.634045,-0.430849,-0.192865,-0.297598
0,0,-1.0472,-0.698132,-0.174533,-0.174533,-1.04086,-0.682744,-0.161675,-0.154693,-0.634045,-0.430849,-0.192865,-0.297598
0,0,-1.0472,-0.698132,-0.174533,-0.174533,-1.04086,-0.682744,-0.161675,-0.154693,-0.634045,-0.430849,-0.192865,-0.297598
0,0,-1.0472,-0.698132,-0.174533,-0.174533,-1.04086,-0.682744,-0.161675,-0.154693,-0.634045,-0.430849,-0.192865,-0.297598
0,0,-1.0472,-0.698132,-0.174533,-0.174533,-1.04086,-0.682744,-0.161675,-0.154693,-0.634045,-0.430849,-0.192865,-0.297598
0,0,-1.0472,-0.698132,-0.174533,-0.174533,-1.04086,-0.682744,-0.161675,-0.154693,-0.634045,-0.430849,-0.192865,-0.297598
0,0,-1.0472,-0.698132,-0.174533,-0.174533,-1.04086,-0.682744,-0.161675,-0.154693,-0.634045,-0.430849,-0.192865,-0.297598
0,0,-1.0472,-0.698132,-0.174533,-0.174533,-1.04086,-0.682744,-0.161617,-0.154713,-0.634045,-0.430849,-0.193746,-0.297298
0,0,-1.0472,-0.698132,-0.174533,-0.174533,-1.04086,-0.682744,-0.161617,-0.154713,-0.634045,-0.430849,-0.193746,-0.297298
0,0,-1.0472,-0.698132,-0.174533,-0.174533,-1.04086,-0.682744,-0.161617,-0.154713,-0.634045,-0.430849,-0.193746,-0.297298
0,0,-1.0472,-0.698132,-0.174533,-0.174533,-1.04086,-0.682744,-0.161617,-0.154713,-0.634045,-0.430849,-0.193746,-0.297298
0,0,-1.0472,-0.698132,-0.174533,-0.174533,-1.04086,-0.682744,-0.161617,-0.154713,-0.634045,-0.430849,-0.193746,-0.297298
0,0,-1.0472,-0.698132,-0.174533,-0.174533,-1.04086,-0.682744,-0.161617,-0.154713,-0.634045,-0.430849,-0.193746,-0.297298
0,0,-1.0472,-0.698132,-0.174533,-0.174533,-1.04086,-0.682744,-0.161617,-0.154713,-0.634045,-0.430849,-0.193746,-0.297298
0,0,-1.0472,-0.698132,-0.174533,-0.174533,-1.04086,-0.682744,-0.161617,-0.154713,-0.634045,-0.430849,-0.193746,-0.297298
0,0,-1.0472,-0.698132,-0.174533,-0.174533,-1.04086,-0.682744,-0.161617,-0.154713,-0.634045,-0.430849,-0.193746,-0.297298
0,0,-1.0472,-0.698132,-0.174533,-0.174533,-1.04086,-0.682744,-0.161617,-0.154713,-0.634045,-0.430849,-0.193746,-0.297298
0,0,-1.0472,-0.698132,-0.174533,-0.174533,-1.04086,-0.682744,-0.161617,-0.154713,-0.634045,-0.430849,-0.193746,-0.297298
0,0,-1.0472,-0.698132,-0.174533,-0.174533,-1.04086,-0.682744,-0.161617,-0.154713,-0.634045,-0.430849,-0.193746,-0.297298
0,0,-1.0472,-0.698132,-0.174533,-0.174533,-1.04086,-0.682744,-0.161617,-0.154713,-0.634045,-0.430849,-0.193746,-0.297298
0,0,-1.0472,-0.698132,-0.174533,-0.174533,-1.04086,-0.682744,-0.161617,-0.154713,-0.634045,-0.430849,-0.193746,-0.297298
0,0,-1.0472,-0.698132,-0.174533,-0.174533,-1.04086,-0.682744,-0.161617,-0.154713,-0.634045,-0.430849,-0.193746,-0.297298
0,0,-1.0472,-0.698132,-0.174533,-0.174533,-1.04086,-0.682744,-0.161617,-0.154713,-0.634045,-0.430849,-0.193746,-0.297298
0,0,-1.0472,-0.698132,-0.174533,-0.174533,-1.04086,-0.682744,-0.161617,-0.154713,-0.634045,-0.430849,-0.193746,-0.297298
0,0,-1.0472,-0.698132,-0.174533,-0.174533,-1.04086,-0.682744,-0.161617,-0.154713,-0.634045,-0.430849,-0.193746,-0.297298
0,0,-1.0472,-0.698132,-0.174533,-0.174533,-1.04086,-0.682744,-0.161617,-0.154713,-0.634045,-0.430849,-0.193746,-0.297298
0,0,-1.0472,-0.698132,-0.174533,-0.174533,-1.04086,-0.682744,-0.161617,-0.154713,-0.634045,-0.430849,-0.193746,-0.297298
0,0,-1.0472,-0.698132,-0.174533,-0.174533,-1.04086,-0.682744,-0.161617,-0.154713,-0.634045,-0.430849,-0.193746,-0.297298
0,0,-1.0472,-0.698132,-0.174533,-0.174533,-1.04086,-0.682744,-0.161617,-0.154713,-0.634045,-0.430849,-0.193746,-0.297298
0,0,-1.0472,-0.698132,-0.174533,-0.174533,-1.04086,-0.682744,-0.161558,-0.154733,-0.634045,-0.430849,-0.194627,-0.296999
0,0,-1.0472,-0.698132,-0.174533,-0.174533,-1.04086,-0.682744,-0.161558,-0.154733,-0.634045,-0.430849,-0.194627,-0.296999
0,0,-1.0472,-0.698132,-0.174533,-0.174533,-1.04086,-0.682744,-0.161558,-0.154733,-0.634045,-0.430849,-0.194627,-0.296999
0,0,-1.0472,-0.698132,-0.174533,-0.174533,-1.04086,-0.682744,-0.161558,-0.154733,-0.634045,-0.430849,-0.194627,-0.296999
0,0,-1.0472,-0.698132,-0.174533,-0.174533,-1.04086,-0.682744,-0.161558,-0.154733,-0.634045,-0.430849,-0.194627,-0.296999
0,0,-1.0472,-0.698132,-0.174533,-0.174533,-1.04086,-0.682744,-0.161558,-0.154733,-0.634045,-0.430849,-0.194627,-0.296999
0,0,-1.0472,-0.698132,-0.174533,-0.174533,-1.04086,-0.682744,-0.161558,-0.154733,-0.634045,-0.430849,-0.194627,-0.296999
0,0,-1.0472,-0.698132,-0.174533,-0.174533,-1.04086,-0.682744,-0.161558,-0.154733,-0.634045,-0.430849,-0.194627,-0.296999
0,0,-1.0472,-0.698132,-0.174533,-0.174533,-1.04086,-0.682744,-0.161558,-0.154733,-0.634045,-0.430849,-0.194627,-0.296999
0,0,-1.0472,-0.698132,-0.174533,-0.174533,-1.04086,-0.682744,-0.161558,-0.154733,-0.634045,-0.430849,-0.194627,-0.296999
0,0,-1.0472,-0.698132,-0.174533,-0.174533,-1.04086,-0.682744,-0.161558,-0.154733,-0.634045,-0.430849,-0.194627,-0.296999
0,0,-1.0472,-0.698132,-0.174533,-0.174533,-1.04086,-0.682744,-0.161558,-0.154733,-0.634045,-0.430849,-0.194627,-0.296999
0,0,-1.0472,-0.698132,-0.174533,-0.174533,-1.04086,-0.682744,-0.161558,-0.154733,-0.634045,-0.430849,-0.194627,-0.296999
0,0,-1.0472,-0.698132,-0.174533,-0.174533,-1.04086,-0.682744,-0.161558,-0.154733,-0.634045,-0.430849,-0.194627,-0.296999
0,0,-1.0472,-0.698132,-0.174533,-0.174533,-1.04086,-0.682744,-0.161558,-0.154733,-0.634045,-0.430849,-0.194627,-0.296999
0,0,-1.0472,-0.698132,-0.174533,-0.174533,-1.04086,-0.682744,-0.161558,-0.154733,-0.634045,-0.430849,-0.194627,-0.296999
0,0,-1.0472,-0.698132,-0.174533,-0.174533,-1.04086,-0.682744,-0.161558,-0.154733,-0.634045,-0.430849,-0.194627,-0.296999
0,0,-1.0472,-0.698132,-0.174533,-0.174533,-1.04086,-0.682744,-0.161558,-0.154733,-0.634045,-0.430849,-0.194627,-0.296999
0,0,-1.0472,-0.698132,-0.174533,-0.174533,-1.04086,-0.682744,-0.161558,-0.154733,-0.634045,-0.430849,-0.194627,-0.296999
0,0,-1.0472,-0.698132,-0.174533,-0.174533,-1.04086,-0.682744,-0.161558,-0.154733,-0.634045,-0.430849,-0.194627,-0.296999
0,0,-1.0472,-0.698132,-0.174533,-0.174533,-1.04086,-0.682744,-0.161558,-0.154733,-0.634045,-0.430849,-0.194627,-0.296999
0,0,-1.0472,-0.698132,-0.174533,-0.174533,-1.04086,-0.682744,-0.161558,-0.154733,-0.634045,-0.430849,-0.194627,-0.296999
0,0,-1.0472,-0.698132,-0.174533,-0.174533,-1.04086,-0.682744,-0.161558,-0.154733,-0.634045,-0.430849,-0.194627,-0.296999
0,0,-1.0472,-0.698132,-0.174533,-0.174533,-1.04086,-0.682744,-0.161558,-0.154733,-0.634045,-0.430849,-0.194627,-0.296999
0,0,-1.0472,-0.698132,-0.174533,-0.174533,-1.04086,-0.682744,-0.161558,-0.154733,-0.634045,-0.430849,-0.194627,-0.296999
0,0,-1.0472,-0.698132,-0.174533,-0.174533,-1.04086,-0.682744,-0.161558,-0.154733,-0.634045,-0.430849,-0.194627,-0.296999
0,0,-1.0472,-0.698132,-0.174533,-0.174533,-1.04086,-0.682744,-0.161558,-0.154733,-0.634045,-0.430849,-0.194627,-0.296999
0,0,-1.0472,-0.698132,-0.174533,-0.174533,-1.04086,-0.682744,-0.161558,-0.154733,-0.634045,-0.430849,-0.194627,-0.296999
0,0,-1.0472,-0.698132,-0.174533,-0.174533,-1.04086,-0.682744,-0.161558,-0.154733,-0.634045,-0.430849,-0.194627,-0.296999
0,0,-1.0472,-0.698132,-0.174533,-0.174533,-1.04086,-0.682744,-0.161558,-0.154733,-0.634045,-0.430849,-0.194627,-0.296999
0,0,-1.0472,-0.698132,-0.174533,-0.174533,-1.04086,-0.682744,-0.161558,-0.154733,-0.634045,-0.430849,-0.194627,-0.296999
0,0,-1.0472,-0.698132,-0.174533,-0.174533,-1.04086,-0.682744,-0.161558,-0.154733,-0.634045,-0.430849,-0.194627,-0.296999
0,0,-1.0472,-0.698132,-0.174533,-0.174533,-1.04086,-0.682744,-0.161558,-0.154733,-0.634045,-0.430849,-0.194627,-0.296999
0,0,-1.0472,-0.698132,-0.174533,-0.174533,-1.04086,-0.682744,-0.161558,-0.154733,-0.634045,-0.430849,-0.194627,-0.296999
0,0,-1.0472,-0.698132,-0.174533,-0.174533,-1.04086,-0.682744,-0.161558,-0.154733,-0.634045,-0.430849,-0.194627,-0.296999
0,0,-1.0472,-0.698132,-0.174533,-0.174533,-1.04086,-0.682744,-0.161558,-0.154733,-0.634045,-0.430849,-0.194627,-0.296999
0,0,-1.0472,-0.698132,-0.174533,-0.174533,-1.04086,-0.682744,-0.161558,-0.154733,-0.634045,-0.430849,-0.194627,-0.296999
0,0,-1.0472,-0.698132,-0.174533,-0.174533,-1.04086,-0.682744,-0.161558,-0.154733,-0.634045,-0.430849,-0.194627,-0.296999
0,0,-1.0472,-0.698132,-0.174533,-0.174533,-1.04086,-0.682744,-0.161558,-0.154733,-0.634045,-0.430849,-0.194627,-0.296999
0,0,-1.0472,-0.698132,-0.174533,-0.174533,-1.04086,-0.682744,-0.161558,-0.154733,-0.634045,-0.430849,-0.194627,-0.296999
0,0,-1.0472,-0.698132,-0.174533,-0.174533,-1.04086,-0.682744,-0.161558,-0.154733,-0.634045,-0.430849,-0.194627,-0.296999
0,0,-1.0472,-0.698132,-0.174533,-0.174533,-1.04086,-0.682744,-0.161558,-0.154733,-0.634045,-0.430849,-0.194627,-0.296999
0,0,-1.0472,-0.698132,-0.174533,-0.174533,-1.04086,-0.682744,-0.161558,-0.154733,-0.634045,-0.430849,-0.194627,-0.296999
0,0,-1.0472,-0.698132,-0.174533,-0.174533,-1.04086,-0.682744,-0.161558,-0.154733,-0.634045,-0.430849,-0.194627,-0.296999
0,0,-1.0472,-0.698132,-0.174533,-0.174533,-1.04086,-0.682744,-0.161558,-0.154733,-0.634045,-0.430849,-0.194627,-0.296999
0,0,-1.0472,-0.698132,-0.174533,-0.174533,-1.04086,-0.682744,-0.161558,-0.154733,-0.634045,-0.430849,-0.194627,-0.296999
0,0,-1.0472,-0.698132,-0.174533,-0.174533,-1.04086,-0.682744,-0.161558,-0.154733,-0.634045,-0.430849,-0.194627,-0.296999
0,0,-1.0472,-0.698132,-0.174533,-0.174533,-1.04086,-0.682744,-0.161558,-0.154733,-0.634045,-0.430849,-0.194627,-0.296999
0,0,-1.0472,-0.698132,-0.174533,-0.174533,-1.04086,-0.682744,-0.161558,-0.154733,-0.634045,-0.430849,-0.194627,-0.296999
0,0,-1.0472,-0.698132,-0.174533,-0.174533,-1.04086,-0.682744,-0.161558,-0.154733,-0.634045,-0.430849,-0.194627,-0.296999
0,0,-1.0472,-0.698132,-0.174533,-0.174533,-1.04086,-0.682744,-0.161558,-0.154733,-0.634045,-0.430849,-0.194627,-0.296999
0,0,-1.0472,-0.698132,-0.174533,-0.174533,-1.04086,-0.682744,-0.161558,-0.154733,-0.634045,-0.430849,-0.194627,-0.296999
0,0,-1.0472,-0.698132,-0.174533,-0.174533,-1.04086,-0.682744,-0.161558,-0.154733,-0.634045,-0.430849,-0.194627,-0.296999
0,0,-1.0472,-0.698132,-0.174533,-0.174533,-1.04086,-0.682744,-0.161558,-0.154733,-0.634045,-0.430849,-0.194627,-0.296999
0,0,-1.0472,-0.698132,-0.174533,-0.174533,-1.04086,-0.682744,-0.161558,-0.154733,-0.634045,-0.430849,-0.194627,-0.296999
0,0,-1.0472,-0.698132,-0.174533,-0.174533,-1.04086,-0.682744,-0.161558,-0.154733,-0.634045,-0.430849,-0.194627,-0.296999
0,0,-1.0472,-0.698132,-0.174533,-0.174533,-1.04086,-0.682744,-0.161558,-0.154733,-0.634045,-0.430849,-0.194627,-0.296999
0,0,-1.0472,-0.698132,-0.174533,-0.174533,-1.04086,-0.682744,-0.161558,-0.154733,-0.634045,-0.430849,-0.194627,-0.296999
0,0,-1.0472,-0.698132,-0.174533,-0.174533,-1.04086,-0.682744,-0.161558,-0.154733,-0.634045,-0.430849,-0.194627,-0.296999
0,0,-1.0472,-0.698132,-0.174533,-0.174533,-1.04086,-0.682744,-0.161558,-0.154733,-0.634045,-0.430849,-0.194627,-0.296999
0,0,-1.0472,-0.698132,-0.174533,-0.174533,-1.04086,-0.682744,-0.161621,-0.154775,-0.634045,-0.430849,-0.193682,-0.296376
0,0,-1.0472,-0.698132,-0.174533,-0.174533,-1.04086,-0.682744,-0.161621,-0.154775,-0.634045,-0.430849,-0.193682,-0.296376
0,0,-1.0472,-0.698132,-0.174533,-0.174533,-1.04086,-0.682744,-0.161621,-0.154775,-0.634045,-0.430849,-0.193682,-0.296376
0,0,-1.0472,-0.698132,-0.174533,-0.174533,-1.04086,-0.682744,-0.161621,-0.154775,-0.634045,-0.430849,-0.193682,-0.296376
0,0,-1.0472,-0.698132,-0.174533,-0.174533,-1.04086,-0.682744,-0.161621,-0.154775,-0.634045,-0.430849,-0.193682,-0.296376
0,0,-1.0472,-0.698132,-0.174533,-0.174533,-1.04086,-0.682744,-0.161621,-0.154775,-0.634045,-0.430849,-0.193682,-0.296376
0,0,-1.0472,-0.698132,-0.174533,-0.174533,-1.04086,-0.682744,-0.161621,-0.154775,-0.634045,-0.430849,-0.193682,-0.296376
0,0,-1.0472,-0.698132,-0.174533,-0.174533,-1.04086,-0.682744,-0.161621,-0.154775,-0.634045,-0.430849,-0.193682,-0.296376
0,0,-1.0472,-0.698132,-0.174533,-0.174533,-1.04086,-0.682744,-0.161621,-0.154775,-0.634045,-0.430849,-0.193682,-0.296376
0,0,-1.0472,-0.698132,-0.174533,-0.174533,-1.04086,-0.682744,-0.161621,-0.154775,-0.634045,-0.430849,-0.193682,-0.296376
0,0,-1.0472,-0.698132,-0.174533,-0.174533,-1.04086,-0.682744,-0.161621,-0.154775,-0.634045,-0.430849,-0.193682,-0.296376
0,0,-1.0472,-0.698132,-0.174533,-0.174533,-1.04086,-0.682744,-0.161621,-0.154775,-0.634045,-0.430849,-0.193682,-0.296376
0,0,-1.0472,-0.698132,-0.174533,-0.174533,-1.04086,-0.682744,-0.161621,-0.154775,-0.634045,-0.430849,-0.193682,-0.296376
0,0,-1.0472,-0.698132,-0.174533,-0.174533,-1.04086,-0.682744,-0.161621,-0.154775,-0.634045,-0.430849,-0.193682,-0.296376
0,0,-1.0472,-0.698132,-0.174533,-0.174533,-1.04086,-0.682744,-0.161621,-0.154775,-0.634045,-0.430849,-0.193682,-0.296376
0,0,-1.0472,-0.698132,-0.174533,-0.174533,-1.04086,-0.682744,-0.161621,-0.154775,-0.634045,-0.430849,-0.193682,-0.296376
0,0,-1.0472,-0.698132,-0.174533,-0.174533,-1.04086,-0.682744,-0.161621,-0.154775,-0.634045,-0.430849,-0.193682,-0.296376
0,0,-1.0472,-0.698132,-0.174533,-0.174533,-1.04086,-0.682744,-0.161621,-0.154775,-0.634045,-0.430849,-0.193682,-0.296376
0,0,-1.0472,-0.698132,-0.174533,-0.174533,-1.04086,-0.682744,-0.161621,-0.154775,-0.634045,-0.430849,-0.193682,-0.296376
0,0,-1.0472,-0.698132,-0.174533,-0.174533,-1.04086,-0.682744,-0.161621,-0.154775,-0.634045,-0.430849,-0.193682,-0.296376
0,0,-1.0472,-0.698132,-0.174533,-0.174533,-1.04086,-0.682744,-0.161621,-0.154775,-0.634045,-0.430849,-0.193682,-0.296376
0,0,-1.0472,-0.698132,-0.174533,-0.174533,-1.04086,-0.682744,-0.161621,-0.154775,-0.634045,-0.430849,-0.193682,-0.296376
0,0,-1.0472,-0.698132,-0.174533,-0.174533,-1.04086,-0.682744,-0.161621,-0.154775,-0.634045,-0.430849,-0.193682,-0.296376
0,0,-1.0472,-0.698132,-0.174533,-0.174533,-1.04086,-0.682744,-0.161621,-0.154775,-0.634045,-0.430849,-0.193682,-0.296376
0,0,-1.0472,-0.698132,-0.174533,-0.174533,-1.04086,-0.682744,-0.161621,-0.154775,-0.634045,-0.430849,-0.193682,-0.296376
0,0,-1.0472,-0.698132,-0.174533,-0.174533,-1.04086,-0.682744,-0.161621,-0.154775,-0.634045,-0.430849,-0.193682,-0.296376
0,0,-1.0472,-0.698132,-0.174533,-0.174533,-1.04086,-0.682744,-0.161621,-0.154775,-0.634045,-0.430849,-0.193682,-0.296376
0,0,-1.0472,-0.698132,-0.174533,-0.174533,-1.04086,-0.682744,-0.161621,-0.154775,-0.634045,-0.430849,-0.193682,-0.296376
0,0,-1.0472,-0.698132,-0.174533,-0.174533,-1.04086,-0.682744,-0.161621,-0.154775,-0.634045,-0.430849,-0.193682,-0.296376
0,0,-1.0472,-0.698132,-0.174533,-0.174533,-1.04086,-0.682744,-0.161621,-0.154775,-0.634045,-0.430849,-0.193682,-0.296376
0,0,-1.0472,-0.698132,-0.174533,-0.174533,-1.04086,-0.682744,-0.161621,-0.154775,-0.634045,-0.430849,-0.193682,-0.296376
0,0,-1.0472,-0.698132,-0.174533,-0.174533,-1.04086,-0.682744,-0.161621,-0.154775,-0.634045,-0.430849,-0.193682,-0.296376
0,0,-1.0472,-0.698132,-0.174533,-0.174533,-1.04086,-0.682744,-0.161621,-0.154775,-0.634045,-0.430849,-0.193682,-0.296376
0,0,-1.0472,-0.698132,-0.174533,-0.174533,-1.04086,-0.682744,-0.161621,-0.154775,-0.634045,-0.430849,-0.193682,-0.296376
0,0,-1.0472,-0.698132,-0.174533,-0.174533,-1.04086,-0.682744,-0.161621,-0.154775,-0.634045,-0.430849,-0.193682,-0.296376
0,0,-1.0472,-0.698132,-0.174533,-0.174533,-1.04086,-0.682744,-0.161621,-0.154775,-0.634045,-0.430849,-0.193682,-0.296376
0,0,-1.0472,-0.698132,-0.174533,-0.174533,-1.04086,-0.682744,-0.161684,-0.154816,-0.634045,-0.430849,-0.192737,-0.295753
0,0,-1.0472,-0.698132,-0.174533,-0.174533,-1.04086,-0.682744,-0.161684,-0.154816,-0.634045,-0.430849,-0.192737,-0.295753
0,0,-1.0472,-0.698132,-0.174533,-0.174533,-1.04086,-0.682744,-0.161684,-0.154816,-0.634045,-0.430849,-0.192737,-0.295753
0,0,-1.0472,-0.698132,-0.174533,-0.174533,-1.04086,-0.682744,-0.161684,-0.154816,-0.634045,-0.430849,-0.192737,-0.295753
0,0,-1.0472,-0.698132,-0.174533,-0.174533,-1.04086,-0.682744,-0.161684,-0.154816,-0.634045,-0.430849,-0.192737,-0.295753
0,0,-1.0472,-0.698132,-0.174533,-0.174533,-1.04086,-0.682744,-0.161684,-0.154816,-0.634045,-0.430849,-0.192737,-0.295753
0,0,-1.0472,-0.698132,-0.174533,-0.174533,-1.04086,-0.682744,-0.161684,-0.154816,-0.634045,-0.430849,-0.192737,-0.295753
0,0,-1.0472,-0.698132,-0.174533,-0.174533,-1.04086,-0.682744,-0.161684,-0.154816,-0.634045,-0.430849,-0.192737,-0.295753
0,0,-1.0472,-0.698132,-0.174533,-0.174533,-1.04086,-0.682744,-0.161684,-0.154816,-0.634045,-0.430849,-0.192737,-0.295753
0,0,-1.0472,-0.698132,-0.174533,-0.174533,-1.04086,-0.682744,-0.161684,-0.154816,-0.634045,-0.430849,-0.192737,-0.295753
0,0,-1.0472,-0.698132,-0.174533,-0.174533,-1.04086,-0.682744,-0.161684,-0.154816,-0.634045,-0.430849,-0.192737,-0.295753
0,0,-1.0472,-0.698132,-0.174533,-0.174533,-1.04086,-0.682744,-0.161684,-0.154816,-0.634045,-0.430849,-0.192737,-0.295753
0,0,-1.0472,-0.698132,-0.174533,-0.174533,-1.04086,-0.682744,-0.161684,-0.154816,-0.634045,-0.430849,-0.192737,-0.295753
0,0,-1.0472,-0.698132,-0.174533,-0.174533,-1.04086,-0.682744,-0.161684,-0.154816,-0.634045,-0.430849,-0.192737,-0.295753
0,0,-1.0472,-0.698132,-0.174533,-0.174533,-1.04086,-0.682744,-0.161684,-0.154816,-0.634045,-0.430849,-0.192737,-0.295753
0,0,-1.0472,-0.698132,-0.174533,-0.174533,-1.04086,-0.682744,-0.161684,-0.154816,-0.634045,-0.430849,-0.192737,-0.295753
0,0,-1.0472,-0.698132,-0.174533,-0.174533,-1.04086,-0.682744,-0.161684,-0.154816,-0.634045,-0.430849,-0.192737,-0.295753
0,0,-1.0472,-0.698132,-0.174533,-0.174533,-1.04086,-0.682744,-0.161684,-0.154816,-0.634045,-0.430849,-0.192737,-0.295753
0,0,-1.0472,-0.698132,-0.174533,-0.174533,-1.04086,-0.682744,-0.161684,-0.154816,-0.634045,-0.430849,-0.192737,-0.295753
0,0,-1.0472,-0.698132,-0.174533,-0.174533,-1.04086,-0.682744,-0.161684,-0.154816,-0.634045,-0.430849,-0.192737,-0.295753
0,0,-1.0472,-0.698132,-0.174533,-0.174533,-1.04086,-0.682744,-0.161684,-0.154816,-0.634045,-0.430849,-0.192737,-0.295753
0,0,-1.0472,-0.698132,-0.174533,-0.174533,-1.04086,-0.682744,-0.161684,-0.154816,-0.634045,-0.430849,-0.192737,-0.295753
0,0,-1.0472,-0.698132,-0.174533,-0.174533,-1.04086,-0.682744,-0.161684,-0.154816,-0.634045,-0.430849,-0.192737,-0.295753
0,0,-1.0472,-0.698132,-0.174533,-0.174533,-1.04086,-0.682744,-0.161684,-0.154816,-0.634045,-0.430849,-0.192737,-0.295753
0,0,-1.0472,-0.698132,-0.174533,-0.174533,-1.04086,-0.682744,-0.161684,-0.154816,-0.634045,-0.430849,-0.192737,-0.295753
0,0,-1.0472,-0.698132,-0.174533,-0.174533,-1.04086,-0.682744,-0.161684,-0.154816,-0.634045,-0.430849,-0.192737,-0.295753
0,0,-1.0472,-0.698132,-0.174533,-0.174533,-1.04086,-0.682744,-0.161684,-0.154816,-0.634045,-0.430849,-0.192737,-0.295753
0,0,-1.0472,-0.698132,-0.174533,-0.174533,-1.04086,-0.682744,-0.161684,-0.154816,-0.634045,-0.430849,-0.192737,-0.295753
0,0,-1.0472,-0.698132,-0.174533,-0.174533,-1.04086,-0.682744,-0.161684,-0.154816,-0.634045,-0.430849,-0.192737,-0.295753
0,0,-1.0472,-0.698132,-0.174533,-0.174533,-1.04086,-0.682744,-0.161684,-0.154816,-0.634045,-0.430849,-0.192737,-0.295753
0,0,-1.0472,-0.698132,-0.174533,-0.174533,-1.04086,-0.682744,-0.161684,-0.154816,-0.634045,-0.430849,-0.192737,-0.295753
0,0,-1.0472,-0.698132,-0.174533,-0.174533,-1.04086,-0.682744,-0.161684,-0.154816,-0.634045,-0.430849,-0.192737,-0.295753
0,0,-1.0472,-0.698132,-0.174533,-0.174533,-1.04086,-0.682744,-0.161684,-0.154816,-0.634045,-0.430849,-0.192737,-0.295753
0,0,-1.0472,-0.698132,-0.174533,-0.174533,-1.04086,-0.682744,-0.161684,-0.154816,-0.634045,-0.430849,-0.192737,-0.295753
0,0,-1.0472,-0.698132,-0.174533,-0.174533,-1.04086,-0.682744,-0.161684,-0.154816,-0.634045,-0.430849,-0.192737,-0.295753
0,0,-1.0472,-0.698132,-0.174533,-0.174533,-1.04086,-0.682744,-0.161684,-0.154816,-0.634045,-0.430849,-0.192737,-0.295753
0,0,-1.0472,-0.698132,-0.174533,-0.174533,-1.04086,-0.682744,-0.161684,-0.154816,-0.634045,-0.430849,-0.192737,-0.295753
0,0,-1.0472,-0.698132,-0.174533,-0.174533,-1.04086,-0.682744,-0.161684,-0.154816,-0.634045,-0.430849,-0.192737,-0.295753
0,0,-1.0472,-0.698132,-0.174533,-0.174533,-1.04086,-0.682744,-0.161684,-0.154816,-0.634045,-0.430849,-0.192737,-0.295753
0,0,-1.0472,-0.698132,-0.174533,-0.174533,-1.04086,-0.682744,-0.161684,-0.154816,-0.634045,-0.430849,-0.192737,-0.295753
0,0,-1.0472,-0.698132,-0.174533,-0.174533,-1.04086,-0.682744,-0.161684,-0.154816,-0.634045,-0.430849,-0.192737,-0.295753
0,0,-1.0472,-0.698132,-0.174533,-0.174533,-1.04086,-0.682744,-0.161684,-0.154816,-0.634045,-0.430849,-0.192737,-0.295753
0,0,-1.0472,-0.698132,-0.174533,-0.174533,-1.04086,-0.682744,-0.161684,-0.154816,-0.634045,-0.430849,-0.192737,-0.295753
0,0,-1.0472,-0.698132,-0.174533,-0.174533,-1.04086,-0.682744,-0.161684,-0.154816,-0.634045,-0.430849,-0.192737,-0.295753
0,0,-1.0472,-0.698132,-0.174533,-0.174533,-1.04086,-0.682744,-0.161684,-0.154816,-0.634045,-0.430849,-0.192737,-0.295753
0,0,-1.0472,-0.698132,-0.174533,-0.174533,-1.04086,-0.682744,-0.161684,-0.154816,-0.634045,-0.430849,-0.192737,-0.295753
0,0,-1.0472,-0.698132,-0.174533,-0.174533,-1.04086,-0.682744,-0.161684,-0.154816,-0.634045,-0.430849,-0.192737,-0.295753
0,0,-1.0472,-0.698132,-0.174533,-0.174533,-1.04086,-0.682744,-0.161684,-0.154816,-0.634045,-0.430849,-0.192737,-0.295753
0,0,-1.0472,-0.698132,-0.174533,-0.174533,-1.04086,-0.682744,-0.161684,-0.154816,-0.634045,-0.430849,-0.192737,-0.295753
0,0,-1.0472,-0.698132,-0.174533,-0.174533,-1.04086,-0.682744,-0.161684,-0.154816,-0.634045,-0.430849,-0.192737,-0.295753
0,0,-1.0472,-0.698132,-0.174533,-0.174533,-1.04086,-0.682744,-0.161684,-0.154816,-0.634045,-0.430849,-0.192737,-0.295753
0,0,-1.0472,-0.698132,-0.174533,-0.174533,-1.04086,-0.682744,-0.161684,-0.154816,-0.634045,-0.430849,-0.192737,-0.295753
0,0,-1.0472,-0.698132,-0.174533,-0.174533,-1.04086,-0.682744,-0.161684,-0.154816,-0.634045,-0.430849,-0.192737,-0.295753
0,0,-1.0472,-0.698132,-0.174533,-0.174533,-1.04086,-0.682744,-0.161684,-0.154816,-0.634045,-0.430849,-0.192737,-0.295753
0,0,-1.0472,-0.698132,-0.174533,-0.174533,-1.04086,-0.682744,-0.161684,-0.154816,-0.634045,-0.430849,-0.192737,-0.295753
0,0,-1.0472,-0.698132,-0.174533,-0.174533,-1.04086,-0.682744,-0.161684,-0.154816,-0.634045,-0.430849,-0.192737,-0.295753
0,0,-1.0472,-0.698132,-0.174533,-0.174533,-1.04086,-0.682744,-0.161684,-0.154816,-0.634045,-0.430849,-0.192737,-0.295753
0,0,-1.0472,-0.698132,-0.174533,-0.174533,-1.04086,-0.682744,-0.161684,-0.154816,-0.634045,-0.430849,-0.192737,-0.295753
0,0,-1.0472,-0.698132,-0.174533,-0.174533,-1.04086,-0.682744,-0.161684,-0.154816,-0.634045,-0.430849,-0.192737,-0.295753
0,0,-1.0472,-0.698132,-0.174533,-0.174533,-1.04086,-0.682744,-0.161684,-0.154816,-0.634045,-0.430849,-0.192737,-0.295753
0,0,-1.0472,-0.698132,-0.174533,-0.174533,-1.04086,-0.682744,-0.161684,-0.154816,-0.634045,-0.430849,-0.192737,-0.295753
0,0,-1.0472,-0.698132,-0.174533,-0.174533,-1.04086,-0.682744,-0.161684,-0.154816,-0.634045,-0.430849,-0.192737,-0.295753
0,0,-1.0472,-0.698132,-0.174533,-0.174533,-1.04086,-0.682744,-0.161684,-0.154816,-0.634045,-0.430849,-0.192737,-0.295753
0,0,-1.0472,-0.698132,-0.174533,-0.174533,-1.04086,-0.682744,-0.161684,-0.154816,-0.634045,-0.430849,-0.192737,-0.295753
0,0,-1.0472,-0.698132,-0.174533,-0.174533,-1.04086,-0.682744,-0.161684,-0.154816,-0.634045,-0.430849,-0.192737,-0.295753
0,0,-1.0472,-0.698132,-0.174533,-0.174533,-1.04086,-0.682744,-0.161684,-0.154816,-0.634045,-0.430849,-0.192737,-0.295753
0,0,-1.0472,-0.698132,-0.174533,-0.174533,-1.04086,-0.682744,-0.161684,-0.154816,-0.634045,-0.430849,-0.192737,-0.295753
0,0,-1.0472,-0.698132,-0.174533,-0.174533,-1.04086,-0.682744,-0.161684,-0.154816,-0.634045,-0.430849,-0.192737,-0.295753
0,0,-1.0472,-0.698132,-0.174533,-0.174533,-1.04086,-0.682744,-0.161684,-0.154816,-0.634045,-0.430849,-0.192737,-0.295753
0,0,-1.0472,-0.698132,-0.174533,-0.174533,-1.04086,-0.682744,-0.161684,-0.154816,-0.634045,-0.430849,-0.192737,-0.295753
0,0,-1.0472,-0.698132,-0.174533,-0.174533,-1.04086,-0.682744,-0.161684,-0.154816,-0.634045,-0.430849,-0.192737,-0.295753
0,0,-1.0472,-0.698132,-0.174533,-0.174533,-1.04086,-0.682744,-0.161684,-0.154816,-0.634045,-0.430849,-0.192737,-0.295753
0,0,-1.0472,-0.698132,-0.174533,-0.174533,-1.04086,-0.682744,-0.161684,-0.154816,-0.634045,-0.430849,-0.192737,-0.295753
0,0,-1.0472,-0.698132,-0.174533,-0.174533,-1.04086,-0.682744,-0.161625,-0.154836,-0.634045,-0.430849,-0.193619,-0.295454
0,0,-1.0472,-0.698132,-0.174533,-0.174533,-1.04086,-0.682744,-0.161625,-0.154836,-0.634045,-0.430849,-0.193619,-0.295454
0,0,-1.0472,-0.698132,-0.174533,-0.174533,-1.04086,-0.682744,-0.161625,-0.154836,-0.634045,-0.430849,-0.193619,-0.295454
0,0,-1.0472,-0.698132,-0.174533,-0.174533,-1.04086,-0.682744,-0.161625,-0.154836,-0.634045,-0.430849,-0.193619,-0.295454
0,0,-1.0472,-0.698132,-0.174533,-0.174533,-1.04086,-0.682744,-0.161625,-0.154836,-0.634045,-0.430849,-0.193619,-0.295454
0,0,-1.0472,-0.698132,-0.174533,-0.174533,-1.04086,-0.682744,-0.161625,-0.154836,-0.634045,-0.430849,-0.193619,-0.295454
0,0,-1.0472,-0.698132,-0.174533,-0.174533,-1.04086,-0.682744,-0.161625,-0.154836,-0.634045,-0.430849,-0.193619,-0.295454
0,0,-1.0472,-0.698132,-0.174533,-0.174533,-1.04086,-0.682744,-0.161625,-0.154836,-0.634045,-0.430849,-0.193619,-0.295454
0,0,-1.0472,-0.698132,-0.174533,-0.174533,-1.04086,-0.682744,-0.161625,-0.154836,-0.634045,-0.430849,-0.193619,-0.295454
0,0,-1.0472,-0.698132,-0.174533,-0.174533,-1.04086,-0.682744,-0.161625,-0.154836,-0.634045,-0.430849,-0.193619,-0.295454
0,0,-1.0472,-0.698132,-0.174533,-0.174533,-1.04086,-0.682744,-0.161625,-0.154836,-0.634045,-0.430849,-0.193619,-0.295454
0,0,-1.0472,-0.698132,-0.174533,-0.174533,-1.04086,-0.682744,-0.161625,-0.154836,-0.634045,-0.430849,-0.193619,-0.295454
0,0,-1.0472,-0.698132,-0.174533,-0.174533,-1.04086,-0.682744,-0.161625,-0.154836,-0.634045,-0.430849,-0.193619,-0.295454
0,0,-1.0472,-0.698132,-0.174533,-0.174533,-1.04086,-0.682744,-0.161625,-0.154836,-0.634045,-0.430849,-0.193619,-0.295454
0,0,-1.0472,-0.698132,-0.174533,-0.174533,-1.04086,-0.682744,-0.161625,-0.154836,-0.634045,-0.430849,-0.193619,-0.295454
0,0,-1.0472,-0.698132,-0.174533,-0.174533,-1.04086,-0.682744,-0.161625,-0.154836,-0.634045,-0.430849,-0.193619,-0.295454
0,0,-1.0472,-0.698132,-0.174533,-0.174533,-1.04086,-0.682744,-0.161625,-0.154836,-0.634045,-0.430849,-0.193619,-0.295454
0,0,-1.0472,-0.698132,-0.174533,-0.174533,-1.04086,-0.682744,-0.161625,-0.154836,-0.634045,-0.430849,-0.193619,-0.295454
0,0,-1.0472,-0.698132,-0.174533,-0.174533,-1.04086,-0.682744,-0.161625,-0.154836,-0.634045,-0.430849,-0.193619,-0.295454
0,0,-1.0472,-0.698132,-0.174533,-0.174533,-1.04086,-0.682744,-0.161566,-0.154856,-0.634045,-0.430849,-0.1945,-0.295155
0,0,-1.0472,-0.698132,-0.174533,-0.174533,-1.04086,-0.682744,-0.161566,-0.154856,-0.634045,-0.430849,-0.1945,-0.295155
0,0,-1.0472,-0.698132,-0.174533,-0.174533,-1.04086,-0.682744,-0.161566,-0.154856,-0.634045,-0.430849,-0.1945,-0.295155
0,0,-1.0472,-0.698132,-0.174533,-0.174533,-1.04086,-0.682744,-0.161566,-0.154856,-0.634045,-0.430849,-0.1945,-0.295155
0,0,-1.0472,-0.698132,-0.174533,-0.174533,-1.04086,-0.682744,-0.161566,-0.154856,-0.634045,-0.430849,-0.1945,-0.295155
0,0,-1.0472,-0.698132,-0.174533,-0.174533,-1.04086,-0.682744,-0.161566,-0.154856,-0.634045,-0.430849,-0.1945,-0.295155
0,0,-1.0472,-0.698132,-0.174533,-0.174533,-1.04086,-0.682744,-0.161566,-0.154856,-0.634045,-0.430849,-0.1945,-0.295155
0,0,-1.0472,-0.698132,-0.174533,-0.174533,-1.04086,-0.682744,-0.161566,-0.154856,-0.634045,-0.430849,-0.1945,-0.295155
0,0,-1.0472,-0.698132,-0.174533,-0.174533,-1.04086,-0.682744,-0.161566,-0.154856,-0.634045,-0.430849,-0.1945,-0.295155
0,0,-1.0472,-0.698132,-0.174533,-0.174533,-1.04086,-0.682744,-0.161566,-0.154856,-0.634045,-0.430849,-0.1945,-0.295155
0,0,-1.0472,-0.698132,-0.174533,-0.174533,-1.04086,-0.682744,-0.161566,-0.154856,-0.634045,-0.430849,-0.1945,-0.295155
0,0,-1.0472,-0.698132,-0.174533,-0.174533,-1.04086,-0.682744,-0.161566,-0.154856,-0.634045,-0.430849,-0.1945,-0.295155
0,0,-1.0472,-0.698132,-0.174533,-0.174533,-1.04086,-0.682744,-0.161566,-0.154856,-0.634045,-0.430849,-0.1945,-0.295155
0,0,-1.0472,-0.698132,-0.174533,-0.174533,-1.04086,-0.682744,-0.161566,-0.154856,-0.634045,-0.430849,-0.1945,-0.295155
0,0,-1.0472,-0.698132,-0.174533,-0.174533,-1.04086,-0.682744,-0.161566,-0.154856,-0.634045,-0.430849,-0.1945,-0.295155
0,0,-1.0472,-0.698132,-0.174533,-0.174533,-1.04086,-0.682744,-0.161566,-0.154856,-0.634045,-0.430849,-0.1945,-0.295155
0,0,-1.0472,-0.698132,-0.174533,-0.174533,-1.04086,-0.682744,-0.161566,-0.154856,-0.634045,-0.430849,-0.1945,-0.295155
0,0,-1.0472,-0.698132,-0.174533,-0.174533,-1.04086,-0.682744,-0.161566,-0.154856,-0.634045,-0.430849,-0.1945,-0.295155
0,0,-1.0472,-0.698132,-0.174533,-0.174533,-1.04086,-0.682744,-0.161566,-0.154856,-0.634045,-0.430849,-0.1945,-0.295155
0,0,-1.0472,-0.698132,-0.174533,-0.174533,-1.04086,-0.682744,-0.161566,-0.154856,-0.634045,-0.430849,-0.1945,-0.295155
0,0,-1.0472,-0.698132,-0.174533,-0.174533,-1.04086,-0.682744,-0.161566,-0.154856,-0.634045,-0.430849,-0.1945,-0.295155
0,0,-1.0472,-0.698132,-0.174533,-0.174533,-1.04086,-0.682744,-0.161566,-0.154856,-0.634045,-0.430849,-0.1945,-0.295155
0,0,-1.0472,-0.698132,-0.174533,-0.174533,-1.04086,-0.682744,-0.161566,-0.154856,-0.634045,-0.430849,-0.1945,-0.295155
0,0,-1.0472,-0.698132,-0.174533,-0.174533,-1.04086,-0.682744,-0.161566,-0.154856,-0.634045,-0.430849,-0.1945,-0.295155
0,0,-1.0472,-0.698132,-0.174533,-0.174533,-1.04086,-0.682744,-0.161566,-0.154856,-0.634045,-0.430849,-0.1945,-0.295155
0,0,-1.0472,-0.698132,-0.174533,-0.174533,-1.04086,-0.682744,-0.161566,-0.154856,-0.634045,-0.430849,-0.1945,-0.295155
0,0,-1.0472,-0.698132,-0.174533,-0.174533,-1.04086,-0.682744,-0.161566,-0.154856,-0.634045,-0.430849,-0.1945,-0.295155
0,0,-1.0472,-0.698132,-0.174533,-0.174533,-1.04086,-0.682744,-0.161566,-0.154856,-0.634045,-0.430849,-0.1945,-0.295155
0,0,-1.0472,-0.698132,-0.174533,-0.174533,-1.04086,-0.682744,-0.161566,-0.154856,-0.634045,-0.430849,-0.1945,-0.295155
0,0,-1.0472,-0.698132,-0.174533,-0.174533,-1.04086,-0.682744,-0.161566,-0.154856,-0.634045,-0.430849,-0.1945,-0.295155
0,0,-1.0472,-0.698132,-0.174533,-0.174533,-1.04086,-0.682744,-0.161566,-0.154856,-0.634045,-0.430849,-0.1945,-0.295155
0,0,-1.0472,-0.698132,-0.174533,-0.174533,-1.04086,-0.682744,-0.161566,-0.154856,-0.634045,-0.430849,-0.1945,-0.295155
0,0,-1.0472,-0.698132,-0.174533,-0.174533,-1.04086,-0.682744,-0.161566,-0.154856,-0.634045,-0.430849,-0.1945,-0.295155
0,0,-1.0472,-0.698132,-0.174533,-0.174533,-1.04086,-0.682744,-0.161507,-0.154876,-0.634045,-0.430849,-0.195381,-0.294856
0,0,-1.0472,-0.698132,-0.174533,-0.174533,-1.04086,-0.682744,-0.161507,-0.154876,-0.634045,-0.430849,-0.195381,-0.294856
0,0,-1.0472,-0.698132,-0.174533,-0.174533,-1.04086,-0.682744,-0.161507,-0.154876,-0.634045,-0.430849,-0.195381,-0.294856
0,0,-1.0472,-0.698132,-0.174533,-0.174533,-1.04086,-0.682744,-0.161507,-0.154876,-0.634045,-0.430849,-0.195381,-0.294856
0,0,-1.0472,-0.698132,-0.174533,-0.174533,-1.04086,-0.682744,-0.161507,-0.154876,-0.634045,-0.430849,-0.195381,-0.294856
0,0,-1.0472,-0.698132,-0.174533,-0.174533,-1.04086,-0.682744,-0.161507,-0.154876,-0.634045,-0.430849,-0.195381,-0.294856
0,0,-1.0472,-0.698132,-0.174533,-0.174533,-1.04086,-0.682744,-0.161507,-0.154876,-0.634045,-0.430849,-0.195381,-0.294856
0,0,-1.0472,-0.698132,-0.174533,-0.174533,-1.04086,-0.682744,-0.161507,-0.154876,-0.634045,-0.430849,-0.195381,-0.294856
0,0,-1.0472,-0.698132,-0.174533,-0.174533,-1.04086,-0.682744,-0.161507,-0.154876,-0.634045,-0.430849,-0.195381,-0.294856
0,0,-1.0472,-0.698132,-0.174533,-0.174533,-1.04086,-0.682744,-0.161509,-0.154936,-0.634045,-0.430849,-0.195352,-0.293959
0,0,-1.0472,-0.698132,-0.174533,-0.174533,-1.04086,-0.682744,-0.161509,-0.154936,-0.634045,-0.430849,-0.195352,-0.293959
0,0,-1.0472,-0.698132,-0.174533,-0.174533,-1.04086,-0.682744,-0.161509,-0.154936,-0.634045,-0.430849,-0.195352,-0.293959
0,0,-1.0472,-0.698132,-0.174533,-0.174533,-1.04086,-0.682744,-0.161509,-0.154936,-0.634045,-0.430849,-0.195352,-0.293959
0,0,-1.0472,-0.698132,-0.174533,-0.174533,-1.04086,-0.682744,-0.161509,-0.154936,-0.634045,-0.430849,-0.195352,-0.293959
0,0,-1.0472,-0.698132,-0.174533,-0.174533,-1.04086,-0.682744,-0.161509,-0.154936,-0.634045,-0.430849,-0.195352,-0.293959
0,0,-1.0472,-0.698132,-0.174533,-0.174533,-1.04086,-0.682744,-0.161509,-0.154936,-0.634045,-0.430849,-0.195352,-0.293959
0,0,-1.0472,-0.698132,-0.174533,-0.174533,-1.04086,-0.682744,-0.161509,-0.154936,-0.634045,-0.430849,-0.195352,-0.293959
0,0,-1.0472,-0.698132,-0.174533,-0.174533,-1.04086,-0.682744,-0.161509,-0.154936,-0.634045,-0.430849,-0.195352,-0.293959
0,0,-1.0472,-0.698132,-0.174533,-0.174533,-1.04086,-0.682744,-0.161509,-0.154936,-0.634045,-0.430849,-0.195352,-0.293959
0,0,-1.0472,-0.698132,-0.174533,-0.174533,-1.04086,-0.682744,-0.161509,-0.154936,-0.634045,-0.430849,-0.195352,-0.293959
0,0,-1.0472,-0.698132,-0.174533,-0.174533,-1.04086,-0.682744,-0.161509,-0.154936,-0.634045,-0.430849,-0.195352,-0.293959
0,0,-1.0472,-0.698132,-0.174533,-0.174533,-1.04086,-0.682744,-0.161509,-0.154936,-0.634045,-0.430849,-0.195352,-0.293959
0,0,-1.0472,-0.698132,-0.174533,-0.174533,-1.04086,-0.682744,-0.161509,-0.154936,-0.634045,-0.430849,-0.195352,-0.293959
0,0,-1.0472,-0.698132,-0.174533,-0.174533,-1.04086,-0.682744,-0.161509,-0.154936,-0.634045,-0.430849,-0.195352,-0.293959
0,0,-1.0472,-0.698132,-0.174533,-0.174533,-1.04086,-0.682744,-0.161509,-0.154936,-0.634045,-0.430849,-0.195352,-0.293959
0,0,-1.0472,-0.698132,-0.174533,-0.174533,-1.04086,-0.682744,-0.161509,-0.154936,-0.634045,-0.430849,-0.195352,-0.293959
0,0,-1.0472,-0.698132,-0.174533,-0.174533,-1.04086,-0.682744,-0.161509,-0.154936,-0.634045,-0.430849,-0.195352,-0.293959
0,0,-1.0472,-0.698132,-0.174533,-0.174533,-1.04086,-0.682744,-0.161509,-0.154936,-0.634045,-0.430849,-0.195352,-0.293959
0,0,-1.0472,-0.698132,-0.174533,-0.174533,-1.04086,-0.682744,-0.161509,-0.154936,-0.634045,-0.430849,-0.195352,-0.293959
0,0,-1.0472,-0.698132,-0.174533,-0.174533,-1.04086,-0.682744,-0.161509,-0.154936,-0.634045,-0.430849,-0.195352,-0.293959
0,0,-1.0472,-0.698132,-0.174533,-0.174533,-1.04086,-0.682744,-0.161509,-0.154936,-0.634045,-0.430849,-0.195352,-0.293959
0,0,-1.0472,-0.698132,-0.174533,-0.174533,-1.04086,-0.682744,-0.161509,-0.154936,-0.634045,-0.430849,-0.195352,-0.293959
0,0,-1.0472,-0.698132,-0.174533,-0.174533,-1.04086,-0.682744,-0.161509,-0.154936,-0.634045,-0.430849,-0.195352,-0.293959
0,0,-1.0472,-0.698132,-0.174533,-0.174533,-1.04086,-0.682744,-0.161509,-0.154936,-0.634045,-0.430849,-0.195352,-0.293959
0,0,-1.0472,-0.698132,-0.174533,-0.174533,-1.04086,-0.682744,-0.161509,-0.154936,-0.634045,-0.430849,-0.195352,-0.293959
0,0,-1.0472,-0.698132,-0.174533,-0.174533,-1.04086,-0.682744,-0.161509,-0.154936,-0.634045,-0.430849,-0.195352,-0.293959
0,0,-1.0472,-0.698132,-0.174533,-0.174533,-1.04086,-0.682744,-0.161509,-0.154936,-0.634045,-0.430849,-0.195352,-0.293959
0,0,-1.0472,-0.698132,-0.174533,-0.174533,-1.04086,-0.682744,-0.161509,-0.154936,-0.634045,-0.430849,-0.195352,-0.293959
0,0,-1.0472,-0.698132,-0.174533,-0.174533,-1.04086,-0.682744,-0.161509,-0.154936,-0.634045,-0.430849,-0.195352,-0.293959
0,0,-1.0472,-0.698132,-0.174533,-0.174533,-1.04086,-0.682744,-0.161509,-0.154936,-0.634045,-0.430849,-0.195352,-0.293959
0,0,-1.0472,-0.698132,-0.174533,-0.174533,-1.04086,-0.682744,-0.161509,-0.154936,-0.634045,-0.430849,-0.195352,-0.293959
0,0,-1.0472,-0.698132,-0.174533,-0.174533,-1.04086,-0.682744,-0.161509,-0.154936,-0.634045,-0.430849,-0.195352,-0.293959
0,0,-1.0472,-0.698132,-0.174533,-0.174533,-1.04086,-0.682744,-0.161509,-0.154936,-0.634045,-0.430849,-0.195352,-0.293959
0,0,-1.0472,-0.698132,-0.174533,-0.174533,-1.04086,-0.682744,-0.161509,-0.154936,-0.634045,-0.430849,-0.195352,-0.293959
0,0,-1.0472,-0.698132,-0.174533,-0.174533,-1.04086,-0.682744,-0.161509,-0.154936,-0.634045,-0.430849,-0.195352,-0.293959
0,0,-1.0472,-0.698132,-0.174533,-0.174533,-1.04086,-0.682744,-0.161509,-0.154936,-0.634045,-0.430849,-0.195352,-0.293959
0,0,-1.0472,-0.698132,-0.174533,-0.174533,-1.04086,-0.682744,-0.161509,-0.154936,-0.634045,-0.430849,-0.195352,-0.293959
0,0,-1.0472,-0.698132,-0.174533,-0.174533,-1.04086,-0.682744,-0.161509,-0.154936,-0.634045,-0.430849,-0.195352,-0.293959
0,0,-1.0472,-0.698132,-0.174533,-0.174533,-1.04086,-0.682744,-0.161509,-0.154936,-0.634045,-0.430849,-0.195352,-0.293959
0,0,-1.0472,-0.698132,-0.174533,-0.174533,-1.04086,-0.682744,-0.161509,-0.154936,-0.634045,-0.430849,-0.195352,-0.293959
0,0,-1.0472,-0.698132,-0.174533,-0.174533,-1.04086,-0.682744,-0.161509,-0.154936,-0.634045,-0.430849,-0.195352,-0.293959
0,0,-1.0472,-0.698132,-0.174533,-0.174533,-1.04086,-0.682744,-0.161509,-0.154936,-0.634045,-0.430849,-0.195352,-0.293959
0,0,-1.0472,-0.698132,-0.174533,-0.174533,-1.04086,-0.682744,-0.161509,-0.154936,-0.634045,-0.430849,-0.195352,-0.293959
0,0,-1.0472,-0.698132,-0.174533,-0.174533,-1.04086,-0.682744,-0.161509,-0.154936,-0.634045,-0.430849,-0.195352,-0.293959
0,0,-1.0472,-0.698132,-0.174533,-0.174533,-1.04086,-0.682744,-0.161509,-0.154936,-0.634045,-0.430849,-0.195352,-0.293959
0,0,-1.0472,-0.698132,-0.174533,-0.174533,-1.04086,-0.682744,-0.161509,-0.154936,-0.634045,-0.430849,-0.195352,-0.293959
0,0,-1.0472,-0.698132,-0.174533,-0.174533,-1.04086,-0.682744,-0.161509,-0.154936,-0.634045,-0.430849,-0.195352,-0.293959
0,0,-1.0472,-0.698132,-0.174533,-0.174533,-1.04086,-0.682744,-0.161509,-0.154936,-0.634045,-0.430849,-0.195352,-0.293959
0,0,-1.0472,-0.698132,-0.174533,-0.174533,-1.04086,-0.682744,-0.161509,-0.154936,-0.634045,-0.430849,-0.195352,-0.293959
0,0,-1.0472,-0.698132,-0.174533,-0.174533,-1.04086,-0.682744,-0.161509,-0.154936,-0.634045,-0.430849,-0.195352,-0.293959
0,0,-1.0472,-0.698132,-0.174533,-0.174533,-1.04086,-0.682744,-0.161509,-0.154936,-0.634045,-0.430849,-0.195352,-0.293959
0,0,-1.0472,-0.698132,-0.174533,-0.174533,-1.04086,-0.682744,-0.161509,-0.154936,-0.634045,-0.430849,-0.195352,-0.293959
0,0,-1.0472,-0.698132,-0.174533,-0.174533,-1.04086,-0.682744,-0.161509,-0.154936,-0.634045,-0.430849,-0.195352,-0.293959
0,0,-1.0472,-0.698132,-0.174533,-0.174533,-1.04086,-0.682744,-0.161509,-0.154936,-0.634045,-0.430849,-0.195352,-0.293959
0,0,-1.0472,-0.698132,-0.174533,-0.174533,-1.04086,-0.682744,-0.161509,-0.154936,-0.634045,-0.430849,-0.195352,-0.293959
0,0,-1.0472,-0.698132,-0.174533,-0.174533,-1.04086,-0.682744,-0.161509,-0.154936,-0.634045,-0.430849,-0.195352,-0.293959
0,0,-1.0472,-0.698132,-0.174533,-0.174533,-1.04086,-0.682744,-0.161509,-0.154936,-0.634045,-0.430849,-0.195352,-0.293959
0,0,-1.0472,-0.698132,-0.174533,-0.174533,-1.04086,-0.682744,-0.161509,-0.154936,-0.634045,-0.430849,-0.195352,-0.293959
0,0,-1.0472,-0.698132,-0.174533,-0.174533,-1.04086,-0.682744,-0.161509,-0.154936,-0.634045,-0.430849,-0.195352,-0.293959
0,0,-1.0472,-0.698132,-0.174533,-0.174533,-1.04086,-0.682744,-0.161509,-0.154936,-0.634045,-0.430849,-0.195352,-0.293959
0,0,-1.0472,-0.698132,-0.174533,-0.174533,-1.04086,-0.682744,-0.161509,-0.154936,-0.634045,-0.430849,-0.195352,-0.293959
0,0,-1.0472,-0.698132,-0.174533,-0.174533,-1.04086,-0.682744,-0.161509,-0.154936,-0.634045,-0.430849,-0.195352,-0.293959
0,0,-1.0472,-0.698132,-0.174533,-0.174533,-1.04086,-0.682744,-0.161509,-0.154936,-0.634045,-0.430849,-0.195352,-0.293959
0,0,-1.0472,-0.698132,-0.174533,-0.174533,-1.04086,-0.682744,-0.161509,-0.154936,-0.634045,-0.430849,-0.195352,-0.293959
0,0,-1.0472,-0.698132,-0.174533,-0.174533,-1.04086,-0.682744,-0.161509,-0.154936,-0.634045,-0.430849,-0.195352,-0.293959
0,0,-1.0472,-0.698132,-0.174533,-0.174533,-1.04086,-0.682744,-0.161509,-0.154936,-0.634045,-0.430849,-0.195352,-0.293959
0,0,-1.0472,-0.698132,-0.174533,-0.174533,-1.04086,-0.682744,-0.161509,-0.154936,-0.634045,-0.430849,-0.195352,-0.293959
0,0,-1.0472,-0.698132,-0.174533,-0.174533,-1.04086,-0.682744,-0.161509,-0.154936,-0.634045,-0.430849,-0.195352,-0.293959
0,0,-1.0472,-0.698132,-0.174533,-0.174533,-1.04086,-0.682744,-0.161509,-0.154936,-0.634045,-0.430849,-0.195352,-0.293959
0,0,-1.0472,-0.698132,-0.174533,-0.174533,-1.04086,-0.682744,-0.161509,-0.154936,-0.634045,-0.430849,-0.195352,-0.293959
0,0,-1.0472,-0.698132,-0.174533,-0.174533,-1.04086,-0.682744,-0.161509,-0.154936,-0.634045,-0.430849,-0.195352,-0.293959
0,0,-1.0472,-0.698132,-0.174533,-0.174533,-1.04086,-0.682744,-0.161509,-0.154936,-0.634045,-0.430849,-0.195352,-0.293959
0,0,-1.0472,-0.698132,-0.174533,-0.174533,-1.04086,-0.682744,-0.161509,-0.154936,-0.634045,-0.430849,-0.195352,-0.293959
0,0,-1.0472,-0.698132,-0.174533,-0.174533,-1.04086,-0.682744,-0.161509,-0.154936,-0.634045,-0.430849,-0.195352,-0.293959
0,0,-1.0472,-0.698132,-0.174533,-0.174533,-1.04086,-0.682744,-0.161509,-0.154936,-0.634045,-0.430849,-0.195352,-0.293959
0,0,-1.0472,-0.698132,-0.174533,-0.174533,-1.04086,-0.682744,-0.161509,-0.154936,-0.634045,-0.430849,-0.195352,-0.293959
0,0,-1.0472,-0.698132,-0.174533,-0.174533,-1.04086,-0.682744,-0.161509,-0.154936,-0.634045,-0.430849,-0.195352,-0.293959
0,0,-1.0472,-0.698132,-0.174533,-0.174533,-1.04086,-0.682744,-0.161509,-0.154936,-0.634045,-0.430849,-0.195352,-0.293959
0,0,-1.0472,-0.698132,-0.174533,-0.174533,-1.04086,-0.682744,-0.161509,-0.154936,-0.634045,-0.430849,-0.195352,-0.293959
0,0,-1.0472,-0.698132,-0.174533,-0.174533,-1.04086,-0.682744,-0.161509,-0.154936,-0.634045,-0.430849,-0.195352,-0.293959
0,0,-1.0472,-0.698132,-0.174533,-0.174533,-1.04086,-0.682744,-0.161509,-0.154936,-0.634045,-0.430849,-0.195352,-0.293959
0,0,-1.0472,-0.698132,-0.174533,-0.174533,-1.04086,-0.682744,-0.161509,-0.154936,-0.634045,-0.430849,-0.195352,-0.293959
0,0,-1.0472,-0.698132,-0.174533,-0.174533,-1.04086,-0.682744,-0.161509,-0.154936,-0.634045,-0.430849,-0.195352,-0.293959
0,0,-1.0472,-0.698132,-0.174533,-0.174533,-1.04086,-0.682744,-0.161509,-0.154936,-0.634045,-0.430849,-0.195352,-0.293959
0,0,-1.0472,-0.698132,-0.174533,-0.174533,-1.04086,-0.682744,-0.161509,-0.154936,-0.634045,-0.430849,-0.195352,-0.293959
0,0,-1.0472,-0.698132,-0.174533,-0.174533,-1.04086,-0.682744,-0.161509,-0.154936,-0.634045,-0.430849,-0.195352,-0.293959
0,0,-1.0472,-0.698132,-0.174533,-0.174533,-1.04086,-0.682744,-0.161509,-0.154936,-0.634045,-0.430849,-0.195352,-0.293959
0,0,-1.0472,-0.698132,-0.174533,-0.174533,-1.04086,-0.682744,-0.161509,-0.154936,-0.634045,-0.430849,-0.195352,-0.293959
0,0,-1.0472,-0.698132,-0.174533,-0.174533,-1.04086,-0.682744,-0.161509,-0.154936,-0.634045,-0.430849,-0.195352,-0.293959
0,0,-1.0472,-0.698132,-0.174533,-0.174533,-1.04086,-0.682744,-0.161509,-0.154936,-0.634045,-0.430849,-0.195352,-0.293959
0,0,-1.0472,-0.698132,-0.174533,-0.174533,-1.04086,-0.682744,-0.161509,-0.154936,-0.634045,-0.430849,-0.195352,-0.293959
0,0,-1.0472,-0.698132,-0.174533,-0.174533,-1.04086,-0.682744,-0.161509,-0.154936,-0.634045,-0.430849,-0.195352,-0.293959
0,0,-1.0472,-0.698132,-0.174533,-0.174533,-1.04086,-0.682744,-0.161509,-0.154936,-0.634045,-0.430849,-0.195352,-0.293959
0,0,-1.0472,-0.698132,-0.174533,-0.174533,-1.04086,-0.682744,-0.161509,-0.154936,-0.634045,-0.430849,-0.195352,-0.293959
0,0,-1.0472,-0.698132,-0.174533,-0.174533,-1.04086,-0.682744,-0.161509,-0.154936,-0.634045,-0.430849,-0.195352,-0.293959
0,0,-1.0472,-0.698132,-0.174533,-0.174533,-1.04086,-0.682744,-0.161509,-0.154936,-0.634045,-0.430849,-0.195352,-0.293959
0,0,-1.0472,-0.698132,-0.174533,-0.174533,-1.04086,-0.682744,-0.161509,-0.154936,-0.634045,-0.430849,-0.195352,-0.293959
0,0,-1.0472,-0.698132,-0.174533,-0.174533,-1.04086,-0.682744,-0.161509,-0.154936,-0.634045,-0.430849,-0.195352,-0.293959
0,0,-1.0472,-0.698132,-0.174533,-0.174533,-1.04086,-0.682744,-0.161509,-0.154936,-0.634045,-0.430849,-0.195352,-0.293959
0,0,-1.0472,-0.698132,-0.174533,-0.174533,-1.04086,-0.682744,-0.161509,-0.154936,-0.634045,-0.430849,-0.195352,-0.293959
0,0,-1.0472,-0.698132,-0.174533,-0.174533,-1.04086,-0.682744,-0.161509,-0.154936,-0.634045,-0.430849,-0.195352,-0.293959
0,0,-1.0472,-0.698132,-0.174533,-0.174533,-1.04086,-0.682744,-0.161509,-0.154936,-0.634045,-0.430849,-0.195352,-0.293959
0,0,-1.0472,-0.698132,-0.174533,-0.174533,-1.04086,-0.682744,-0.161509,-0.154936,-0.634045,-0.430849,-0.195352,-0.293959
0,0,-1.0472,-0.698132,-0.174533,-0.174533,-1.04086,-0.682744,-0.161509,-0.154936,-0.634045,-0.430849,-0.195352,-0.293959
0,0,-1.0472,-0.698132,-0.174533,-0.174533,-1.04086,-0.682744,-0.161509,-0.154936,-0.634045,-0.430849,-0.195352,-0.293959
0,0,-1.0472,-0.698132,-0.174533,-0.174533,-1.04086,-0.682744,-0.161509,-0.154936,-0.634045,-0.430849,-0.195352,-0.293959
0,0,-1.0472,-0.698132,-0.174533,-0.174533,-1.04086,-0.682744,-0.161509,-0.154936,-0.634045,-0.430849,-0.195352,-0.293959
0,0,-1.0472,-0.698132,-0.174533,-0.174533,-1.04086,-0.682744,-0.161509,-0.154936,-0.634045,-0.430849,-0.195352,-0.293959
0,0,-1.0472,-0.698132,-0.174533,-0.174533,-1.04086,-0.682744,-0.161509,-0.154936,-0.634045,-0.430849,-0.195352,-0.293959
0,0,-1.0472,-0.698132,-0.174533,-0.174533,-1.04086,-0.682744,-0.161509,-0.154936,-0.634045,-0.430849,-0.195352,-0.293959
0,0,-1.0472,-0.698132,-0.174533,-0.174533,-1.04086,-0.682744,-0.161509,-0.154936,-0.634045,-0.430849,-0.195352,-0.293959
0,0,-1.0472,-0.698132,-0.174533,-0.174533,-1.04086,-0.682744,-0.161509,-0.154936,-0.634045,-0.430849,-0.195352,-0.293959
0,0,-1.0472,-0.698132,-0.174533,-0.174533,-1.04086,-0.682744,-0.161509,-0.154936,-0.634045,-0.430849,-0.195352,-0.293959
0,0,-1.0472,-0.698132,-0.174533,-0.174533,-1.04086,-0.682744,-0.161509,-0.154936,-0.634045,-0.430849,-0.195352,-0.293959
0,0,-1.0472,-0.698132,-0.174533,-0.174533,-1.04086,-0.682744,-0.161509,-0.154936,-0.634045,-0.430849,-0.195352,-0.293959
0,0,-1.0472,-0.698132,-0.174533,-0.174533,-1.04086,-0.682744,-0.161509,-0.154936,-0.634045,-0.430849,-0.195352,-0.293959
0,0,-1.0472,-0.698132,-0.174533,-0.174533,-1.04086,-0.682744,-0.161509,-0.154936,-0.634045,-0.430849,-0.195352,-0.293959
0,0,-1.0472,-0.698132,-0.174533,-0.174533,-1.04086,-0.682744,-0.161509,-0.154936,-0.634045,-0.430849,-0.195352,-0.293959
0,0,-1.0472,-0.698132,-0.174533,-0.174533,-1.04086,-0.682744,-0.161509,-0.154936,-0.634045,-0.430849,-0.195352,-0.293959
0,0,-1.0472,-0.698132,-0.174533,-0.174533,-1.04086,-0.682744,-0.161509,-0.154936,-0.634045,-0.430849,-0.195352,-0.293959
0,0,-1.0472,-0.698132,-0.174533,-0.174533,-1.04086,-0.682744,-0.161509,-0.154936,-0.634045,-0.430849,-0.195352,-0.293959
0,0,-1.0472,-0.698132,-0.174533,-0.174533,-1.04086,-0.682744,-0.161509,-0.154936,-0.634045,-0.430849,-0.195352,-0.293959
0,0,-1.0472,-0.698132,-0.174533,-0.174533,-1.04086,-0.682744,-0.161509,-0.154936,-0.634045,-0.430849,-0.195352,-0.293959
0,0,-1.0472,-0.698132,-0.174533,-0.174533,-1.04086,-0.682744,-0.161507,-0.154876,-0.634045,-0.430849,-0.195381,-0.294856
0,0,-1.0472,-0.698132,-0.174533,-0.174533,-1.04086,-0.682744,-0.161507,-0.154876,-0.634045,-0.430849,-0.195381,-0.294856
0,0,-1.0472,-0.698132,-0.174533,-0.174533,-1.04086,-0.682744,-0.161507,-0.154876,-0.634045,-0.430849,-0.195381,-0.294856
0,0,-1.0472,-0.698132,-0.174533,-0.174533,-1.04086,-0.682744,-0.161507,-0.154876,-0.634045,-0.430849,-0.195381,-0.294856
0,0,-1.0472,-0.698132,-0.174533,-0.174533,-1.04086,-0.682744,-0.161507,-0.154876,-0.634045,-0.430849,-0.195381,-0.294856
0,0,-1.0472,-0.698132,-0.174533,-0.174533,-1.04086,-0.682744,-0.161507,-0.154876,-0.634045,-0.430849,-0.195381,-0.294856
0,0,-1.0472,-0.698132,-0.174533,-0.174533,-1.04086,-0.682744,-0.161507,-0.154876,-0.634045,-0.430849,-0.195381,-0.294856
0,0,-1.0472,-0.698132,-0.174533,-0.174533,-1.04086,-0.682744,-0.161507,-0.154876,-0.634045,-0.430849,-0.195381,-0.294856
0,0,-1.0472,-0.698132,-0.174533,-0.174533,-1.04086,-0.682744,-0.161507,-0.154876,-0.634045,-0.430849,-0.195381,-0.294856
0,0,-1.0472,-0.698132,-0.174533,-0.174533,-1.04086,-0.682744,-0.161507,-0.154876,-0.634045,-0.430849,-0.195381,-0.294856
0,0,-1.0472,-0.698132,-0.174533,-0.174533,-1.04086,-0.682744,-0.161507,-0.154876,-0.634045,-0.430849,-0.195381,-0.294856
0,0,-1.0472,-0.698132,-0.174533,-0.174533,-1.04086,-0.682744,-0.161507,-0.154876,-0.634045,-0.430849,-0.195381,-0.294856
0,0,-1.0472,-0.698132,-0.174533,-0.174533,-1.04086,-0.682744,-0.161507,-0.154876,-0.634045,-0.430849,-0.195381,-0.294856
0,0,-1.0472,-0.698132,-0.174533,-0.174533,-1.04086,-0.682744,-0.161507,-0.154876,-0.634045,-0.430849,-0.195381,-0.294856
0,0,-1.0472,-0.698132,-0.174533,-0.174533,-1.04086,-0.682744,-0.161507,-0.154876,-0.634045,-0.430849,-0.195381,-0.294856
0,0,-1.0472,-0.698132,-0.174533,-0.174533,-1.04086,-0.682744,-0.161506,-0.154816,-0.634045,-0.430849,-0.195411,-0.295753
0,0,-1.0472,-0.698132,-0.174533,-0.174533,-1.04086,-0.682744,-0.161506,-0.154816,-0.634045,-0.430849,-0.195411,-0.295753
0,0,-1.0472,-0.698132,-0.174533,-0.174533,-1.04086,-0.682744,-0.161506,-0.154816,-0.634045,-0.430849,-0.195411,-0.295753
0,0,-1.0472,-0.698132,-0.174533,-0.174533,-1.04086,-0.682744,-0.161506,-0.154816,-0.634045,-0.430849,-0.195411,-0.295753
0,0,-1.0472,-0.698132,-0.174533,-0.174533,-1.04086,-0.682744,-0.161506,-0.154816,-0.634045,-0.430849,-0.195411,-0.295753
0,0,-1.0472,-0.698132,-0.174533,-0.174533,-1.04086,-0.682744,-0.161506,-0.154816,-0.634045,-0.430849,-0.195411,-0.295753
0,0,-1.0472,-0.698132,-0.174533,-0.174533,-1.04086,-0.682744,-0.161506,-0.154816,-0.634045,-0.430849,-0.195411,-0.295753
0,0,-1.0472,-0.698132,-0.174533,-0.174533,-1.04086,-0.682744,-0.161506,-0.154816,-0.634045,-0.430849,-0.195411,-0.295753
0,0,-1.0472,-0.698132,-0.174533,-0.174533,-1.04086,-0.682744,-0.161506,-0.154816,-0.634045,-0.430849,-0.195411,-0.295753
0,0,-1.0472,-0.698132,-0.174533,-0.174533,-1.04086,-0.682744,-0.161506,-0.154816,-0.634045,-0.430849,-0.195411,-0.295753
0,0,-1.0472,-0.698132,-0.174533,-0.174533,-1.04086,-0.682744,-0.161506,-0.154816,-0.634045,-0.430849,-0.195411,-0.295753
0,0,-1.0472,-0.698132,-0.174533,-0.174533,-1.04086,-0.682744,-0.161506,-0.154816,-0.634045,-0.430849,-0.195411,-0.295753
0,0,-1.0472,-0.698132,-0.174533,-0.174533,-1.04086,-0.682744,-0.161504,-0.154756,-0.634045,-0.430849,-0.19544,-0.296651
0,0,-1.0472,-0.698132,-0.174533,-0.174533,-1.04086,-0.682744,-0.161504,-0.154756,-0.634045,-0.430849,-0.19544,-0.296651
0,0,-1.0472,-0.698132,-0.174533,-0.174533,-1.04086,-0.682744,-0.161504,-0.154756,-0.634045,-0.430849,-0.19544,-0.296651
0,0,-1.0472,-0.698132,-0.174533,-0.174533,-1.04086,-0.682744,-0.161504,-0.154756,-0.634045,-0.430849,-0.19544,-0.296651
0,0,-1.0472,-0.698132,-0.174533,-0.174533,-1.04086,-0.682744,-0.161504,-0.154756,-0.634045,-0.430849,-0.19544,-0.296651
0,0,-1.0472,-0.698132,-0.174533,-0.174533,-1.04086,-0.682744,-0.161504,-0.154756,-0.634045,-0.430849,-0.19544,-0.296651
0,0,-1.0472,-0.698132,-0.174533,-0.174533,-1.04086,-0.682744,-0.161504,-0.154756,-0.634045,-0.430849,-0.19544,-0.296651
0,0,-1.0472,-0.698132,-0.174533,-0.174533,-1.04086,-0.682744,-0.161504,-0.154756,-0.634045,-0.430849,-0.19544,-0.296651
0,0,-1.0472,-0.698132,-0.174533,-0.174533,-1.04086,-0.682744,-0.161504,-0.154756,-0.634045,-0.430849,-0.19544,-0.296651
0,0,-1.0472,-0.698132,-0.174533,-0.174533,-1.04086,-0.682744,-0.161504,-0.154756,-0.634045,-0.430849,-0.19544,-0.296651
0,0,-1.0472,-0.698132,-0.174533,-0.174533,-1.04086,-0.682744,-0.161504,-0.154756,-0.634045,-0.430849,-0.19544,-0.296651
0,0,-1.0472,-0.698132,-0.174533,-0.174533,-1.04086,-0.682744,-0.161504,-0.154756,-0.634045,-0.430849,-0.19544,-0.296651
0,0,-1.0472,-0.698132,-0.174533,-0.174533,-1.04086,-0.682744,-0.161504,-0.154756,-0.634045,-0.430849,-0.19544,-0.296651
0,0,-1.0472,-0.698132,-0.174533,-0.174533,-1.04086,-0.682744,-0.161502,-0.154696,-0.634045,-0.430849,-0.19547,-0.297548
0,0,-1.0472,-0.698132,-0.174533,-0.174533,-1.04086,-0.682744,-0.161502,-0.154696,-0.634045,-0.430849,-0.19547,-0.297548
0,0,-1.0472,-0.698132,-0.174533,-0.174533,-1.04086,-0.682744,-0.161502,-0.154696,-0.634045,-0.430849,-0.19547,-0.297548
0,0,-1.0472,-0.698132,-0.174533,-0.174533,-1.04086,-0.682744,-0.161502,-0.154696,-0.634045,-0.430849,-0.19547,-0.297548
0,0,-1.0472,-0.698132,-0.174533,-0.174533,-1.04086,-0.682744,-0.161502,-0.154696,-0.634045,-0.430849,-0.19547,-0.297548
0,0,-1.0472,-0.698132,-0.174533,-0.174533,-1.04086,-0.682744,-0.161502,-0.154696,-0.634045,-0.430849,-0.19547,-0.297548
0,0,-1.0472,-0.698132,-0.174533,-0.174533,-1.04086,-0.682744,-0.161502,-0.154696,-0.634045,-0.430849,-0.19547,-0.297548
0,0,-1.0472,-0.698132,-0.174533,-0.174533,-1.04086,-0.682744,-0.161565,-0.154738,-0.634045,-0.430849,-0.194525,-0.296925
0,0,-1.0472,-0.698132,-0.174533,-0.174533,-1.04086,-0.682744,-0.161565,-0.154738,-0.634045,-0.430849,-0.194525,-0.296925
0,0,-1.0472,-0.698132,-0.174533,-0.174533,-1.04086,-0.682744,-0.161565,-0.154738,-0.634045,-0.430849,-0.194525,-0.296925
0,0,-1.0472,-0.698132,-0.174533,-0.174533,-1.04086,-0.682744,-0.161565,-0.154738,-0.634045,-0.430849,-0.194525,-0.296925
0,0,-1.0472,-0.698132,-0.174533,-0.174533,-1.04086,-0.682744,-0.161563,-0.154678,-0.634045,-0.430849,-0.194556,-0.29787
0,0,-1.0472,-0.698132,-0.174533,-0.174533,-1.04086,-0.682744,-0.161626,-0.15472,-0.634045,-0.430849,-0.193611,-0.297247
0,0,-1.0472,-0.698132,-0.174533,-0.174533,-1.04086,-0.682744,-0.161626,-0.15472,-0.634045,-0.430849,-0.193611,-0.297247
0,0,-1.0472,-0.698132,-0.174533,-0.174533,-1.04086,-0.682744,-0.161626,-0.15472,-0.634045,-0.430849,-0.193611,-0.297247
0,0,-1.0472,-0.698132,-0.174533,-0.174533,-1.04086,-0.682744,-0.161626,-0.15472,-0.634045,-0.430849,-0.193611,-0.297247
0,0,-1.0472,-0.698132,-0.174533,-0.174533,-1.04086,-0.682744,-0.161689,-0.154761,-0.634045,-0.430849,-0.192665,-0.296624
0,0,-1.0472,-0.698132,-0.174533,-0.174533,-1.04086,-0.682744,-0.161689,-0.154761,-0.634045,-0.430849,-0.192665,-0.296624
0,0,-1.0472,-0.698132,-0.174533,-0.174533,-1.04086,-0.682744,-0.161689,-0.154761,-0.634045,-0.430849,-0.192665,-0.296624
0,0,-1.0472,-0.698132,-0.174533,-0.174533,-1.04086,-0.682744,-0.16175,-0.154743,-0.634045,-0.430849,-0.19175,-0.296905
0,0,-1.0472,-0.698132,-0.174533,-0.174533,-1.04086,-0.682744,-0.16175,-0.154743,-0.634045,-0.430849,-0.19175,-0.296905
0,0,-1.0472,-0.698132,-0.174533,-0.174533,-1.04086,-0.682744,-0.16175,-0.154743,-0.634045,-0.430849,-0.19175,-0.296905
0,0,-1.0472,-0.698132,-0.174533,-0.174533,-1.04086,-0.682744,-0.161813,-0.154784,-0.634045,-0.430849,-0.190638,-0.296173
0,0,-1.0472,-0.698132,-0.174533,-0.174533,-1.04086,-0.682744,-0.161813,-0.154784,-0.634045,-0.430849,-0.190638,-0.296173
0,0,-1.0472,-0.698132,-0.174533,-0.174533,-1.04086,-0.682744,-0.161813,-0.154784,-0.634045,-0.430849,-0.190638,-0.296173
0,0,-1.0472,-0.698132,-0.174533,-0.174533,-1.04086,-0.682744,-0.161813,-0.154784,-0.634045,-0.430849,-0.190638,-0.296173
0,0,-1.0472,-0.698132,-0.174533,-0.174533,-1.04086,-0.682744,-0.161811,-0.154725,-0.634045,-0.430849,-0.190668,-0.297077
0,0,-1.0472,-0.698132,-0.174533,-0.174533,-1.04086,-0.682744,-0.161874,-0.154766,-0.634045,-0.430849,-0.189715,-0.296449
0,0,-1.0472,-0.698132,-0.174533,-0.174533,-1.04086,-0.682744,-0.161874,-0.154766,-0.634045,-0.430849,-0.189715,-0.296449
0,0,-1.0472,-0.698132,-0.174533,-0.174533,-1.04086,-0.682744,-0.161874,-0.154766,-0.634045,-0.430849,-0.189715,-0.296449
0,0,-1.0472,-0.698132,-0.174533,-0.174533,-1.04086,-0.682744,-0.161874,-0.154766,-0.634045,-0.430849,-0.189715,-0.296449
0,0,-1.0472,-0.698132,-0.174533,-0.174533,-1.04086,-0.682744,-0.161937,-0.154808,-0.634045,-0.430849,-0.188769,-0.295825
0,0,-1.0472,-0.698132,-0.174533,-0.174533,-1.04086,-0.682744,-0.161937,-0.154808,-0.634045,-0.430849,-0.188769,-0.295825
0,0,-1.0472,-0.698132,-0.174533,-0.174533,-1.04086,-0.682744,-0.161937,-0.154808,-0.634045,-0.430849,-0.188769,-0.295825
0,0,-1.0472,-0.698132,-0.174533,-0.174533,-1.04086,-0.682744,-0.161937,-0.154808,-0.634045,-0.430849,-0.188769,-0.295825
0,0,-1.0472,-0.698132,-0.174533,-0.174533,-1.04086,-0.682744,-0.162,-0.154849,-0.634045,-0.430849,-0.18784,-0.295213
0,0,-1.0472,-0.698132,-0.174533,-0.174533,-1.04086,-0.682744,-0.162,-0.154849,-0.634045,-0.430849,-0.18784,-0.295213
0,0,-1.0472,-0.698132,-0.174533,-0.174533,-1.04086,-0.682744,-0.162,-0.154849,-0.634045,-0.430849,-0.18784,-0.295213
0,0,-1.0472,-0.698132,-0.174533,-0.174533,-1.04086,-0.682744,-0.162,-0.154849,-0.634045,-0.430849,-0.18784,-0.295213
0,0,-1.0472,-0.698132,-0.174533,-0.174533,-1.04086,-0.682744,-0.162,-0.154849,-0.634045,-0.430849,-0.18784,-0.295213
0,0,-1.0472,-0.698132,-0.174533,-0.174533,-1.04086,-0.682744,-0.162063,-0.154891,-0.634045,-0.430849,-0.186907,-0.294598
0,0,-1.0472,-0.698132,-0.174533,-0.174533,-1.04086,-0.682744,-0.162061,-0.154831,-0.634045,-0.430849,-0.186937,-0.295494
0,0,-1.0472,-0.698132,-0.174533,-0.174533,-1.04086,-0.682744,-0.162061,-0.154831,-0.634045,-0.430849,-0.186937,-0.295494
0,0,-1.0472,-0.698132,-0.174533,-0.174533,-1.04086,-0.682744,-0.162061,-0.154831,-0.634045,-0.430849,-0.186937,-0.295494
0,0,-1.0472,-0.698132,-0.174533,-0.174533,-1.04086,-0.682744,-0.162124,-0.154872,-0.634045,-0.430849,-0.185995,-0.294873
0,0,-1.0472,-0.698132,-0.174533,-0.174533,-1.04086,-0.682744,-0.162124,-0.154872,-0.634045,-0.430849,-0.185995,-0.294873
0,0,-1.0472,-0.698132,-0.174533,-0.174533,-1.04086,-0.682744,-0.162124,-0.154872,-0.634045,-0.430849,-0.185995,-0.294873
0,0,-1.0472,-0.698132,-0.174533,-0.174533,-1.04086,-0.682744,-0.162124,-0.154872,-0.634045,-0.430849,-0.185995,-0.294873
0,0,-1.0472,-0.698132,-0.174533,-0.174533,-1.04086,-0.682744,-0.162124,-0.154872,-0.634045,-0.430849,-0.185995,-0.294873
0,0,-1.0472,-0.698132,-0.174533,-0.174533,-1.04086,-0.682744,-0.162124,-0.154872,-0.634045,-0.430849,-0.185995,-0.294873
0,0,-1.0472,-0.698132,-0.174533,-0.174533,-1.04086,-0.682744,-0.162124,-0.154872,-0.634045,-0.430849,-0.185995,-0.294873
0,0,-1.0472,-0.698132,-0.174533,-0.174533,-1.04086,-0.682744,-0.162124,-0.154872,-0.634045,-0.430849,-0.185995,-0.294873
0,0,-1.0472,-0.698132,-0.174533,-0.174533,-1.04086,-0.682744,-0.162124,-0.154872,-0.634045,-0.430849,-0.185995,-0.294873
0,0,-1.0472,-0.698132,-0.174533,-0.174533,-1.04086,-0.682744,-0.162124,-0.154872,-0.634045,-0.430849,-0.185995,-0.294873
0,0,-1.0472,-0.698132,-0.174533,-0.174533,-1.04086,-0.682744,-0.162124,-0.154872,-0.634045,-0.430849,-0.185995,-0.294873
0,0,-1.0472,-0.698132,-0.174533,-0.174533,-1.04086,-0.682744,-0.162187,-0.154914,-0.634045,-0.430849,-0.185086,-0.294274
0,0,-1.0472,-0.698132,-0.174533,-0.174533,-1.04086,-0.682744,-0.162187,-0.154914,-0.634045,-0.430849,-0.185086,-0.294274
0,0,-1.0472,-0.698132,-0.174533,-0.174533,-1.04086,-0.682744,-0.162187,-0.154914,-0.634045,-0.430849,-0.185086,-0.294274
0,0,-1.0472,-0.698132,-0.174533,-0.174533,-1.04086,-0.682744,-0.162187,-0.154914,-0.634045,-0.430849,-0.185086,-0.294274
0,0,-1.0472,-0.698132,-0.174533,-0.174533,-1.04086,-0.682744,-0.162187,-0.154914,-0.634045,-0.430849,-0.185086,-0.294274
0,0,-1.0472,-0.698132,-0.174533,-0.174533,-1.04086,-0.682744,-0.162187,-0.154914,-0.634045,-0.430849,-0.185086,-0.294274
0,0,-1.0472,-0.698132,-0.174533,-0.174533,-1.04086,-0.682744,-0.162187,-0.154914,-0.634045,-0.430849,-0.185086,-0.294274
0,0,-1.0472,-0.698132,-0.174533,-0.174533,-1.04086,-0.682744,-0.162187,-0.154914,-0.634045,-0.430849,-0.185086,-0.294274
0,0,-1.0472,-0.698132,-0.174533,-0.174533,-1.04086,-0.682744,-0.162187,-0.154914,-0.634045,-0.430849,-0.185086,-0.294274
0,0,-1.0472,-0.698132,-0.174533,-0.174533,-1.04086,-0.682744,-0.162187,-0.154914,-0.634045,-0.430849,-0.185086,-0.294274
0,0,-1.0472,-0.698132,-0.174533,-0.174533,-1.04086,-0.682744,-0.162128,-0.154934,-0.634045,-0.430849,-0.185968,-0.293975
0,0,-1.0472,-0.698132,-0.174533,-0.174533,-1.04086,-0.682744,-0.162128,-0.154934,-0.634045,-0.430849,-0.185968,-0.293975
0,0,-1.0472,-0.698132,-0.174533,-0.174533,-1.04086,-0.682744,-0.162128,-0.154934,-0.634045,-0.430849,-0.185968,-0.293975
0,0,-1.0472,-0.698132,-0.174533,-0.174533,-1.04086,-0.682744,-0.162128,-0.154934,-0.634045,-0.430849,-0.185968,-0.293975
0,0,-1.0472,-0.698132,-0.174533,-0.174533,-1.04086,-0.682744,-0.162128,-0.154934,-0.634045,-0.430849,-0.185968,-0.293975
0,0,-1.0472,-0.698132,-0.174533,-0.174533,-1.04086,-0.682744,-0.162191,-0.154975,-0.634045,-0.430849,-0.185055,-0.293373
0,0,-1.0472,-0.698132,-0.174533,-0.174533,-1.04086,-0.682744,-0.162189,-0.154916,-0.634045,-0.430849,-0.185084,-0.294252
0,0,-1.0472,-0.698132,-0.174533,-0.174533,-1.04086,-0.682744,-0.162189,-0.154916,-0.634045,-0.430849,-0.185084,-0.294252
0,0,-1.0472,-0.698132,-0.174533,-0.174533,-1.04086,-0.682744,-0.162189,-0.154916,-0.634045,-0.430849,-0.185084,-0.294252
0,0,-1.0472,-0.698132,-0.174533,-0.174533,-1.04086,-0.682744,-0.162189,-0.154916,-0.634045,-0.430849,-0.185084,-0.294252
0,0,-1.0472,-0.698132,-0.174533,-0.174533,-1.04086,-0.682744,-0.162189,-0.154916,-0.634045,-0.430849,-0.185084,-0.294252
0,0,-1.0472,-0.698132,-0.174533,-0.174533,-1.04086,-0.682744,-0.162189,-0.154916,-0.634045,-0.430849,-0.185084,-0.294252
0,0,-1.0472,-0.698132,-0.174533,-0.174533,-1.04086,-0.682744,-0.162189,-0.154916,-0.634045,-0.430849,-0.185084,-0.294252
0,0,-1.0472,-0.698132,-0.174533,-0.174533,-1.04086,-0.682744,-0.162189,-0.154916,-0.634045,-0.430849,-0.185084,-0.294252
0,0,-1.0472,-0.698132,-0.174533,-0.174533,-1.04086,-0.682744,-0.162189,-0.154916,-0.634045,-0.430849,-0.185084,-0.294252
0,0,-1.0472,-0.698132,-0.174533,-0.174533,-1.04086,-0.682744,-0.162189,-0.154916,-0.634045,-0.430849,-0.185084,-0.294252
0,0,-1.0472,-0.698132,-0.174533,-0.174533,-1.04086,-0.682744,-0.162189,-0.154916,-0.634045,-0.430849,-0.185084,-0.294252
0,0,-1.0472,-0.698132,-0.174533,-0.174533,-1.04086,-0.682744,-0.162252,-0.154957,-0.634045,-0.430849,-0.184149,-0.293636
0,0,-1.0472,-0.698132,-0.174533,-0.174533,-1.04086,-0.682744,-0.162252,-0.154957,-0.634045,-0.430849,-0.184149,-0.293636
0,0,-1.0472,-0.698132,-0.174533,-0.174533,-1.04086,-0.682744,-0.162252,-0.154957,-0.634045,-0.430849,-0.184149,-0.293636
0,0,-1.0472,-0.698132,-0.174533,-0.174533,-1.04086,-0.682744,-0.162252,-0.154957,-0.634045,-0.430849,-0.184149,-0.293636
0,0,-1.0472,-0.698132,-0.174533,-0.174533,-1.04086,-0.682744,-0.162252,-0.154957,-0.634045,-0.430849,-0.184149,-0.293636
0,0,-1.0472,-0.698132,-0.174533,-0.174533,-1.04086,-0.682744,-0.162252,-0.154957,-0.634045,-0.430849,-0.184149,-0.293636
0,0,-1.0472,-0.698132,-0.174533,-0.174533,-1.04086,-0.682744,-0.162252,-0.154957,-0.634045,-0.430849,-0.184149,-0.293636
0,0,-1.0472,-0.698132,-0.174533,-0.174533,-1.04086,-0.682744,-0.162252,-0.154957,-0.634045,-0.430849,-0.184149,-0.293636
0,0,-1.0472,-0.698132,-0.174533,-0.174533,-1.04086,-0.682744,-0.162252,-0.154957,-0.634045,-0.430849,-0.184149,-0.293636
0,0,-1.0472,-0.698132,-0.174533,-0.174533,-1.04086,-0.682744,-0.162252,-0.154957,-0.634045,-0.430849,-0.184149,-0.293636
0,0,-1.0472,-0.698132,-0.174533,-0.174533,-1.04086,-0.682744,-0.162252,-0.154957,-0.634045,-0.430849,-0.184149,-0.293636
0,0,-1.0472,-0.698132,-0.174533,-0.174533,-1.04086,-0.682744,-0.162194,-0.154977,-0.634045,-0.430849,-0.185031,-0.293337
0,0,-1.0472,-0.698132,-0.174533,-0.174533,-1.04086,-0.682744,-0.162194,-0.154977,-0.634045,-0.430849,-0.185031,-0.293337
0,0,-1.0472,-0.698132,-0.174533,-0.174533,-1.04086,-0.682744,-0.162194,-0.154977,-0.634045,-0.430849,-0.185031,-0.293337
0,0,-1.0472,-0.698132,-0.174533,-0.174533,-1.04086,-0.682744,-0.162194,-0.154977,-0.634045,-0.430849,-0.185031,-0.293337
0,0,-1.0472,-0.698132,-0.174533,-0.174533,-1.04086,-0.682744,-0.162194,-0.154977,-0.634045,-0.430849,-0.185031,-0.293337
0,0,-1.0472,-0.698132,-0.174533,-0.174533,-1.04086,-0.682744,-0.162257,-0.155019,-0.634045,-0.430849,-0.184098,-0.292722
0,0,-1.0472,-0.698132,-0.174533,-0.174533,-1.04086,-0.682744,-0.162257,-0.155019,-0.634045,-0.430849,-0.184098,-0.292722
0,0,-1.0472,-0.698132,-0.174533,-0.174533,-1.04086,-0.682744,-0.162257,-0.155019,-0.634045,-0.430849,-0.184098,-0.292722
0,0,-1.0472,-0.698132,-0.174533,-0.174533,-1.04086,-0.682744,-0.162257,-0.155019,-0.634045,-0.430849,-0.184098,-0.292722
0,0,-1.0472,-0.698132,-0.174533,-0.174533,-1.04086,-0.682744,-0.162255,-0.154959,-0.634045,-0.430849,-0.184128,-0.293609
0,0,-1.0472,-0.698132,-0.174533,-0.174533,-1.04086,-0.682744,-0.162255,-0.154959,-0.634045,-0.430849,-0.184128,-0.293609
0,0,-1.0472,-0.698132,-0.174533,-0.174533,-1.04086,-0.682744,-0.162255,-0.154959,-0.634045,-0.430849,-0.184128,-0.293609
0,0,-1.0472,-0.698132,-0.174533,-0.174533,-1.04086,-0.682744,-0.162255,-0.154959,-0.634045,-0.430849,-0.184128,-0.293609
0,0,-1.0472,-0.698132,-0.174533,-0.174533,-1.04086,-0.682744,-0.162318,-0.155,-0.634045,-0.430849,-0.183179,-0.292984
0,0,-1.0472,-0.698132,-0.174533,-0.174533,-1.04086,-0.682744,-0.162318,-0.155,-0.634045,-0.430849,-0.183179,-0.292984
0,0,-1.0472,-0.698132,-0.174533,-0.174533,-1.04086,-0.682744,-0.162318,-0.155,-0.634045,-0.430849,-0.183179,-0.292984
0,0,-1.0472,-0.698132,-0.174533,-0.174533,-1.04086,-0.682744,-0.162318,-0.155,-0.634045,-0.430849,-0.183179,-0.292984
0,0,-1.0472,-0.698132,-0.174533,-0.174533,-1.04086,-0.682744,-0.162318,-0.155,-0.634045,-0.430849,-0.183179,-0.292984
0,0,-1.0472,-0.698132,-0.174533,-0.174533,-1.04086,-0.682744,-0.162318,-0.155,-0.634045,-0.430849,-0.183179,-0.292984
0,0,-1.0472,-0.698132,-0.174533,-0.174533,-1.04086,-0.682744,-0.162318,-0.155,-0.634045,-0.430849,-0.183179,-0.292984
0,0,-1.0472,-0.698132,-0.174533,-0.174533,-1.04086,-0.682744,-0.162318,-0.155,-0.634045,-0.430849,-0.183179,-0.292984
0,0,-1.0472,-0.698132,-0.174533,-0.174533,-1.04086,-0.682744,-0.162318,-0.155,-0.634045,-0.430849,-0.183179,-0.292984
0,0,-1.0472,-0.698132,-0.174533,-0.174533,-1.04086,-0.682744,-0.162318,-0.155,-0.634045,-0.430849,-0.183179,-0.292984
0,0,-1.0472,-0.698132,-0.174533,-0.174533,-1.04086,-0.682744,-0.162318,-0.155,-0.634045,-0.430849,-0.183179,-0.292984
0,0,-1.0472,-0.698132,-0.174533,-0.174533,-1.04086,-0.682744,-0.162381,-0.155042,-0.634045,-0.430849,-0.182229,-0.292358
0,0,-1.0472,-0.698132,-0.174533,-0.174533,-1.04086,-0.682744,-0.162381,-0.155042,-0.634045,-0.430849,-0.182229,-0.292358
0,0,-1.0472,-0.698132,-0.174533,-0.174533,-1.04086,-0.682744,-0.162381,-0.155042,-0.634045,-0.430849,-0.182229,-0.292358
0,0,-1.0472,-0.698132,-0.174533,-0.174533,-1.04086,-0.682744,-0.162381,-0.155042,-0.634045,-0.430849,-0.182229,-0.292358
0,0,-1.0472,-0.698132,-0.174533,-0.174533,-1.04086,-0.682744,-0.162381,-0.155042,-0.634045,-0.430849,-0.182229,-0.292358
0,0,-1.0472,-0.698132,-0.174533,-0.174533,-1.04086,-0.682744,-0.162381,-0.155042,-0.634045,-0.430849,-0.182229,-0.292358
0,0,-1.0472,-0.698132,-0.174533,-0.174533,-1.04086,-0.682744,-0.162381,-0.155042,-0.634045,-0.430849,-0.182229,-0.292358
0,0,-1.0472,-0.698132,-0.174533,-0.174533,-1.04086,-0.682744,-0.162381,-0.155042,-0.634045,-0.430849,-0.182229,-0.292358
0,0,-1.0472,-0.698132,-0.174533,-0.174533,-1.04086,-0.682744,-0.162381,-0.155042,-0.634045,-0.430849,-0.182229,-0.292358
0,0,-1.0472,-0.698132,-0.174533,-0.174533,-1.04086,-0.682744,-0.162381,-0.155042,-0.634045,-0.430849,-0.182229,-0.292358
0,0,-1.0472,-0.698132,-0.174533,-0.174533,-1.04086,-0.682744,-0.162381,-0.155042,-0.634045,-0.430849,-0.182229,-0.292358
0,0,-1.0472,-0.698132,-0.174533,-0.174533,-1.04086,-0.682744,-0.162381,-0.155042,-0.634045,-0.430849,-0.182229,-0.292358
0,0,-1.0472,-0.698132,-0.174533,-0.174533,-1.04086,-0.682744,-0.162381,-0.155042,-0.634045,-0.430849,-0.182229,-0.292358
0,0,-1.0472,-0.698132,-0.174533,-0.174533,-1.04086,-0.682744,-0.162381,-0.155042,-0.634045,-0.430849,-0.182229,-0.292358
0,0,-1.0472,-0.698132,-0.174533,-0.174533,-1.04086,-0.682744,-0.162381,-0.155042,-0.634045,-0.430849,-0.182229,-0.292358
0,0,-1.0472,-0.698132,-0.174533,-0.174533,-1.04086,-0.682744,-0.162381,-0.155042,-0.634045,-0.430849,-0.182229,-0.292358
0,0,-1.0472,-0.698132,-0.174533,-0.174533,-1.04086,-0.682744,-0.162381,-0.155042,-0.634045,-0.430849,-0.182229,-0.292358
0,0,-1.0472,-0.698132,-0.174533,-0.174533,-1.04086,-0.682744,-0.162381,-0.155042,-0.634045,-0.430849,-0.182229,-0.292358
0,0,-1.0472,-0.698132,-0.174533,-0.174533,-1.04086,-0.682744,-0.162381,-0.155042,-0.634045,-0.430849,-0.182229,-0.292358
0,0,-1.0472,-0.698132,-0.174533,-0.174533,-1.04086,-0.682744,-0.162381,-0.155042,-0.634045,-0.430849,-0.182229,-0.292358
0,0,-1.0472,-0.698132,-0.174533,-0.174533,-1.04086,-0.682744,-0.162381,-0.155042,-0.634045,-0.430849,-0.182229,-0.292358
0,0,-1.0472,-0.698132,-0.174533,-0.174533,-1.04086,-0.682744,-0.162322,-0.155062,-0.634045,-0.430849,-0.18311,-0.292059
0,0,-1.0472,-0.698132,-0.174533,-0.174533,-1.04086,-0.682744,-0.162385,-0.155103,-0.634045,-0.430849,-0.182174,-0.291442
0,0,-1.0472,-0.698132,-0.174533,-0.174533,-1.04086,-0.682744,-0.162385,-0.155103,-0.634045,-0.430849,-0.182174,-0.291442
0,0,-1.0472,-0.698132,-0.174533,-0.174533,-1.04086,-0.682744,-0.162385,-0.155103,-0.634045,-0.430849,-0.182174,-0.291442
0,0,-1.0472,-0.698132,-0.174533,-0.174533,-1.04086,-0.682744,-0.162385,-0.155103,-0.634045,-0.430849,-0.182174,-0.291442
0,0,-1.0472,-0.698132,-0.174533,-0.174533,-1.04086,-0.682744,-0.162385,-0.155103,-0.634045,-0.430849,-0.182174,-0.291442
0,0,-1.0472,-0.698132,-0.174533,-0.174533,-1.04086,-0.682744,-0.162385,-0.155103,-0.634045,-0.430849,-0.182174,-0.291442
0,0,-1.0472,-0.698132,-0.174533,-0.174533,-1.04086,-0.682744,-0.162385,-0.155103,-0.634045,-0.430849,-0.182174,-0.291442
0,0,-1.0472,-0.698132,-0.174533,-0.174533,-1.04086,-0.682744,-0.162385,-0.155103,-0.634045,-0.430849,-0.182174,-0.291442
0,0,-1.0472,-0.698132,-0.174533,-0.174533,-1.04086,-0.682693,-0.162385,-0.155103,-0.634045,-0.432273,-0.182174,-0.291442
0,0,-1.0472,-0.698132,-0.174533,-0.174533,-1.04086,-0.682693,-0.162385,-0.155103,-0.634045,-0.432273,-0.182174,-0.291442
0,0,-1.0472,-0.698132,-0.174533,-0.174533,-1.04086,-0.682693,-0.162385,-0.155103,-0.634045,-0.432273,-0.182174,-0.291442
0,0,-1.0472,-0.698132,-0.174533,-0.174533,-1.04086,-0.682693,-0.162385,-0.155103,-0.634045,-0.432273,-0.182174,-0.291442
0,0,-1.0472,-0.698132,-0.174533,-0.174533,-1.04086,-0.682693,-0.162385,-0.155103,-0.634045,-0.432273,-0.182174,-0.291442
0,0,-1.0472,-0.698132,-0.174533,-0.174533,-1.04086,-0.682693,-0.162385,-0.155103,-0.634045,-0.432273,-0.182174,-0.291442
0,0,-1.0472,-0.698132,-0.174533,-0.174533,-1.04086,-0.682693,-0.162385,-0.155103,-0.634045,-0.432273,-0.182174,-0.291442
0,0,-1.0472,-0.698132,-0.174533,-0.174533,-1.04086,-0.682693,-0.162385,-0.155103,-0.634045,-0.432273,-0.182174,-0.291442
0,0,-1.0472,-0.698132,-0.174533,-0.174533,-1.04086,-0.682693,-0.162385,-0.155103,-0.634045,-0.432273,-0.182174,-0.291442
0,0,-1.0472,-0.698132,-0.174533,-0.174533,-1.04086,-0.682693,-0.162385,-0.155103,-0.634045,-0.432273,-0.182174,-0.291442
0,0,-1.0472,-0.698132,-0.174533,-0.174533,-1.04086,-0.682693,-0.162385,-0.155103,-0.634045,-0.432273,-0.182174,-0.291442
0,0,-1.0472,-0.698132,-0.174533,-0.174533,-1.04086,-0.682693,-0.162385,-0.155103,-0.634045,-0.432273,-0.182174,-0.291442
0,0,-1.0472,-0.698132,-0.174533,-0.174533,-1.04086,-0.682693,-0.162385,-0.155103,-0.634045,-0.432273,-0.182174,-0.291442
0,0,-1.0472,-0.698132,-0.174533,-0.174533,-1.04086,-0.682693,-0.162385,-0.155103,-0.634045,-0.432273,-0.182174,-0.291442
0,0,-1.0472,-0.698132,-0.174533,-0.174533,-1.04086,-0.682693,-0.162385,-0.155103,-0.634045,-0.432273,-0.182174,-0.291442
0,0,-1.0472,-0.698132,-0.174533,-0.174533,-1.04086,-0.682693,-0.162385,-0.155103,-0.634045,-0.432273,-0.182174,-0.291442
0,0,-1.0472,-0.698132,-0.174533,-0.174533,-1.04086,-0.682693,-0.162385,-0.155103,-0.634045,-0.432273,-0.182174,-0.291442
0,0,-1.0472,-0.698132,-0.174533,-0.174533,-1.04086,-0.682693,-0.162385,-0.155103,-0.634045,-0.432273,-0.182174,-0.291442
0,0,-1.0472,-0.698132,-0.174533,-0.174533,-1.04086,-0.682693,-0.162385,-0.155103,-0.634045,-0.432273,-0.182174,-0.291442
0,0,-1.0472,-0.698132,-0.174533,-0.174533,-1.04086,-0.682693,-0.162385,-0.155103,-0.634045,-0.432273,-0.182174,-0.291442
0,0,-1.0472,-0.698132,-0.174533,-0.174533,-1.04086,-0.682693,-0.162385,-0.155103,-0.634045,-0.432273,-0.182174,-0.291442
0,0,-1.0472,-0.698132,-0.174533,-0.174533,-1.04086,-0.682693,-0.162385,-0.155103,-0.634045,-0.432273,-0.182174,-0.291442
0,0,-1.0472,-0.698132,-0.174533,-0.174533,-1.04086,-0.682693,-0.162385,-0.155103,-0.634045,-0.432273,-0.182174,-0.291442
0,0,-1.0472,-0.698132,-0.174533,-0.174533,-1.04086,-0.682693,-0.162385,-0.155103,-0.634045,-0.432273,-0.182174,-0.291442
0,0,-1.0472,-0.698132,-0.174533,-0.174533,-1.04086,-0.682693,-0.162385,-0.155103,-0.634045,-0.432273,-0.182174,-0.291442
0,0,-1.0472,-0.698132,-0.174533,-0.174533,-1.04086,-0.682693,-0.162385,-0.155103,-0.634045,-0.432273,-0.182174,-0.291442
0,0,-1.0472,-0.698132,-0.174533,-0.174533,-1.04086,-0.682693,-0.162385,-0.155103,-0.634045,-0.432273,-0.182174,-0.291442
0,0,-1.0472,-0.698132,-0.174533,-0.174533,-1.04086,-0.682693,-0.162385,-0.155103,-0.634045,-0.432273,-0.182174,-0.291442
0,0,-1.0472,-0.698132,-0.174533,-0.174533,-1.04086,-0.682693,-0.162385,-0.155103,-0.634045,-0.432273,-0.182174,-0.291442
0,0,-1.0472,-0.698132,-0.174533,-0.174533,-1.04086,-0.682693,-0.162385,-0.155103,-0.634045,-0.432273,-0.182174,-0.291442
0,0,-1.0472,-0.698132,-0.174533,-0.174533,-1.04086,-0.682693,-0.162385,-0.155103,-0.634045,-0.432273,-0.182174,-0.291442
0,0,-1.0472,-0.698132,-0.174533,-0.174533,-1.04086,-0.682693,-0.162385,-0.155103,-0.634045,-0.432273,-0.182174,-0.291442
0,0,-1.0472,-0.698132,-0.174533,-0.174533,-1.04086,-0.682693,-0.162326,-0.155123,-0.634045,-0.432273,-0.183056,-0.291143
0,0,-1.0472,-0.698132,-0.174533,-0.174533,-1.04086,-0.682693,-0.162326,-0.155123,-0.634045,-0.432273,-0.183056,-0.291143
0,0,-1.0472,-0.698132,-0.174533,-0.174533,-1.04086,-0.682693,-0.162326,-0.155123,-0.634045,-0.432273,-0.183056,-0.291143
0,0,-1.0472,-0.698132,-0.174533,-0.174533,-1.04086,-0.682693,-0.162326,-0.155123,-0.634045,-0.432273,-0.183056,-0.291143
0,0,-1.0472,-0.698132,-0.174533,-0.174533,-1.04086,-0.682693,-0.162326,-0.155123,-0.634045,-0.432273,-0.183056,-0.291143
0,0,-1.0472,-0.698132,-0.174533,-0.174533,-1.04086,-0.682693,-0.162326,-0.155123,-0.634045,-0.432273,-0.183056,-0.291143
0,0,-1.0472,-0.698132,-0.174533,-0.174533,-1.04086,-0.682693,-0.162326,-0.155123,-0.634045,-0.432273,-0.183056,-0.291143
0,0,-1.0472,-0.698132,-0.174533,-0.174533,-1.04086,-0.682693,-0.162326,-0.155123,-0.634045,-0.432273,-0.183055,-0.291114
0,0,-1.0472,-0.698132,-0.174533,-0.174533,-1.04086,-0.682693,-0.162326,-0.155123,-0.634045,-0.432273,-0.183055,-0.291114
0,0,-1.0472,-0.698132,-0.174533,-0.174533,-1.04086,-0.682693,-0.162326,-0.155123,-0.634045,-0.432273,-0.183055,-0.291114
0,0,-1.0472,-0.698132,-0.174533,-0.174533,-1.04086,-0.682693,-0.162326,-0.155123,-0.634045,-0.432273,-0.183055,-0.291114
0,0,-1.0472,-0.698132,-0.174533,-0.174533,-1.04086,-0.682693,-0.162326,-0.155123,-0.634045,-0.432273,-0.183055,-0.291114
0,0,-1.0472,-0.698132,-0.174533,-0.174533,-1.04086,-0.682693,-0.162326,-0.155123,-0.634045,-0.432273,-0.183055,-0.291114
0,0,-1.0472,-0.698132,-0.174533,-0.174533,-1.04086,-0.682693,-0.162326,-0.155123,-0.634045,-0.432273,-0.183055,-0.291114
0,0,-1.0472,-0.698132,-0.174533,-0.174533,-1.04086,-0.682693,-0.162326,-0.155123,-0.634045,-0.432273,-0.183055,-0.291114
0,0,-1.0472,-0.698132,-0.174533,-0.174533,-1.04086,-0.682693,-0.162326,-0.155123,-0.634045,-0.432273,-0.183055,-0.291114
0,0,-1.0472,-0.698132,-0.174533,-0.174533,-1.04086,-0.682693,-0.162326,-0.155123,-0.634045,-0.432273,-0.183055,-0.291114
0,0,-1.0472,-0.698132,-0.174533,-0.174533,-1.04086,-0.682693,-0.162326,-0.155123,-0.634045,-0.432273,-0.183055,-0.291114
0,0,-1.0472,-0.698132,-0.174533,-0.174533,-1.04086,-0.682693,-0.162326,-0.155123,-0.634045,-0.432273,-0.183055,-0.291115
0,0,-1.0472,-0.698132,-0.174533,-0.174533,-1.04086,-0.682693,-0.162326,-0.155123,-0.634045,-0.432273,-0.183056,-0.291115
0,0,-1.0472,-0.698132,-0.174533,-0.174533,-1.04086,-0.682693,-0.162326,-0.155123,-0.634045,-0.432273,-0.183056,-0.291116
0,0,-1.0472,-0.698132,-0.174533,-0.174533,-1.04086,-0.682693,-0.162326,-0.155123,-0.634045,-0.432273,-0.183057,-0.291116
0,0,-1.0472,-0.698132,-0.174533,-0.174533,-1.04086,-0.682693,-0.162326,-0.155123,-0.634045,-0.432273,-0.183058,-0.291116
0,0,-1.0472,-0.698132,-0.174533,-0.174533,-1.04086,-0.682693,-0.162326,-0.155123,-0.634045,-0.432273,-0.183058,-0.291117
0,0,-1.0472,-0.698132,-0.174533,-0.174533,-1.04086,-0.682693,-0.162326,-0.155123,-0.634045,-0.432273,-0.183059,-0.291117
0,0,-1.0472,-0.698132,-0.174533,-0.174533,-1.04086,-0.682693,-0.162326,-0.155123,-0.634045,-0.432273,-0.18306,-0.291118
0,0,-1.0472,-0.698132,-0.174533,-0.174533,-1.04086,-0.682693,-0.162326,-0.155123,-0.634045,-0.432273,-0.18306,-0.291118
0,0,-1.0472,-0.698132,-0.174533,-0.174533,-1.04086,-0.682693,-0.162326,-0.155123,-0.634045,-0.432273,-0.183061,-0.291118
0,0,-1.0472,-0.698132,-0.174533,-0.174533,-1.04086,-0.682693,-0.162326,-0.155123,-0.634045,-0.432273,-0.183061,-0.291119
0,0,-1.0472,-0.698132,-0.174533,-0.174533,-1.04086,-0.682693,-0.162326,-0.155123,-0.634045,-0.432273,-0.183062,-0.291119
0,0,-1.0472,-0.698132,-0.174533,-0.174533,-1.04086,-0.682693,-0.162326,-0.155123,-0.634045,-0.432273,-0.183062,-0.291119
0,0,-1.0472,-0.698132,-0.174533,-0.174533,-1.04086,-0.682693,-0.162326,-0.155123,-0.634045,-0.432273,-0.183063,-0.29112
0,0,-1.0472,-0.698132,-0.174533,-0.174533,-1.04086,-0.682693,-0.162326,-0.155123,-0.634045,-0.432273,-0.183063,-0.29112
0,0,-1.0472,-0.698132,-0.174533,-0.174533,-1.04086,-0.682693,-0.162326,-0.155123,-0.634045,-0.432273,-0.183064,-0.29112
0,0,-1.0472,-0.698132,-0.174533,-0.174533,-1.04086,-0.682693,-0.162326,-0.155123,-0.634045,-0.432273,-0.183064,-0.291121
0,0,-1.0472,-0.698132,-0.174533,-0.174533,-1.04086,-0.682693,-0.162326,-0.155123,-0.634045,-0.432273,-0.183065,-0.291121
0,0,-1.0472,-0.698132,-0.174533,-0.174533,-1.04086,-0.682693,-0.162326,-0.155123,-0.634045,-0.432273,-0.183065,-0.291121
0,0,-1.0472,-0.698132,-0.174533,-0.174533,-1.04086,-0.682693,-0.162326,-0.155123,-0.634045,-0.432273,-0.183066,-0.291122
0,0,-1.0472,-0.698132,-0.174533,-0.174533,-1.04086,-0.682643,-0.162326,-0.155123,-0.634045,-0.433697,-0.183066,-0.291122
0,0,-1.0472,-0.698132,-0.174533,-0.174533,-1.04086,-0.682643,-0.162326,-0.155123,-0.634045,-0.433697,-0.183066,-0.291122
0,0,-1.0472,-0.698132,-0.174533,-0.174533,-1.04086,-0.682592,-0.162326,-0.155123,-0.634045,-0.43512,-0.183067,-0.291122
0,0,-1.0472,-0.698132,-0.174533,-0.174533,-1.04086,-0.682592,-0.162326,-0.155123,-0.634045,-0.43512,-0.183067,-0.291123
0,0,-1.0472,-0.698132,-0.174533,-0.174533,-1.04086,-0.682541,-0.162326,-0.155123,-0.634045,-0.436544,-0.183068,-0.291123
0,0,-1.0472,-0.698132,-0.174533,-0.174533,-1.04086,-0.682541,-0.162326,-0.155123,-0.634045,-0.436544,-0.183068,-0.291123
0,0,-1.0472,-0.698132,-0.174533,-0.174533,-1.04086,-0.68249,-0.162326,-0.155123,-0.634045,-0.438502,-0.183098,-0.291143
0,0,-1.0472,-0.698132,-0.174533,-0.174533,-1.04086,-0.68249,-0.162326,-0.155123,-0.634045,-0.438502,-0.183098,-0.291143
0,0,-1.0472,-0.698132,-0.174533,-0.174533,-1.04086,-0.68249,-0.162326,-0.155123,-0.634045,-0.438502,-0.183098,-0.291143
0,0,-1.0472,-0.698132,-0.174533,-0.174533,-1.04086,-0.682439,-0.162326,-0.155123,-0.634045,-0.444099,-0.183098,-0.291143
0,0,-1.0472,-0.698132,-0.174533,-0.174533,-1.04086,-0.682439,-0.162326,-0.155123,-0.634045,-0.444099,-0.183098,-0.291143
0,0,-1.0472,-0.698132,-0.174533,-0.174533,-1.04086,-0.682439,-0.162326,-0.155123,-0.634045,-0.444099,-0.183098,-0.291143
0,0,-1.0472,-0.698132,-0.174533,-0.174533,-1.04086,-0.682439,-0.162326,-0.155123,-0.634045,-0.444099,-0.183098,-0.291143
0,0,-1.0472,-0.698132,-0.174533,-0.174533,-1.04086,-0.682439,-0.162326,-0.155123,-0.634045,-0.444099,-0.183098,-0.291143
0,0,-1.0472,-0.698132,-0.174533,-0.174533,-1.04086,-0.682439,-0.162268,-0.155143,-0.634045,-0.444099,-0.18398,-0.290844
0,0,-1.0472,-0.698132,-0.174533,-0.174533,-1.04086,-0.682439,-0.162268,-0.155143,-0.634045,-0.444099,-0.18398,-0.290844
0,0,-1.0472,-0.698132,-0.174533,-0.174533,-1.04086,-0.682439,-0.162268,-0.155143,-0.634045,-0.444099,-0.18398,-0.290844
0,0,-1.0472,-0.698132,-0.174533,-0.174533,-1.04086,-0.682439,-0.162268,-0.155143,-0.634045,-0.444095,-0.18398,-0.290844
0,0,-1.0472,-0.698132,-0.174533,-0.174533,-1.04086,-0.682439,-0.162209,-0.155163,-0.634045,-0.443608,-0.184862,-0.290546
0,0,-1.0472,-0.698132,-0.174533,-0.174533,-1.04086,-0.682388,-0.162209,-0.155163,-0.634045,-0.443154,-0.184862,-0.290546
0,0,-1.0472,-0.698132,-0.174533,-0.174533,-1.04086,-0.682388,-0.162209,-0.155163,-0.634045,-0.443154,-0.184862,-0.290546
0,0,-1.0472,-0.698132,-0.174533,-0.174533,-1.04086,-0.682388,-0.162209,-0.155163,-0.634045,-0.443154,-0.184862,-0.290546
0,0,-1.0472,-0.698132,-0.174533,-0.174533,-1.04086,-0.682388,-0.162209,-0.155163,-0.634045,-0.443154,-0.184862,-0.290546
0,0,-1.0472,-0.698132,-0.174533,-0.174533,-1.04086,-0.682388,-0.162209,-0.155163,-0.634045,-0.443154,-0.184862,-0.290546
0,0,-1.0472,-0.698132,-0.174533,-0.174533,-1.04086,-0.682388,-0.162211,-0.155223,-0.634045,-0.443154,-0.184832,-0.289648
0,0,-1.0472,-0.698132,-0.174533,-0.174533,-1.04086,-0.682388,-0.162152,-0.155243,-0.634045,-0.443154,-0.185713,-0.289349
0,0,-1.0472,-0.698132,-0.174533,-0.174533,-1.04086,-0.682388,-0.162152,-0.155243,-0.634045,-0.443154,-0.185713,-0.289349
0,0,-1.0472,-0.698132,-0.174533,-0.174533,-1.04086,-0.682388,-0.162152,-0.155243,-0.634045,-0.443154,-0.185713,-0.289349
0,0,-1.0472,-0.698132,-0.174533,-0.174533,-1.04086,-0.682388,-0.162152,-0.155243,-0.634045,-0.443154,-0.185713,-0.289349
0,0,-1.0472,-0.698132,-0.174533,-0.174533,-1.04086,-0.682388,-0.162152,-0.155243,-0.634045,-0.443154,-0.185713,-0.289349
0,0,-1.0472,-0.698132,-0.174533,-0.174533,-1.04086,-0.682388,-0.162152,-0.155243,-0.634045,-0.443154,-0.185713,-0.289349
0,0,-1.0472,-0.698132,-0.174533,-0.174533,-1.04086,-0.682388,-0.162152,-0.155243,-0.634045,-0.443154,-0.185713,-0.289349
0,0,-1.0472,-0.698132,-0.174533,-0.174533,-1.04086,-0.682388,-0.162152,-0.155243,-0.634045,-0.443154,-0.185713,-0.289349
0,0,-1.0472,-0.698132,-0.174533,-0.174533,-1.04086,-0.682388,-0.162152,-0.155243,-0.634045,-0.443154,-0.185713,-0.289349
0,0,-1.0472,-0.698132,-0.174533,-0.174533,-1.04086,-0.682388,-0.162152,-0.155243,-0.634045,-0.443154,-0.185713,-0.289349
0,0,-1.0472,-0.698132,-0.174533,-0.174533,-1.04086,-0.682388,-0.162152,-0.155243,-0.634045,-0.443154,-0.185713,-0.289349
0,0,-1.0472,-0.698132,-0.174533,-0.174533,-1.04086,-0.682388,-0.162152,-0.155243,-0.634045,-0.443154,-0.185713,-0.289349
0,0,-1.0472,-0.698132,-0.174533,-0.174533,-1.04086,-0.682388,-0.162152,-0.155243,-0.634045,-0.443066,-0.185713,-0.289349
0,0,-1.0472,-0.698132,-0.174533,-0.174533,-1.04086,-0.682388,-0.162152,-0.155243,-0.634045,-0.442948,-0.185713,-0.289349
0,0,-1.0472,-0.698132,-0.174533,-0.174533,-1.04086,-0.682388,-0.162152,-0.155243,-0.634045,-0.442842,-0.185713,-0.289349
0,0,-1.0472,-0.698132,-0.174533,-0.174533,-1.04086,-0.682388,-0.162152,-0.155243,-0.634045,-0.442746,-0.185713,-0.289349
0,0,-1.0472,-0.698132,-0.174533,-0.174533,-1.04086,-0.682388,-0.162152,-0.155243,-0.634045,-0.442658,-0.185713,-0.289349
0,0,-1.0472,-0.698132,-0.174533,-0.174533,-1.04086,-0.682388,-0.162152,-0.155243,-0.634045,-0.442578,-0.185713,-0.289349
0,0,-1.0472,-0.698132,-0.174533,-0.174533,-1.04086,-0.682388,-0.162152,-0.155243,-0.634045,-0.442505,-0.185713,-0.289349
0,0,-1.0472,-0.698132,-0.174533,-0.174533,-1.04086,-0.682388,-0.162152,-0.155243,-0.634045,-0.442437,-0.185713,-0.289349
0,0,-1.0472,-0.698132,-0.174533,-0.174533,-1.04086,-0.682388,-0.162152,-0.155243,-0.634045,-0.442375,-0.185713,-0.289349
0,0,-1.0472,-0.698132,-0.174533,-0.174533,-1.04086,-0.682388,-0.162152,-0.155243,-0.634045,-0.442317,-0.185713,-0.289349
0,0,-1.0472,-0.698132,-0.174533,-0.174533,-1.04086,-0.682388,-0.162152,-0.155243,-0.634045,-0.442264,-0.185713,-0.289349
0,0,-1.0472,-0.698132,-0.174533,-0.174533,-1.04086,-0.682388,-0.162152,-0.155243,-0.634045,-0.442214,-0.185713,-0.289349
0,0,-1.0472,-0.698132,-0.174533,-0.174533,-1.04086,-0.682388,-0.162154,-0.155303,-0.634045,-0.442167,-0.185683,-0.288452
0,0,-1.0472,-0.698132,-0.174533,-0.174533,-1.04086,-0.682388,-0.162154,-0.155303,-0.634045,-0.442124,-0.185683,-0.288452
0,0,-1.0472,-0.698132,-0.174533,-0.174533,-1.04086,-0.682388,-0.162154,-0.155303,-0.634045,-0.442083,-0.185683,-0.288452
0,0,-1.0472,-0.698132,-0.174533,-0.174533,-1.04086,-0.682388,-0.162154,-0.155303,-0.634045,-0.442045,-0.185683,-0.288452
0,0,-1.0472,-0.698132,-0.174533,-0.174533,-1.04086,-0.682388,-0.162154,-0.155303,-0.634045,-0.442009,-0.185683,-0.288452
0,0,-1.0472,-0.698132,-0.174533,-0.174533,-1.04086,-0.682388,-0.162154,-0.155303,-0.634045,-0.441974,-0.185683,-0.288452
0,0,-1.0472,-0.698132,-0.174533,-0.174533,-1.04086,-0.682388,-0.162154,-0.155303,-0.634045,-0.441942,-0.185683,-0.288452
0,0,-1.0472,-0.698132,-0.174533,-0.174533,-1.04086,-0.682388,-0.162154,-0.155303,-0.634045,-0.441912,-0.185683,-0.288452
0,0,-1.0472,-0.698132,-0.174533,-0.174533,-1.04086,-0.682388,-0.162156,-0.155363,-0.634045,-0.441883,-0.185653,-0.287554
0,0,-1.0472,-0.698132,-0.174533,-0.174533,-1.04086,-0.682388,-0.162156,-0.155363,-0.634045,-0.441856,-0.185653,-0.287554
0,0,-1.0472,-0.698132,-0.174533,-0.174533,-1.04086,-0.682388,-0.162156,-0.155363,-0.634045,-0.44183,-0.185653,-0.287554
0,0,-1.0472,-0.698132,-0.174533,-0.174533,-1.04086,-0.682388,-0.162156,-0.155363,-0.634045,-0.441805,-0.185653,-0.287554
0,0,-1.0472,-0.698132,-0.174533,-0.174533,-1.04086,-0.682388,-0.162156,-0.155363,-0.634045,-0.441781,-0.185653,-0.287554
0,0,-1.0472,-0.698132,-0.174533,-0.174533,-1.04086,-0.682388,-0.162156,-0.155363,-0.634045,-0.441759,-0.185653,-0.287554
0,0,-1.0472,-0.698132,-0.174533,-0.174533,-1.04086,-0.682388,-0.162156,-0.155363,-0.634045,-0.441737,-0.185653,-0.287554
0,0,-1.0472,-0.698132,-0.174533,-0.174533,-1.04086,-0.682388,-0.162156,-0.155363,-0.634045,-0.441717,-0.185653,-0.287554
0,0,-1.0472,-0.698132,-0.174533,-0.174533,-1.04086,-0.682388,-0.162156,-0.155363,-0.634045,-0.441697,-0.185653,-0.287554
0,0,-1.0472,-0.698132,-0.174533,-0.174533,-1.04086,-0.682388,-0.162156,-0.155363,-0.634045,-0.441679,-0.185653,-0.287554
0,0,-1.0472,-0.698132,-0.174533,-0.174533,-1.04086,-0.682388,-0.162156,-0.155363,-0.634045,-0.441661,-0.185653,-0.287554
0,0,-1.0472,-0.698132,-0.174533,-0.174533,-1.04086,-0.682388,-0.162156,-0.155363,-0.634045,-0.441643,-0.185653,-0.287554
0,0,-1.0472,-0.698132,-0.174533,-0.174533,-1.04086,-0.682388,-0.162156,-0.155363,-0.634045,-0.441627,-0.185653,-0.287554
0,0,-1.0472,-0.698132,-0.174533,-0.174533,-1.04086,-0.682388,-0.162156,-0.155363,-0.634045,-0.441611,-0.185653,-0.287554
0,0,-1.0472,-0.698132,-0.174533,-0.174533,-1.04086,-0.682388,-0.162158,-0.155422,-0.634045,-0.441596,-0.185623,-0.286657
0,0,-1.0472,-0.698132,-0.174533,-0.174533,-1.04086,-0.682388,-0.162158,-0.155422,-0.634045,-0.441581,-0.185623,-0.286657
0,0,-1.0472,-0.698132,-0.174533,-0.174533,-1.04086,-0.682388,-0.162158,-0.155422,-0.634045,-0.441567,-0.185623,-0.286657
0,0,-1.0472,-0.698132,-0.174533,-0.174533,-1.04086,-0.682388,-0.162158,-0.155422,-0.634045,-0.441553,-0.185623,-0.286657
0,0,-1.0472,-0.698132,-0.174533,-0.174533,-1.04086,-0.682388,-0.162158,-0.155422,-0.634045,-0.44154,-0.185623,-0.286657
0,0,-1.0472,-0.698132,-0.174533,-0.174533,-1.04086,-0.682388,-0.162158,-0.155422,-0.634045,-0.441527,-0.185623,-0.286657
0,0,-1.0472,-0.698132,-0.174533,-0.174533,-1.04086,-0.682388,-0.162158,-0.155422,-0.634045,-0.441515,-0.185623,-0.286657
0,0,-1.0472,-0.698132,-0.174533,-0.174533,-1.04086,-0.682388,-0.162158,-0.155422,-0.634045,-0.441503,-0.185623,-0.286657
0,0,-1.0472,-0.698132,-0.174533,-0.174533,-1.04086,-0.682388,-0.162158,-0.155422,-0.634045,-0.441492,-0.185623,-0.286657
0,0,-1.0472,-0.698132,-0.174533,-0.174533,-1.04086,-0.682388,-0.162158,-0.155422,-0.634045,-0.44148,-0.185623,-0.286657
0,0,-1.0472,-0.698132,-0.174533,-0.174533,-1.04086,-0.682388,-0.162158,-0.155422,-0.634045,-0.44147,-0.185623,-0.286657
0,0,-1.0472,-0.698132,-0.174533,-0.174533,-1.04086,-0.682388,-0.162158,-0.155422,-0.634045,-0.441459,-0.185623,-0.286657
0,0,-1.0472,-0.698132,-0.174533,-0.174533,-1.04086,-0.682388,-0.162158,-0.155422,-0.634045,-0.441449,-0.185623,-0.286657
0,0,-1.0472,-0.698132,-0.174533,-0.174533,-1.04086,-0.682388,-0.16216,-0.155482,-0.634045,-0.44144,-0.185592,-0.285719
0,0,-1.0472,-0.698132,-0.174533,-0.174533,-1.04086,-0.682388,-0.16216,-0.155482,-0.634045,-0.44143,-0.185592,-0.285719
0,0,-1.0472,-0.698132,-0.174533,-0.174533,-1.04086,-0.682388,-0.16216,-0.155482,-0.634045,-0.441421,-0.185592,-0.285719
0,0,-1.0472,-0.698132,-0.174533,-0.174533,-1.04086,-0.682388,-0.16216,-0.155482,-0.634045,-0.441412,-0.185592,-0.285719
0,0,-1.0472,-0.698132,-0.174533,-0.174533,-1.04086,-0.682388,-0.162101,-0.155502,-0.634045,-0.441403,-0.186474,-0.28542
0,0,-1.0472,-0.698132,-0.174533,-0.174533,-1.04086,-0.682388,-0.162101,-0.155502,-0.634045,-0.441395,-0.186474,-0.28542
0,0,-1.0472,-0.698132,-0.174533,-0.174533,-1.04086,-0.682388,-0.162101,-0.155502,-0.634045,-0.441387,-0.186474,-0.28542
0,0,-1.0472,-0.698132,-0.174533,-0.174533,-1.04086,-0.682388,-0.162101,-0.155502,-0.634045,-0.441378,-0.186474,-0.28542
0,0,-1.0472,-0.698132,-0.174533,-0.174533,-1.04086,-0.682388,-0.162101,-0.155502,-0.634045,-0.44137,-0.186474,-0.28542
0,0,-1.0472,-0.698132,-0.174533,-0.174533,-1.04086,-0.682388,-0.162101,-0.155502,-0.634045,-0.441363,-0.186474,-0.28542
0,0,-1.0472,-0.698132,-0.174533,-0.174533,-1.04086,-0.682388,-0.162101,-0.155502,-0.634045,-0.441355,-0.186474,-0.28542
0,0,-1.0472,-0.698132,-0.174533,-0.174533,-1.04086,-0.682388,-0.162101,-0.155502,-0.634045,-0.441348,-0.186474,-0.28542
0,0,-1.0472,-0.698132,-0.174533,-0.174533,-1.04086,-0.682388,-0.162101,-0.155502,-0.634045,-0.441341,-0.186474,-0.28542
0,0,-1.0472,-0.698132,-0.174533,-0.174533,-1.04086,-0.682388,-0.162101,-0.155502,-0.634045,-0.441335,-0.186474,-0.28542
0,0,-1.0472,-0.698132,-0.174533,-0.174533,-1.04086,-0.682388,-0.162101,-0.155502,-0.634045,-0.441328,-0.186474,-0.28542
0,0,-1.0472,-0.698132,-0.174533,-0.174533,-1.04086,-0.682388,-0.162101,-0.155502,-0.634045,-0.441322,-0.186474,-0.28542
0,0,-1.0472,-0.698132,-0.174533,-0.174533,-1.04086,-0.682388,-0.162101,-0.155502,-0.634045,-0.441315,-0.186474,-0.28542
0,0,-1.0472,-0.698132,-0.174533,-0.174533,-1.04086,-0.682388,-0.162101,-0.155502,-0.634045,-0.441309,-0.186474,-0.28542
0,0,-1.0472,-0.698132,-0.174533,-0.174533,-1.04086,-0.682388,-0.162103,-0.155562,-0.634045,-0.441303,-0.186443,-0.284518
0,0,-1.0472,-0.698132,-0.174533,-0.174533,-1.04086,-0.682388,-0.162103,-0.155562,-0.634045,-0.441297,-0.186443,-0.284518
0,0,-1.0472,-0.698132,-0.174533,-0.174533,-1.04086,-0.682388,-0.162103,-0.155562,-0.634045,-0.440814,-0.186443,-0.284518
0,0,-1.0472,-0.698132,-0.174533,-0.174533,-1.04086,-0.682388,-0.162103,-0.155562,-0.634045,-0.440814,-0.186443,-0.284518
0,0,-1.0472,-0.698132,-0.174533,-0.174533,-1.04086,-0.682388,-0.162103,-0.155562,-0.634045,-0.440814,-0.186443,-0.284518
0,0,-1.0472,-0.698132,-0.174533,-0.174533,-1.04086,-0.682388,-0.162103,-0.155562,-0.634045,-0.440814,-0.186443,-0.284518
0,0,-1.0472,-0.698132,-0.174533,-0.174533,-1.04086,-0.682388,-0.162103,-0.155562,-0.634045,-0.440814,-0.186443,-0.284518
0,0,-1.0472,-0.698132,-0.174533,-0.174533,-1.04086,-0.682388,-0.162103,-0.155562,-0.634045,-0.440814,-0.186443,-0.284518
0,0,-1.0472,-0.698132,-0.174533,-0.174533,-1.04086,-0.682388,-0.162103,-0.155562,-0.634045,-0.440814,-0.186443,-0.284518
0,0,-1.0472,-0.698132,-0.174533,-0.174533,-1.04086,-0.682388,-0.162103,-0.155562,-0.634045,-0.440814,-0.186443,-0.284518
0,0,-1.0472,-0.698132,-0.174533,-0.174533,-1.04086,-0.682388,-0.162103,-0.155562,-0.634045,-0.440814,-0.186443,-0.284518
0,0,-1.0472,-0.698132,-0.174533,-0.174533,-1.04086,-0.682388,-0.162103,-0.155562,-0.634045,-0.440814,-0.186443,-0.284518
0,0,-1.0472,-0.698132,-0.174533,-0.174533,-1.04086,-0.682388,-0.162103,-0.155562,-0.634045,-0.440814,-0.186443,-0.284518
0,0,-1.0472,-0.698132,-0.174533,-0.174533,-1.04086,-0.682388,-0.162103,-0.155562,-0.634045,-0.440814,-0.186443,-0.284518
0,0,-1.0472,-0.698132,-0.174533,-0.174533,-1.04086,-0.682388,-0.162103,-0.155562,-0.634045,-0.440814,-0.186443,-0.284518
0,0,-1.0472,-0.698132,-0.174533,-0.174533,-1.04086,-0.682388,-0.162103,-0.155562,-0.634045,-0.440814,-0.186443,-0.284518
0,0,-1.0472,-0.698132,-0.174533,-0.174533,-1.04086,-0.682388,-0.162103,-0.155562,-0.634045,-0.440814,-0.186443,-0.284518
0,0,-1.0472,-0.698132,-0.174533,-0.174533,-1.04086,-0.682388,-0.162103,-0.155562,-0.634045,-0.440814,-0.186443,-0.284518
0,0,-1.0472,-0.698132,-0.174533,-0.174533,-1.04086,-0.682388,-0.162103,-0.155562,-0.634045,-0.440814,-0.186443,-0.284518
0,0,-1.0472,-0.698132,-0.174533,-0.174533,-1.04086,-0.682388,-0.162103,-0.155562,-0.634045,-0.440814,-0.186443,-0.284518
0,0,-1.0472,-0.698132,-0.174533,-0.174533,-1.04086,-0.682388,-0.162103,-0.155562,-0.634045,-0.440814,-0.186443,-0.284518
0,0,-1.0472,-0.698132,-0.174533,-0.174533,-1.04086,-0.682388,-0.162103,-0.155562,-0.634045,-0.440814,-0.186443,-0.284518
0,0,-1.0472,-0.698132,-0.174533,-0.174533,-1.04086,-0.682388,-0.162044,-0.155582,-0.634045,-0.440814,-0.187325,-0.28422
0,0,-1.0472,-0.698132,-0.174533,-0.174533,-1.04086,-0.682388,-0.162044,-0.155582,-0.634045,-0.440814,-0.187325,-0.28422
0,0,-1.0472,-0.698132,-0.174533,-0.174533,-1.04086,-0.682388,-0.162044,-0.155582,-0.634045,-0.440814,-0.187325,-0.28422
0,0,-1.0472,-0.698132,-0.174533,-0.174533,-1.04086,-0.682388,-0.162044,-0.155582,-0.634045,-0.440814,-0.187325,-0.28422
0,0,-1.0472,-0.698132,-0.174533,-0.174533,-1.04086,-0.682388,-0.162044,-0.155582,-0.634045,-0.440814,-0.187325,-0.28422
0,0,-1.0472,-0.698132,-0.174533,-0.174533,-1.04086,-0.682388,-0.162044,-0.155582,-0.634045,-0.440814,-0.187325,-0.28422
0,0,-1.0472,-0.698132,-0.174533,-0.174533,-1.04086,-0.682388,-0.162044,-0.155582,-0.634045,-0.440814,-0.187325,-0.28422
0,0,-1.0472,-0.698132,-0.174533,-0.174533,-1.04086,-0.682388,-0.162044,-0.155582,-0.634045,-0.440814,-0.187325,-0.28422
0,0,-1.0472,-0.698132,-0.174533,-0.174533,-1.04086,-0.682388,-0.162044,-0.155582,-0.634045,-0.440814,-0.187325,-0.28422
0,0,-1.0472,-0.698132,-0.174533,-0.174533,-1.04086,-0.682388,-0.162044,-0.155582,-0.634045,-0.440814,-0.187325,-0.28422
0,0,-1.0472,-0.698132,-0.174533,-0.174533,-1.04086,-0.682388,-0.162044,-0.155582,-0.634045,-0.440814,-0.187325,-0.28422
0,0,-1.0472,-0.698132,-0.174533,-0.174533,-1.04086,-0.682388,-0.162044,-0.155582,-0.634045,-0.440814,-0.187325,-0.28422
0,0,-1.0472,-0.698132,-0.174533,-0.174533,-1.04086,-0.682388,-0.162044,-0.155582,-0.634045,-0.440814,-0.187325,-0.28422
0,0,-1.0472,-0.698132,-0.174533,-0.174533,-1.04086,-0.682388,-0.162044,-0.155582,-0.634045,-0.440814,-0.187325,-0.28422
0,0,-1.0472,-0.698132,-0.174533,-0.174533,-1.04086,-0.682388,-0.162044,-0.155582,-0.634045,-0.440814,-0.187325,-0.28422
0,0,-1.0472,-0.698132,-0.174533,-0.174533,-1.04086,-0.682388,-0.162044,-0.155582,-0.634045,-0.440814,-0.187325,-0.28422
0,0,-1.0472,-0.698132,-0.174533,-0.174533,-1.04086,-0.682388,-0.162044,-0.155582,-0.634045,-0.440814,-0.187325,-0.28422
0,0,-1.0472,-0.698132,-0.174533,-0.174533,-1.04086,-0.682388,-0.162044,-0.155582,-0.634045,-0.440814,-0.187325,-0.28422
0,0,-1.0472,-0.698132,-0.174533,-0.174533,-1.04086,-0.682388,-0.162044,-0.155582,-0.634045,-0.440814,-0.187325,-0.28422
0,0,-1.0472,-0.698132,-0.174533,-0.174533,-1.04086,-0.682388,-0.162044,-0.155582,-0.634045,-0.440814,-0.187325,-0.28422
0,0,-1.0472,-0.698132,-0.174533,-0.174533,-1.04086,-0.682388,-0.162044,-0.155582,-0.634045,-0.440814,-0.187325,-0.28422
0,0,-1.0472,-0.698132,-0.174533,-0.174533,-1.04086,-0.682388,-0.162044,-0.155582,-0.634045,-0.440814,-0.187325,-0.28422
0,0,-1.0472,-0.698132,-0.174533,-0.174533,-1.04086,-0.682388,-0.162044,-0.155582,-0.634045,-0.440814,-0.187325,-0.28422
0,0,-1.0472,-0.698132,-0.174533,-0.174533,-1.04086,-0.682388,-0.162044,-0.155582,-0.634045,-0.440814,-0.187325,-0.28422
0,0,-1.0472,-0.698132,-0.174533,-0.174533,-1.04086,-0.682388,-0.162044,-0.155582,-0.634045,-0.440814,-0.187325,-0.28422
0,0,-1.0472,-0.698132,-0.174533,-0.174533,-1.04086,-0.682388,-0.162044,-0.155582,-0.634045,-0.440814,-0.187325,-0.28422
0,0,-1.0472,-0.698132,-0.174533,-0.174533,-1.04086,-0.682388,-0.162044,-0.155582,-0.634045,-0.440814,-0.187325,-0.28422
0,0,-1.0472,-0.698132,-0.174533,-0.174533,-1.04086,-0.682388,-0.162044,-0.155582,-0.634045,-0.440814,-0.187325,-0.28422
0,0,-1.0472,-0.698132,-0.174533,-0.174533,-1.04086,-0.682388,-0.162044,-0.155582,-0.634045,-0.440814,-0.187325,-0.28422
0,0,-1.0472,-0.698132,-0.174533,-0.174533,-1.04086,-0.682388,-0.162044,-0.155582,-0.634045,-0.440814,-0.187325,-0.28422
0,0,-1.0472,-0.698132,-0.174533,-0.174533,-1.04086,-0.682388,-0.162044,-0.155582,-0.634045,-0.440814,-0.187325,-0.28422
0,0,-1.0472,-0.698132,-0.174533,-0.174533,-1.04086,-0.682388,-0.162044,-0.155582,-0.634045,-0.440814,-0.187325,-0.28422
0,0,-1.0472,-0.698132,-0.174533,-0.174533,-1.04086,-0.682388,-0.162044,-0.155582,-0.634045,-0.440814,-0.187325,-0.284221
0,0,-1.0472,-0.698132,-0.174533,-0.174533,-1.04086,-0.682388,-0.162044,-0.155582,-0.634045,-0.440814,-0.187326,-0.284221
0,0,-1.0472,-0.698132,-0.174533,-0.174533,-1.04086,-0.682388,-0.162044,-0.155582,-0.634045,-0.440814,-0.187326,-0.284222
0,0,-1.0472,-0.698132,-0.174533,-0.174533,-1.04086,-0.682388,-0.162044,-0.155582,-0.634045,-0.440814,-0.187326,-0.284223
0,0,-1.0472,-0.698132,-0.174533,-0.174533,-1.04086,-0.682388,-0.162044,-0.155582,-0.634045,-0.440814,-0.187326,-0.284224
0,0,-1.0472,-0.698132,-0.174533,-0.174533,-1.04086,-0.682388,-0.162044,-0.155582,-0.634045,-0.440814,-0.187326,-0.284224
0,0,-1.0472,-0.698132,-0.174533,-0.174533,-1.04086,-0.682388,-0.162044,-0.155582,-0.634045,-0.440814,-0.187326,-0.284225
0,0,-1.0472,-0.698132,-0.174533,-0.174533,-1.04086,-0.682388,-0.162044,-0.155582,-0.634045,-0.440814,-0.187326,-0.284226
0,0,-1.0472,-0.698132,-0.174533,-0.174533,-1.04086,-0.682388,-0.162044,-0.155582,-0.634045,-0.440814,-0.187326,-0.284226
0,0,-1.0472,-0.698132,-0.174533,-0.174533,-1.04086,-0.682388,-0.162044,-0.155582,-0.634045,-0.440814,-0.187326,-0.284227
0,0,-1.0472,-0.698132,-0.174533,-0.174533,-1.04086,-0.682388,-0.162044,-0.155582,-0.634045,-0.440814,-0.187326,-0.284227
0,0,-1.0472,-0.698132,-0.174533,-0.174533,-1.04086,-0.682388,-0.162044,-0.155582,-0.634045,-0.440814,-0.187326,-0.284228
0,0,-1.0472,-0.698132,-0.174533,-0.174533,-1.04086,-0.682388,-0.162044,-0.155582,-0.634045,-0.440814,-0.187326,-0.284228
0,0,-1.0472,-0.698132,-0.174533,-0.174533,-1.04086,-0.682388,-0.162044,-0.155582,-0.634045,-0.440814,-0.187326,-0.284229
0,0,-1.0472,-0.698132,-0.174533,-0.174533,-1.04086,-0.682388,-0.162044,-0.155582,-0.634045,-0.440814,-0.187326,-0.284229
0,0,-1.0472,-0.698132,-0.174533,-0.174533,-1.04086,-0.682388,-0.162044,-0.155582,-0.634045,-0.440814,-0.187326,-0.28423
0,0,-1.0472,-0.698132,-0.174533,-0.174533,-1.04086,-0.682388,-0.162044,-0.155582,-0.634045,-0.440814,-0.187326,-0.28423
0,0,-1.0472,-0.698132,-0.174533,-0.174533,-1.04086,-0.682388,-0.162044,-0.155582,-0.634045,-0.440814,-0.187326,-0.284231
0,0,-1.0472,-0.698132,-0.174533,-0.174533,-1.04086,-0.682388,-0.162044,-0.155582,-0.634045,-0.440814,-0.187326,-0.284231
0,0,-1.0472,-0.698132,-0.174533,-0.174533,-1.04086,-0.682388,-0.162044,-0.155582,-0.634045,-0.440814,-0.187326,-0.284232
0,0,-1.0472,-0.698132,-0.174533,-0.174533,-1.04086,-0.682388,-0.162044,-0.155582,-0.634045,-0.440814,-0.187326,-0.284232
0,0,-1.0472,-0.698132,-0.174533,-0.174533,-1.04086,-0.682388,-0.162044,-0.155582,-0.634045,-0.440814,-0.187326,-0.284233
0,0,-1.0472,-0.698132,-0.174533,-0.174533,-1.04086,-0.682388,-0.162044,-0.155582,-0.634045,-0.440814,-0.187326,-0.284233
0,0,-1.0472,-0.698132,-0.174533,-0.174533,-1.04086,-0.682388,-0.162044,-0.155582,-0.634045,-0.440814,-0.187326,-0.284234
0,0,-1.0472,-0.698132,-0.174533,-0.174533,-1.04086,-0.682388,-0.162044,-0.155582,-0.634045,-0.440814,-0.187326,-0.284234
0,0,-1.0472,-0.698132,-0.174533,-0.174533,-1.04086,-0.682388,-0.162044,-0.155582,-0.634045,-0.440814,-0.187326,-0.284234
0,0,-1.0472,-0.698132,-0.174533,-0.174533,-1.04086,-0.682388,-0.162044,-0.155582,-0.634045,-0.440814,-0.187326,-0.284235
0,0,-1.0472,-0.698132,-0.174533,-0.174533,-1.04086,-0.682388,-0.162044,-0.155582,-0.634045,-0.440814,-0.187326,-0.284235
0,0,-1.0472,-0.698132,-0.174533,-0.174533,-1.04086,-0.682388,-0.162044,-0.155582,-0.634045,-0.440814,-0.187326,-0.284235
0,0,-1.0472,-0.698132,-0.174533,-0.174533,-1.04086,-0.682388,-0.162044,-0.155582,-0.634045,-0.440814,-0.187326,-0.284236
0,0,-1.0472,-0.698132,-0.174533,-0.174533,-1.04086,-0.682388,-0.162044,-0.155582,-0.634045,-0.440814,-0.187327,-0.284264
0,0,-1.0472,-0.698132,-0.174533,-0.174533,-1.04086,-0.682388,-0.162044,-0.155582,-0.634045,-0.440814,-0.187327,-0.284264
0,0,-1.0472,-0.698132,-0.174533,-0.174533,-1.04086,-0.682388,-0.162044,-0.155582,-0.634045,-0.440814,-0.187327,-0.284264
0,0,-1.0472,-0.698132,-0.174533,-0.174533,-1.04086,-0.682388,-0.162044,-0.155582,-0.634045,-0.440814,-0.187327,-0.284264
0,0,-1.0472,-0.698132,-0.174533,-0.174533,-1.04086,-0.682388,-0.162044,-0.155582,-0.634045,-0.440814,-0.187327,-0.284264
0,0,-1.0472,-0.698132,-0.174533,-0.174533,-1.04086,-0.682388,-0.162044,-0.155582,-0.634045,-0.440814,-0.187327,-0.284264
0,0,-1.0472,-0.698132,-0.174533,-0.174533,-1.04086,-0.682388,-0.162044,-0.155582,-0.634045,-0.440814,-0.187327,-0.284264
0,0,-1.0472,-0.698132,-0.174533,-0.174533,-1.04086,-0.682388,-0.162044,-0.155582,-0.634045,-0.440814,-0.187327,-0.284264
0,0,-1.0472,-0.698132,-0.174533,-0.174533,-1.04086,-0.682388,-0.162044,-0.155582,-0.634045,-0.440814,-0.187327,-0.284264
0,0,-1.0472,-0.698132,-0.174533,-0.174533,-1.04086,-0.682388,-0.162044,-0.155582,-0.634045,-0.440814,-0.187327,-0.284264
0,0,-1.0472,-0.698132,-0.174533,-0.174533,-1.04086,-0.682388,-0.162044,-0.155582,-0.634045,-0.440814,-0.187327,-0.284264
0,0,-1.0472,-0.698132,-0.174533,-0.174533,-1.04086,-0.682388,-0.162044,-0.155582,-0.634045,-0.440814,-0.187327,-0.284264
0,0,-1.0472,-0.698132,-0.174533,-0.174533,-1.04086,-0.682388,-0.162044,-0.155582,-0.634045,-0.440814,-0.187327,-0.284264
0,0,-1.0472,-0.698132,-0.174533,-0.174533,-1.04086,-0.682388,-0.162044,-0.155582,-0.634045,-0.440814,-0.187327,-0.284264
0,0,-1.0472,-0.698132,-0.174533,-0.174533,-1.04086,-0.682388,-0.162044,-0.155582,-0.634045,-0.440814,-0.187327,-0.284264
0,0,-1.0472,-0.698132,-0.174533,-0.174533,-1.04086,-0.682388,-0.162044,-0.155582,-0.634045,-0.440814,-0.187327,-0.284264
0,0,-1.0472,-0.698132,-0.174533,-0.174533,-1.04086,-0.682388,-0.162044,-0.155582,-0.634045,-0.440814,-0.187327,-0.284264
0,0,-1.0472,-0.698132,-0.174533,-0.174533,-1.04086,-0.682388,-0.162044,-0.155582,-0.634045,-0.440814,-0.187327,-0.284264
0,0,-1.0472,-0.698132,-0.174533,-0.174533,-1.04086,-0.682388,-0.162044,-0.155582,-0.634045,-0.440814,-0.187327,-0.284264
0,0,-1.0472,-0.698132,-0.174533,-0.174533,-1.04086,-0.682388,-0.162044,-0.155582,-0.634045,-0.440814,-0.187327,-0.284264
0,0,-1.0472,-0.698132,-0.174533,-0.174533,-1.04086,-0.682388,-0.162044,-0.155582,-0.634045,-0.440814,-0.187327,-0.284264
0,0,-1.0472,-0.698132,-0.174533,-0.174533,-1.04086,-0.682388,-0.162044,-0.155582,-0.634045,-0.440814,-0.187327,-0.284264
0,0,-1.0472,-0.698132,-0.174533,-0.174533,-1.04086,-0.682388,-0.162044,-0.155582,-0.634045,-0.440814,-0.187327,-0.284264
0,0,-1.0472,-0.698132,-0.174533,-0.174533,-1.04086,-0.682388,-0.162044,-0.155582,-0.634045,-0.440814,-0.187327,-0.284264
0,0,-1.0472,-0.698132,-0.174533,-0.174533,-1.04086,-0.682388,-0.162044,-0.155582,-0.634045,-0.440814,-0.187327,-0.284264
0,0,-1.0472,-0.698132,-0.174533,-0.174533,-1.04086,-0.682388,-0.162044,-0.155582,-0.634045,-0.440814,-0.187327,-0.284264
0,0,-1.0472,-0.698132,-0.174533,-0.174533,-1.04086,-0.682388,-0.162044,-0.155582,-0.634045,-0.440814,-0.187327,-0.284264
0,0,-1.0472,-0.698132,-0.174533,-0.174533,-1.04086,-0.682388,-0.162044,-0.155582,-0.634045,-0.440814,-0.187327,-0.284264
0,0,-1.0472,-0.698132,-0.174533,-0.174533,-1.04086,-0.682388,-0.162044,-0.155582,-0.634045,-0.440814,-0.187327,-0.284264
0,0,-1.0472,-0.698132,-0.174533,-0.174533,-1.04086,-0.682388,-0.162044,-0.155582,-0.634045,-0.440814,-0.187327,-0.284264
0,0,-1.0472,-0.698132,-0.174533,-0.174533,-1.04086,-0.682388,-0.162044,-0.155582,-0.634045,-0.440814,-0.187327,-0.284264
0,0,-1.0472,-0.698132,-0.174533,-0.174533,-1.04086,-0.682388,-0.162044,-0.155582,-0.634045,-0.440814,-0.187327,-0.284264
0,0,-1.0472,-0.698132,-0.174533,-0.174533,-1.04086,-0.682388,-0.162044,-0.155582,-0.634045,-0.440814,-0.187327,-0.284264
0,0,-1.0472,-0.698132,-0.174533,-0.174533,-1.04086,-0.682388,-0.162044,-0.155582,-0.634045,-0.440814,-0.187327,-0.284264
0,0,-1.0472,-0.698132,-0.174533,-0.174533,-1.04086,-0.682388,-0.162044,-0.155582,-0.634045,-0.440814,-0.187327,-0.284264
0,0,-1.0472,-0.698132,-0.174533,-0.174533,-1.04086,-0.682388,-0.162044,-0.155582,-0.634045,-0.440814,-0.187327,-0.284264
0,0,-1.0472,-0.698132,-0.174533,-0.174533,-1.04086,-0.682388,-0.162044,-0.155582,-0.634045,-0.440814,-0.187327,-0.284264
0,0,-1.0472,-0.698132,-0.174533,-0.174533,-1.04086,-0.682388,-0.162044,-0.155582,-0.634045,-0.440814,-0.187327,-0.284264
0,0,-1.0472,-0.698132,-0.174533,-0.174533,-1.04086,-0.682388,-0.162044,-0.155582,-0.634045,-0.440814,-0.187327,-0.284264
0,0,-1.0472,-0.698132,-0.174533,-0.174533,-1.04086,-0.682388,-0.162044,-0.155582,-0.634045,-0.440814,-0.187327,-0.284264
0,0,-1.0472,-0.698132,-0.174533,-0.174533,-1.04086,-0.682388,-0.162044,-0.155582,-0.634045,-0.440814,-0.187327,-0.284264
0,0,-1.0472,-0.698132,-0.174533,-0.174533,-1.04086,-0.682388,-0.162044,-0.155582,-0.634045,-0.440814,-0.187327,-0.284264
0,0,-1.0472,-0.698132,-0.174533,-0.174533,-1.04086,-0.682388,-0.162044,-0.155582,-0.634045,-0.440814,-0.187327,-0.284264
0,0,-1.0472,-0.698132,-0.174533,-0.174533,-1.04086,-0.682388,-0.162044,-0.155582,-0.634045,-0.440814,-0.187327,-0.284264
0,0,-1.0472,-0.698132,-0.174533,-0.174533,-1.04086,-0.682388,-0.162044,-0.155582,-0.634045,-0.440814,-0.187327,-0.284264
0,0,-1.0472,-0.698132,-0.174533,-0.174533,-1.04086,-0.682388,-0.162044,-0.155582,-0.634045,-0.440814,-0.187327,-0.284264
0,0,-1.0472,-0.698132,-0.174533,-0.174533,-1.04086,-0.682388,-0.162044,-0.155582,-0.634045,-0.440814,-0.187327,-0.284264
0,0,-1.0472,-0.698132,-0.174533,-0.174533,-1.04086,-0.682388,-0.162044,-0.155582,-0.634045,-0.440814,-0.187327,-0.284264
0,0,-1.0472,-0.698132,-0.174533,-0.174533,-1.04086,-0.682388,-0.162044,-0.155582,-0.634045,-0.440814,-0.187327,-0.284264
0,0,-1.0472,-0.698132,-0.174533,-0.174533,-1.04086,-0.682388,-0.162044,-0.155582,-0.634045,-0.440814,-0.187327,-0.284264
0,0,-1.0472,-0.698132,-0.174533,-0.174533,-1.04086,-0.682388,-0.162044,-0.155582,-0.634045,-0.440814,-0.187327,-0.284264
0,0,-1.0472,-0.698132,-0.174533,-0.174533,-1.04086,-0.682388,-0.162044,-0.155582,-0.634045,-0.440814,-0.187327,-0.284264
0,0,-1.0472,-0.698132,-0.174533,-0.174533,-1.04086,-0.682388,-0.162044,-0.155582,-0.634045,-0.440814,-0.187327,-0.284264
0,0,-1.0472,-0.698132,-0.174533,-0.174533,-1.04086,-0.682388,-0.162044,-0.155582,-0.634045,-0.440814,-0.187327,-0.284264
0,0,-1.0472,-0.698132,-0.174533,-0.174533,-1.04086,-0.682388,-0.162044,-0.155582,-0.634045,-0.440814,-0.187327,-0.284264
0,0,-1.0472,-0.698132,-0.174533,-0.174533,-1.04086,-0.682388,-0.162044,-0.155582,-0.634045,-0.440814,-0.187327,-0.284264
0,0,-1.0472,-0.698132,-0.174533,-0.174533,-1.04086,-0.682388,-0.162044,-0.155582,-0.634045,-0.440814,-0.187327,-0.284264
0,0,-1.0472,-0.698132,-0.174533,-0.174533,-1.04086,-0.682388,-0.162044,-0.155582,-0.634045,-0.440814,-0.187327,-0.284264
0,0,-1.0472,-0.698132,-0.174533,-0.174533,-1.04086,-0.682388,-0.162044,-0.155582,-0.634045,-0.440814,-0.187327,-0.284264
0,0,-1.0472,-0.698132,-0.174533,-0.174533,-1.04086,-0.682388,-0.162044,-0.155582,-0.634045,-0.440814,-0.187327,-0.284264
0,0,-1.0472,-0.698132,-0.174533,-0.174533,-1.04086,-0.682388,-0.162044,-0.155582,-0.634045,-0.440814,-0.187327,-0.284264
0,0,-1.0472,-0.698132,-0.174533,-0.174533,-1.04086,-0.682388,-0.162044,-0.155582,-0.634045,-0.440814,-0.187327,-0.284264
0,0,-1.0472,-0.698132,-0.174533,-0.174533,-1.04086,-0.682388,-0.162044,-0.155582,-0.634045,-0.440814,-0.187327,-0.284264
0,0,-1.0472,-0.698132,-0.174533,-0.174533,-1.04086,-0.682388,-0.162044,-0.155582,-0.634045,-0.440814,-0.187327,-0.284264
0,0,-1.0472,-0.698132,-0.174533,-0.174533,-1.04086,-0.682388,-0.162044,-0.155582,-0.634045,-0.440814,-0.187327,-0.284264
0,0,-1.0472,-0.698132,-0.174533,-0.174533,-1.04086,-0.682388,-0.162044,-0.155582,-0.634045,-0.440814,-0.187327,-0.284264
0,0,-1.0472,-0.698132,-0.174533,-0.174533,-1.04086,-0.682388,-0.162044,-0.155582,-0.634045,-0.440814,-0.187327,-0.284264
0,0,-1.0472,-0.698132,-0.174533,-0.174533,-1.04086,-0.682388,-0.162044,-0.155582,-0.634045,-0.440814,-0.187327,-0.284264
0,0,-1.0472,-0.698132,-0.174533,-0.174533,-1.04086,-0.682388,-0.162044,-0.155582,-0.634045,-0.440814,-0.187327,-0.284264
0,0,-1.0472,-0.698132,-0.174533,-0.174533,-1.04086,-0.682388,-0.162044,-0.155582,-0.634045,-0.440814,-0.187327,-0.284264
0,0,-1.0472,-0.698132,-0.174533,-0.174533,-1.04086,-0.682388,-0.162044,-0.155582,-0.634045,-0.440814,-0.187327,-0.284264
0,0,-1.0472,-0.698132,-0.174533,-0.174533,-1.04086,-0.682388,-0.162044,-0.155582,-0.634045,-0.440814,-0.187327,-0.284264
0,0,-1.0472,-0.698132,-0.174533,-0.174533,-1.04086,-0.682388,-0.162044,-0.155582,-0.634045,-0.440814,-0.187327,-0.284264
0,0,-1.0472,-0.698132,-0.174533,-0.174533,-1.04086,-0.682388,-0.162044,-0.155582,-0.634045,-0.440814,-0.187327,-0.284264
0,0,-1.0472,-0.698132,-0.174533,-0.174533,-1.04086,-0.682388,-0.162044,-0.155582,-0.634045,-0.440814,-0.187327,-0.284264
0,0,-1.0472,-0.698132,-0.174533,-0.174533,-1.04086,-0.682388,-0.162044,-0.155582,-0.634045,-0.440814,-0.187327,-0.284264
