stim_pw [us],stim_amp [mA],com_elbow_fe [rad],com_forearm_ps [rad],com_wrist_fe [rad],com_wrist_ru [rad],act_elbow_fe [rad],act_forearm_ps [rad],act_wrist_fe [rad],act_wrist_ru [rad],elbow_fe_trq [Nm],forearm_ps_trq [Nm],wrist_fe_trq [Nm],wrist_ru_trq [Nm]
35,25,-1.0472,-0.698132,-0.174533,-0.174533,-1.03606,-0.682948,-0.155647,-0.165394,-1.11367,-0.425155,-0.283294,-0.137078
35,25,-1.0472,-0.698132,-0.174533,-0.174533,-1.03606,-0.682948,-0.155647,-0.165394,-1.11367,-0.425155,-0.283294,-0.137078
35,25,-1.0472,-0.698132,-0.174533,-0.174533,-1.03606,-0.682948,-0.155647,-0.165394,-1.11367,-0.425155,-0.283294,-0.137078
35,25,-1.0472,-0.698132,-0.174533,-0.174533,-1.03606,-0.682948,-0.155647,-0.165394,-1.11367,-0.425155,-0.283294,-0.137078
35,25,-1.0472,-0.698132,-0.174533,-0.174533,-1.03606,-0.682948,-0.155647,-0.165394,-1.11367,-0.425155,-0.283294,-0.137078
35,25,-1.0472,-0.698132,-0.174533,-0.174533,-1.03606,-0.682948,-0.155647,-0.165394,-1.11367,-0.425155,-0.283294,-0.137078
35,25,-1.0472,-0.698132,-0.174533,-0.174533,-1.03606,-0.682948,-0.155647,-0.165394,-1.11367,-0.425155,-0.283294,-0.137078
35,25,-1.0472,-0.698132,-0.174533,-0.174533,-1.03606,-0.682948,-0.155647,-0.165394,-1.11367,-0.425155,-0.283294,-0.137078
35,25,-1.0472,-0.698132,-0.174533,-0.174533,-1.03606,-0.682948,-0.155647,-0.165394,-1.11367,-0.425155,-0.283294,-0.137078
35,25,-1.0472,-0.698132,-0.174533,-0.174533,-1.03606,-0.682948,-0.155647,-0.165394,-1.11367,-0.425155,-0.283294,-0.137078
35,25,-1.0472,-0.698132,-0.174533,-0.174533,-1.03606,-0.682948,-0.155647,-0.165394,-1.11367,-0.425155,-0.283294,-0.137078
35,25,-1.0472,-0.698132,-0.174533,-0.174533,-1.03606,-0.682948,-0.155647,-0.165394,-1.11367,-0.425155,-0.283294,-0.137078
35,25,-1.0472,-0.698132,-0.174533,-0.174533,-1.03606,-0.682948,-0.155647,-0.165394,-1.11367,-0.425155,-0.283294,-0.137078
35,25,-1.0472,-0.698132,-0.174533,-0.174533,-1.03606,-0.682948,-0.155647,-0.165394,-1.11367,-0.425155,-0.283294,-0.137078
35,25,-1.0472,-0.698132,-0.174533,-0.174533,-1.03606,-0.682948,-0.155647,-0.165394,-1.11367,-0.425155,-0.283294,-0.137078
35,25,-1.0472,-0.698132,-0.174533,-0.174533,-1.03606,-0.682948,-0.155647,-0.165394,-1.11367,-0.425155,-0.283294,-0.137078
35,25,-1.0472,-0.698132,-0.174533,-0.174533,-1.03606,-0.682948,-0.155647,-0.165394,-1.11367,-0.425155,-0.283294,-0.137078
35,25,-1.0472,-0.698132,-0.174533,-0.174533,-1.03606,-0.682948,-0.155647,-0.165394,-1.11367,-0.425155,-0.283294,-0.137078
35,25,-1.0472,-0.698132,-0.174533,-0.174533,-1.03606,-0.682948,-0.155647,-0.165394,-1.11367,-0.425155,-0.283294,-0.137078
35,25,-1.0472,-0.698132,-0.174533,-0.174533,-1.03606,-0.682948,-0.155647,-0.165394,-1.11367,-0.425155,-0.283294,-0.137078
35,25,-1.0472,-0.698132,-0.174533,-0.174533,-1.03606,-0.682948,-0.155647,-0.165394,-1.11367,-0.425155,-0.283294,-0.137078
35,25,-1.0472,-0.698132,-0.174533,-0.174533,-1.03606,-0.682948,-0.155647,-0.165394,-1.11367,-0.425155,-0.283294,-0.137078
35,25,-1.0472,-0.698132,-0.174533,-0.174533,-1.03606,-0.682948,-0.155647,-0.165394,-1.11367,-0.425155,-0.283294,-0.137078
35,25,-1.0472,-0.698132,-0.174533,-0.174533,-1.03606,-0.682948,-0.155647,-0.165394,-1.11367,-0.425155,-0.283294,-0.137078
35,25,-1.0472,-0.698132,-0.174533,-0.174533,-1.03606,-0.682948,-0.155647,-0.165394,-1.11367,-0.425155,-0.283294,-0.137078
35,25,-1.0472,-0.698132,-0.174533,-0.174533,-1.03606,-0.682948,-0.155647,-0.165394,-1.11367,-0.425155,-0.283294,-0.137078
35,25,-1.0472,-0.698132,-0.174533,-0.174533,-1.03606,-0.682948,-0.155647,-0.165394,-1.11367,-0.425155,-0.283294,-0.137078
35,25,-1.0472,-0.698132,-0.174533,-0.174533,-1.03606,-0.682948,-0.155647,-0.165394,-1.11367,-0.425155,-0.283294,-0.137078
35,25,-1.0472,-0.698132,-0.174533,-0.174533,-1.03606,-0.682948,-0.155647,-0.165394,-1.11367,-0.425155,-0.283294,-0.137078
35,25,-1.0472,-0.698132,-0.174533,-0.174533,-1.03606,-0.682948,-0.155647,-0.165394,-1.11367,-0.425155,-0.283294,-0.137078
35,25,-1.0472,-0.698132,-0.174533,-0.174533,-1.03606,-0.682948,-0.155647,-0.165394,-1.11367,-0.425155,-0.283294,-0.137078
35,25,-1.0472,-0.698132,-0.174533,-0.174533,-1.03606,-0.682948,-0.155647,-0.165394,-1.11367,-0.425155,-0.283294,-0.137078
35,25,-1.0472,-0.698132,-0.174533,-0.174533,-1.03606,-0.682948,-0.155647,-0.165394,-1.11367,-0.425155,-0.283294,-0.137078
35,25,-1.0472,-0.698132,-0.174533,-0.174533,-1.03606,-0.682948,-0.155647,-0.165394,-1.11367,-0.425155,-0.283294,-0.137078
35,25,-1.0472,-0.698132,-0.174533,-0.174533,-1.03606,-0.682948,-0.155647,-0.165394,-1.11367,-0.425155,-0.283294,-0.137078
35,25,-1.0472,-0.698132,-0.174533,-0.174533,-1.03606,-0.682948,-0.155647,-0.165394,-1.11367,-0.425155,-0.283294,-0.137078
35,25,-1.0472,-0.698132,-0.174533,-0.174533,-1.03606,-0.682948,-0.155647,-0.165394,-1.11367,-0.425155,-0.283294,-0.137078
35,25,-1.0472,-0.698132,-0.174533,-0.174533,-1.03606,-0.682948,-0.155647,-0.165394,-1.11367,-0.425155,-0.283294,-0.137078
35,25,-1.0472,-0.698132,-0.174533,-0.174533,-1.03606,-0.682948,-0.155706,-0.165374,-1.11367,-0.425155,-0.282405,-0.137377
35,25,-1.0472,-0.698132,-0.174533,-0.174533,-1.03606,-0.682948,-0.155706,-0.165374,-1.11367,-0.425155,-0.282405,-0.137377
35,25,-1.0472,-0.698132,-0.174533,-0.174533,-1.03606,-0.682948,-0.155706,-0.165374,-1.11367,-0.425155,-0.282405,-0.137377
35,25,-1.0472,-0.698132,-0.174533,-0.174533,-1.03606,-0.682948,-0.155706,-0.165374,-1.11367,-0.425155,-0.282405,-0.137377
35,25,-1.0472,-0.698132,-0.174533,-0.174533,-1.03606,-0.682948,-0.155706,-0.165374,-1.11367,-0.425155,-0.282405,-0.137377
35,25,-1.0472,-0.698132,-0.174533,-0.174533,-1.03606,-0.682948,-0.155706,-0.165374,-1.11367,-0.425155,-0.282405,-0.137377
35,25,-1.0472,-0.698132,-0.174533,-0.174533,-1.03606,-0.682948,-0.155706,-0.165374,-1.11367,-0.425155,-0.282405,-0.137377
35,25,-1.0472,-0.698132,-0.174533,-0.174533,-1.03606,-0.682948,-0.155706,-0.165374,-1.11367,-0.425155,-0.282405,-0.137377
35,25,-1.0472,-0.698132,-0.174533,-0.174533,-1.03606,-0.682948,-0.155706,-0.165374,-1.11367,-0.425155,-0.282405,-0.137377
35,25,-1.0472,-0.698132,-0.174533,-0.174533,-1.03606,-0.682948,-0.155706,-0.165374,-1.11367,-0.425155,-0.282405,-0.137377
35,25,-1.0472,-0.698132,-0.174533,-0.174533,-1.03606,-0.682948,-0.155706,-0.165374,-1.11367,-0.425155,-0.282405,-0.137377
35,25,-1.0472,-0.698132,-0.174533,-0.174533,-1.03606,-0.682948,-0.155706,-0.165374,-1.11367,-0.425155,-0.282405,-0.137377
35,25,-1.0472,-0.698132,-0.174533,-0.174533,-1.03606,-0.682948,-0.155706,-0.165374,-1.11367,-0.425155,-0.282405,-0.137377
35,25,-1.0472,-0.698132,-0.174533,-0.174533,-1.03606,-0.682948,-0.155706,-0.165374,-1.11367,-0.425155,-0.282405,-0.137377
35,25,-1.0472,-0.698132,-0.174533,-0.174533,-1.03606,-0.682948,-0.155706,-0.165374,-1.11367,-0.425155,-0.282405,-0.137377
35,25,-1.0472,-0.698132,-0.174533,-0.174533,-1.03606,-0.682948,-0.155706,-0.165374,-1.11367,-0.425155,-0.282405,-0.137377
35,25,-1.0472,-0.698132,-0.174533,-0.174533,-1.03606,-0.682948,-0.155706,-0.165374,-1.11367,-0.425155,-0.282405,-0.137377
35,25,-1.0472,-0.698132,-0.174533,-0.174533,-1.03606,-0.682948,-0.155706,-0.165374,-1.11367,-0.425155,-0.282405,-0.137377
35,25,-1.0472,-0.698132,-0.174533,-0.174533,-1.03606,-0.682948,-0.155706,-0.165374,-1.11367,-0.425155,-0.282405,-0.137377
35,25,-1.0472,-0.698132,-0.174533,-0.174533,-1.03606,-0.682948,-0.155706,-0.165374,-1.11367,-0.425155,-0.282405,-0.137377
35,25,-1.0472,-0.698132,-0.174533,-0.174533,-1.03606,-0.682948,-0.155706,-0.165374,-1.11367,-0.425155,-0.282405,-0.137377
35,25,-1.0472,-0.698132,-0.174533,-0.174533,-1.03606,-0.682948,-0.155706,-0.165374,-1.11367,-0.425155,-0.282405,-0.137377
35,25,-1.0472,-0.698132,-0.174533,-0.174533,-1.03606,-0.682948,-0.155706,-0.165374,-1.11367,-0.425155,-0.282405,-0.137377
35,25,-1.0472,-0.698132,-0.174533,-0.174533,-1.03606,-0.682948,-0.155706,-0.165374,-1.11367,-0.425155,-0.282405,-0.137377
35,25,-1.0472,-0.698132,-0.174533,-0.174533,-1.03606,-0.682948,-0.155706,-0.165374,-1.11367,-0.425155,-0.282405,-0.137377
35,25,-1.0472,-0.698132,-0.174533,-0.174533,-1.03606,-0.682948,-0.155706,-0.165374,-1.11367,-0.425155,-0.282405,-0.137377
35,25,-1.0472,-0.698132,-0.174533,-0.174533,-1.03606,-0.682948,-0.155706,-0.165374,-1.11367,-0.425155,-0.282405,-0.137377
35,25,-1.0472,-0.698132,-0.174533,-0.174533,-1.03606,-0.682998,-0.155706,-0.165374,-1.11367,-0.423732,-0.282405,-0.137377
35,25,-1.0472,-0.698132,-0.174533,-0.174533,-1.03606,-0.682998,-0.155706,-0.165374,-1.11367,-0.423732,-0.282405,-0.137377
35,25,-1.0472,-0.698132,-0.174533,-0.174533,-1.03606,-0.682998,-0.155706,-0.165374,-1.11367,-0.423732,-0.282405,-0.137377
35,25,-1.0472,-0.698132,-0.174533,-0.174533,-1.03606,-0.682998,-0.155706,-0.165374,-1.11367,-0.423732,-0.282405,-0.137377
35,25,-1.0472,-0.698132,-0.174533,-0.174533,-1.03606,-0.682998,-0.155706,-0.165374,-1.11367,-0.423732,-0.282405,-0.137377
35,25,-1.0472,-0.698132,-0.174533,-0.174533,-1.03606,-0.682998,-0.155706,-0.165374,-1.11367,-0.423732,-0.282405,-0.137377
35,25,-1.0472,-0.698132,-0.174533,-0.174533,-1.03606,-0.682998,-0.155706,-0.165374,-1.11367,-0.423732,-0.282405,-0.137377
35,25,-1.0472,-0.698132,-0.174533,-0.174533,-1.03606,-0.682998,-0.155706,-0.165374,-1.11367,-0.423732,-0.282405,-0.137377
35,25,-1.0472,-0.698132,-0.174533,-0.174533,-1.03606,-0.682998,-0.155706,-0.165374,-1.11367,-0.423732,-0.282405,-0.137377
35,25,-1.0472,-0.698132,-0.174533,-0.174533,-1.03606,-0.682998,-0.155706,-0.165374,-1.11367,-0.423732,-0.282405,-0.137377
35,25,-1.0472,-0.698132,-0.174533,-0.174533,-1.03606,-0.682998,-0.155765,-0.165355,-1.11367,-0.423732,-0.281516,-0.137675
35,25,-1.0472,-0.698132,-0.174533,-0.174533,-1.03606,-0.682998,-0.155765,-0.165355,-1.11367,-0.423732,-0.281516,-0.137675
35,25,-1.0472,-0.698132,-0.174533,-0.174533,-1.03606,-0.682998,-0.155765,-0.165355,-1.11367,-0.423732,-0.281516,-0.137675
35,25,-1.0472,-0.698132,-0.174533,-0.174533,-1.03606,-0.682998,-0.155765,-0.165355,-1.11367,-0.423732,-0.281516,-0.137675
35,25,-1.0472,-0.698132,-0.174533,-0.174533,-1.03606,-0.682998,-0.155765,-0.165355,-1.11367,-0.423732,-0.281516,-0.137675
35,25,-1.0472,-0.698132,-0.174533,-0.174533,-1.03606,-0.682998,-0.155765,-0.165355,-1.11367,-0.423732,-0.281516,-0.137675
35,25,-1.0472,-0.698132,-0.174533,-0.174533,-1.03606,-0.682998,-0.155765,-0.165355,-1.11367,-0.423732,-0.281516,-0.137675
35,25,-1.0472,-0.698132,-0.174533,-0.174533,-1.03606,-0.682998,-0.155765,-0.165355,-1.11367,-0.423732,-0.281516,-0.137675
35,25,-1.0472,-0.698132,-0.174533,-0.174533,-1.03606,-0.682998,-0.155765,-0.165355,-1.11367,-0.423732,-0.281516,-0.137675
35,25,-1.0472,-0.698132,-0.174533,-0.174533,-1.03606,-0.682998,-0.155765,-0.165355,-1.11367,-0.423732,-0.281516,-0.137675
35,25,-1.0472,-0.698132,-0.174533,-0.174533,-1.03606,-0.682998,-0.155765,-0.165355,-1.11367,-0.423732,-0.281516,-0.137675
35,25,-1.0472,-0.698132,-0.174533,-0.174533,-1.03606,-0.682998,-0.155765,-0.165355,-1.11367,-0.423732,-0.281516,-0.137675
35,25,-1.0472,-0.698132,-0.174533,-0.174533,-1.03606,-0.682998,-0.155765,-0.165355,-1.11367,-0.423732,-0.281516,-0.137675
35,25,-1.0472,-0.698132,-0.174533,-0.174533,-1.03606,-0.682998,-0.155765,-0.165355,-1.11367,-0.423732,-0.281516,-0.137675
35,25,-1.0472,-0.698132,-0.174533,-0.174533,-1.03606,-0.682998,-0.155765,-0.165355,-1.11367,-0.423732,-0.281516,-0.137675
35,25,-1.0472,-0.698132,-0.174533,-0.174533,-1.03606,-0.682998,-0.155765,-0.165355,-1.11367,-0.423732,-0.281516,-0.137675
35,25,-1.0472,-0.698132,-0.174533,-0.174533,-1.03606,-0.682998,-0.155765,-0.165355,-1.11367,-0.423732,-0.281516,-0.137675
35,25,-1.0472,-0.698132,-0.174533,-0.174533,-1.03606,-0.682998,-0.155765,-0.165355,-1.11367,-0.423732,-0.281516,-0.137675
35,25,-1.0472,-0.698132,-0.174533,-0.174533,-1.03606,-0.682998,-0.155765,-0.165355,-1.11367,-0.423732,-0.281516,-0.137675
35,25,-1.0472,-0.698132,-0.174533,-0.174533,-1.03606,-0.682998,-0.155765,-0.165355,-1.11367,-0.423732,-0.281516,-0.137675
35,25,-1.0472,-0.698132,-0.174533,-0.174533,-1.03606,-0.682998,-0.155765,-0.165355,-1.11367,-0.423732,-0.281516,-0.137675
35,25,-1.0472,-0.698132,-0.174533,-0.174533,-1.03606,-0.682998,-0.155765,-0.165355,-1.11367,-0.423732,-0.281516,-0.137675
35,25,-1.0472,-0.698132,-0.174533,-0.174533,-1.03606,-0.682998,-0.155765,-0.165355,-1.11367,-0.423732,-0.281516,-0.137675
35,25,-1.0472,-0.698132,-0.174533,-0.174533,-1.03606,-0.682998,-0.155765,-0.165355,-1.11367,-0.423732,-0.281516,-0.137675
35,25,-1.0472,-0.698132,-0.174533,-0.174533,-1.03606,-0.682998,-0.155765,-0.165355,-1.11367,-0.423732,-0.281516,-0.137675
35,25,-1.0472,-0.698132,-0.174533,-0.174533,-1.03606,-0.682998,-0.155765,-0.165355,-1.11367,-0.423732,-0.281516,-0.137675
35,25,-1.0472,-0.698132,-0.174533,-0.174533,-1.03606,-0.682998,-0.155765,-0.165355,-1.11367,-0.423732,-0.281516,-0.137675
35,25,-1.0472,-0.698132,-0.174533,-0.174533,-1.03606,-0.682998,-0.155765,-0.165355,-1.11367,-0.423732,-0.281516,-0.137675
35,25,-1.0472,-0.698132,-0.174533,-0.174533,-1.03606,-0.682998,-0.155765,-0.165355,-1.11367,-0.423732,-0.281516,-0.137675
35,25,-1.0472,-0.698132,-0.174533,-0.174533,-1.03606,-0.682998,-0.155765,-0.165355,-1.11367,-0.423732,-0.281516,-0.137675
35,25,-1.0472,-0.698132,-0.174533,-0.174533,-1.03606,-0.682998,-0.155765,-0.165355,-1.11367,-0.423732,-0.281516,-0.137675
35,25,-1.0472,-0.698132,-0.174533,-0.174533,-1.03606,-0.682998,-0.155765,-0.165355,-1.11367,-0.423732,-0.281516,-0.137675
35,25,-1.0472,-0.698132,-0.174533,-0.174533,-1.03606,-0.682998,-0.155765,-0.165355,-1.11367,-0.423732,-0.281516,-0.137675
35,25,-1.0472,-0.698132,-0.174533,-0.174533,-1.03606,-0.682998,-0.155825,-0.165335,-1.11367,-0.423732,-0.280626,-0.137974
35,25,-1.0472,-0.698132,-0.174533,-0.174533,-1.03606,-0.682998,-0.155825,-0.165335,-1.11367,-0.423732,-0.280626,-0.137974
35,25,-1.0472,-0.698132,-0.174533,-0.174533,-1.03606,-0.682998,-0.155825,-0.165335,-1.11367,-0.423732,-0.280626,-0.137974
35,25,-1.0472,-0.698132,-0.174533,-0.174533,-1.03606,-0.682998,-0.155825,-0.165335,-1.11367,-0.423732,-0.280626,-0.137974
35,25,-1.0472,-0.698132,-0.174533,-0.174533,-1.03606,-0.682998,-0.155825,-0.165335,-1.11367,-0.423732,-0.280626,-0.137974
35,25,-1.0472,-0.698132,-0.174533,-0.174533,-1.03606,-0.682998,-0.155825,-0.165335,-1.11367,-0.423732,-0.280626,-0.137974
35,25,-1.0472,-0.698132,-0.174533,-0.174533,-1.03606,-0.682998,-0.155825,-0.165335,-1.11367,-0.423732,-0.280626,-0.137974
35,25,-1.0472,-0.698132,-0.174533,-0.174533,-1.03606,-0.682998,-0.155825,-0.165335,-1.11367,-0.423732,-0.280626,-0.137974
35,25,-1.0472,-0.698132,-0.174533,-0.174533,-1.03606,-0.682998,-0.155825,-0.165335,-1.11367,-0.423732,-0.280626,-0.137974
35,25,-1.0472,-0.698132,-0.174533,-0.174533,-1.03606,-0.682998,-0.155825,-0.165335,-1.11367,-0.423732,-0.280626,-0.137974
35,25,-1.0472,-0.698132,-0.174533,-0.174533,-1.03606,-0.682998,-0.155825,-0.165335,-1.11367,-0.423732,-0.280626,-0.137974
35,25,-1.0472,-0.698132,-0.174533,-0.174533,-1.03606,-0.682998,-0.155825,-0.165335,-1.11367,-0.423732,-0.280626,-0.137974
35,25,-1.0472,-0.698132,-0.174533,-0.174533,-1.03606,-0.682998,-0.155825,-0.165335,-1.11367,-0.423732,-0.280626,-0.137974
35,25,-1.0472,-0.698132,-0.174533,-0.174533,-1.03606,-0.682998,-0.155825,-0.165335,-1.11367,-0.423732,-0.280626,-0.137974
35,25,-1.0472,-0.698132,-0.174533,-0.174533,-1.03606,-0.682998,-0.155825,-0.165335,-1.11367,-0.423732,-0.280626,-0.137974
35,25,-1.0472,-0.698132,-0.174533,-0.174533,-1.03606,-0.682998,-0.155825,-0.165335,-1.11367,-0.423732,-0.280626,-0.137974
35,25,-1.0472,-0.698132,-0.174533,-0.174533,-1.03606,-0.682998,-0.155825,-0.165335,-1.11367,-0.423732,-0.280626,-0.137974
35,25,-1.0472,-0.698132,-0.174533,-0.174533,-1.03606,-0.682998,-0.155825,-0.165335,-1.11367,-0.423732,-0.280626,-0.137974
35,25,-1.0472,-0.698132,-0.174533,-0.174533,-1.03606,-0.682998,-0.155825,-0.165335,-1.11367,-0.423732,-0.280626,-0.137974
35,25,-1.0472,-0.698132,-0.174533,-0.174533,-1.03606,-0.682998,-0.155825,-0.165335,-1.11367,-0.423732,-0.280626,-0.137974
35,25,-1.0472,-0.698132,-0.174533,-0.174533,-1.03606,-0.682998,-0.155825,-0.165335,-1.11367,-0.423732,-0.280626,-0.137974
35,25,-1.0472,-0.698132,-0.174533,-0.174533,-1.03606,-0.682998,-0.155825,-0.165335,-1.11367,-0.423732,-0.280626,-0.137974
35,25,-1.0472,-0.698132,-0.174533,-0.174533,-1.03606,-0.682998,-0.155825,-0.165335,-1.11367,-0.423732,-0.280626,-0.137974
35,25,-1.0472,-0.698132,-0.174533,-0.174533,-1.03606,-0.682998,-0.155884,-0.165315,-1.11367,-0.423732,-0.279737,-0.138272
35,25,-1.0472,-0.698132,-0.174533,-0.174533,-1.03606,-0.682998,-0.155884,-0.165315,-1.11367,-0.423732,-0.279737,-0.138272
35,25,-1.0472,-0.698132,-0.174533,-0.174533,-1.03606,-0.682998,-0.155884,-0.165315,-1.11367,-0.423732,-0.279737,-0.138272
35,25,-1.0472,-0.698132,-0.174533,-0.174533,-1.03606,-0.682998,-0.155884,-0.165315,-1.11367,-0.423732,-0.279737,-0.138272
35,25,-1.0472,-0.698132,-0.174533,-0.174533,-1.03606,-0.682998,-0.155884,-0.165315,-1.11367,-0.423732,-0.279737,-0.138272
35,25,-1.0472,-0.698132,-0.174533,-0.174533,-1.03606,-0.682998,-0.155884,-0.165315,-1.11367,-0.423732,-0.279737,-0.138272
35,25,-1.0472,-0.698132,-0.174533,-0.174533,-1.03606,-0.682998,-0.155884,-0.165315,-1.11367,-0.423732,-0.279737,-0.138272
35,25,-1.0472,-0.698132,-0.174533,-0.174533,-1.03606,-0.682998,-0.155882,-0.165255,-1.11367,-0.423732,-0.279766,-0.139167
35,25,-1.0472,-0.698132,-0.174533,-0.174533,-1.03606,-0.682998,-0.155882,-0.165255,-1.11367,-0.423732,-0.279766,-0.139167
35,25,-1.0472,-0.698132,-0.174533,-0.174533,-1.03606,-0.682998,-0.155882,-0.165255,-1.11367,-0.423732,-0.279766,-0.139167
35,25,-1.0472,-0.698132,-0.174533,-0.174533,-1.03606,-0.682998,-0.155882,-0.165255,-1.11367,-0.423732,-0.279766,-0.139167
35,25,-1.0472,-0.698132,-0.174533,-0.174533,-1.03606,-0.682998,-0.155882,-0.165255,-1.11367,-0.423732,-0.279766,-0.139167
35,25,-1.0472,-0.698132,-0.174533,-0.174533,-1.03606,-0.682998,-0.155882,-0.165255,-1.11367,-0.423732,-0.279766,-0.139167
35,25,-1.0472,-0.698132,-0.174533,-0.174533,-1.03606,-0.682998,-0.155882,-0.165255,-1.11367,-0.423732,-0.279766,-0.139167
35,25,-1.0472,-0.698132,-0.174533,-0.174533,-1.03606,-0.682998,-0.155882,-0.165255,-1.11367,-0.423732,-0.279766,-0.139167
35,25,-1.0472,-0.698132,-0.174533,-0.174533,-1.03606,-0.682998,-0.155882,-0.165255,-1.11367,-0.423732,-0.279766,-0.139167
35,25,-1.0472,-0.698132,-0.174533,-0.174533,-1.03606,-0.682998,-0.155882,-0.165255,-1.11367,-0.423732,-0.279766,-0.139167
35,25,-1.0472,-0.698132,-0.174533,-0.174533,-1.03606,-0.682998,-0.155882,-0.165255,-1.11367,-0.423732,-0.279766,-0.139167
35,25,-1.0472,-0.698132,-0.174533,-0.174533,-1.03606,-0.682998,-0.155882,-0.165255,-1.11367,-0.423732,-0.279766,-0.139167
35,25,-1.0472,-0.698132,-0.174533,-0.174533,-1.03606,-0.682998,-0.155882,-0.165255,-1.11367,-0.423732,-0.279766,-0.139167
35,25,-1.0472,-0.698132,-0.174533,-0.174533,-1.03606,-0.682998,-0.155882,-0.165255,-1.11367,-0.423732,-0.279766,-0.139167
35,25,-1.0472,-0.698132,-0.174533,-0.174533,-1.03606,-0.682998,-0.155882,-0.165255,-1.11367,-0.423732,-0.279766,-0.139167
35,25,-1.0472,-0.698132,-0.174533,-0.174533,-1.03606,-0.682998,-0.155882,-0.165255,-1.11367,-0.423732,-0.279766,-0.139167
35,25,-1.0472,-0.698132,-0.174533,-0.174533,-1.03606,-0.682998,-0.155882,-0.165255,-1.11367,-0.423732,-0.279766,-0.139167
35,25,-1.0472,-0.698132,-0.174533,-0.174533,-1.03606,-0.682998,-0.155882,-0.165255,-1.11367,-0.423732,-0.279766,-0.139167
35,25,-1.0472,-0.698132,-0.174533,-0.174533,-1.03606,-0.682998,-0.155882,-0.165255,-1.11367,-0.423732,-0.279766,-0.139167
35,25,-1.0472,-0.698132,-0.174533,-0.174533,-1.03606,-0.682998,-0.155882,-0.165255,-1.11367,-0.423732,-0.279766,-0.139167
35,25,-1.0472,-0.698132,-0.174533,-0.174533,-1.03606,-0.682998,-0.155882,-0.165255,-1.11367,-0.423732,-0.279766,-0.139167
35,25,-1.0472,-0.698132,-0.174533,-0.174533,-1.03606,-0.682998,-0.155882,-0.165255,-1.11367,-0.423732,-0.279766,-0.139167
35,25,-1.0472,-0.698132,-0.174533,-0.174533,-1.03606,-0.683049,-0.155882,-0.165255,-1.11367,-0.422308,-0.279766,-0.139167
35,25,-1.0472,-0.698132,-0.174533,-0.174533,-1.03606,-0.683049,-0.155882,-0.165255,-1.11367,-0.422308,-0.279766,-0.139167
35,25,-1.0472,-0.698132,-0.174533,-0.174533,-1.03606,-0.683049,-0.155882,-0.165255,-1.11367,-0.422308,-0.279766,-0.139167
35,25,-1.0472,-0.698132,-0.174533,-0.174533,-1.03606,-0.683049,-0.15588,-0.165195,-1.11367,-0.422308,-0.279795,-0.140062
35,25,-1.0472,-0.698132,-0.174533,-0.174533,-1.03606,-0.683049,-0.15588,-0.165195,-1.11367,-0.422308,-0.279795,-0.140062
35,25,-1.0472,-0.698132,-0.174533,-0.174533,-1.03606,-0.683049,-0.15588,-0.165195,-1.11367,-0.422308,-0.279795,-0.140062
35,25,-1.0472,-0.698132,-0.174533,-0.174533,-1.03606,-0.683049,-0.15588,-0.165195,-1.11367,-0.422308,-0.279795,-0.140062
35,25,-1.0472,-0.698132,-0.174533,-0.174533,-1.03606,-0.683049,-0.15588,-0.165195,-1.11367,-0.422308,-0.279795,-0.140062
35,25,-1.0472,-0.698132,-0.174533,-0.174533,-1.03606,-0.683049,-0.15588,-0.165195,-1.11367,-0.422308,-0.279795,-0.140062
35,25,-1.0472,-0.698132,-0.174533,-0.174533,-1.03606,-0.683049,-0.15588,-0.165195,-1.11367,-0.422308,-0.279795,-0.140062
35,25,-1.0472,-0.698132,-0.174533,-0.174533,-1.03606,-0.683049,-0.15588,-0.165195,-1.11367,-0.422308,-0.279795,-0.140062
35,25,-1.0472,-0.698132,-0.174533,-0.174533,-1.03606,-0.683049,-0.15588,-0.165195,-1.11367,-0.422308,-0.279795,-0.140062
35,25,-1.0472,-0.698132,-0.174533,-0.174533,-1.03606,-0.683049,-0.15588,-0.165195,-1.11367,-0.422308,-0.279795,-0.140062
35,25,-1.0472,-0.698132,-0.174533,-0.174533,-1.03606,-0.683049,-0.15588,-0.165195,-1.11367,-0.422308,-0.279795,-0.140062
35,25,-1.0472,-0.698132,-0.174533,-0.174533,-1.03606,-0.683049,-0.15588,-0.165195,-1.11367,-0.422308,-0.279795,-0.140062
35,25,-1.0472,-0.698132,-0.174533,-0.174533,-1.03606,-0.683049,-0.15588,-0.165195,-1.11367,-0.422308,-0.279795,-0.140062
35,25,-1.0472,-0.698132,-0.174533,-0.174533,-1.03606,-0.683049,-0.15588,-0.165195,-1.11367,-0.422308,-0.279795,-0.140062
35,25,-1.0472,-0.698132,-0.174533,-0.174533,-1.03606,-0.683049,-0.15588,-0.165195,-1.11367,-0.422308,-0.279795,-0.140062
35,25,-1.0472,-0.698132,-0.174533,-0.174533,-1.03606,-0.683049,-0.15588,-0.165195,-1.11367,-0.422308,-0.279795,-0.140062
35,25,-1.0472,-0.698132,-0.174533,-0.174533,-1.03606,-0.683049,-0.15588,-0.165195,-1.11367,-0.422308,-0.279795,-0.140062
35,25,-1.0472,-0.698132,-0.174533,-0.174533,-1.03606,-0.683049,-0.15588,-0.165195,-1.11367,-0.422308,-0.279795,-0.140062
35,25,-1.0472,-0.698132,-0.174533,-0.174533,-1.03606,-0.683049,-0.15588,-0.165195,-1.11367,-0.422308,-0.279795,-0.140062
35,25,-1.0472,-0.698132,-0.174533,-0.174533,-1.03606,-0.683049,-0.15588,-0.165195,-1.11367,-0.422308,-0.279795,-0.140062
35,25,-1.0472,-0.698132,-0.174533,-0.174533,-1.03606,-0.683049,-0.15588,-0.165195,-1.11367,-0.422308,-0.279795,-0.140062
35,25,-1.0472,-0.698132,-0.174533,-0.174533,-1.03606,-0.683049,-0.15588,-0.165195,-1.11367,-0.422308,-0.279795,-0.140062
35,25,-1.0472,-0.698132,-0.174533,-0.174533,-1.03606,-0.683049,-0.15588,-0.165195,-1.11367,-0.422308,-0.279795,-0.140062
35,25,-1.0472,-0.698132,-0.174533,-0.174533,-1.03606,-0.683049,-0.15588,-0.165195,-1.11367,-0.422308,-0.279795,-0.140062
35,25,-1.0472,-0.698132,-0.174533,-0.174533,-1.03606,-0.683049,-0.15588,-0.165195,-1.11367,-0.422308,-0.279795,-0.140062
35,25,-1.0472,-0.698132,-0.174533,-0.174533,-1.03606,-0.683049,-0.15588,-0.165195,-1.11367,-0.422308,-0.279795,-0.140062
35,25,-1.0472,-0.698132,-0.174533,-0.174533,-1.03606,-0.683049,-0.15588,-0.165195,-1.11367,-0.422308,-0.279795,-0.140062
35,25,-1.0472,-0.698132,-0.174533,-0.174533,-1.03606,-0.683049,-0.15588,-0.165195,-1.11367,-0.422308,-0.279795,-0.140062
35,25,-1.0472,-0.698132,-0.174533,-0.174533,-1.03606,-0.683049,-0.15588,-0.165195,-1.11367,-0.422308,-0.279795,-0.140062
35,25,-1.0472,-0.698132,-0.174533,-0.174533,-1.03606,-0.683049,-0.15588,-0.165195,-1.11367,-0.422308,-0.279795,-0.140062
35,25,-1.0472,-0.698132,-0.174533,-0.174533,-1.03606,-0.683049,-0.15588,-0.165195,-1.11367,-0.422308,-0.279795,-0.140062
35,25,-1.0472,-0.698132,-0.174533,-0.174533,-1.03606,-0.683049,-0.15588,-0.165195,-1.11367,-0.422308,-0.279795,-0.140062
35,25,-1.0472,-0.698132,-0.174533,-0.174533,-1.03606,-0.683049,-0.15588,-0.165195,-1.11367,-0.422308,-0.279795,-0.140062
35,25,-1.0472,-0.698132,-0.174533,-0.174533,-1.03606,-0.683049,-0.15588,-0.165195,-1.11367,-0.422308,-0.279795,-0.140062
35,25,-1.0472,-0.698132,-0.174533,-0.174533,-1.03606,-0.683049,-0.15588,-0.165195,-1.11367,-0.422308,-0.279795,-0.140062
35,25,-1.0472,-0.698132,-0.174533,-0.174533,-1.03606,-0.683049,-0.15588,-0.165195,-1.11367,-0.422308,-0.279795,-0.140062
35,25,-1.0472,-0.698132,-0.174533,-0.174533,-1.03606,-0.683049,-0.15588,-0.165195,-1.11367,-0.422308,-0.279795,-0.140062
35,25,-1.0472,-0.698132,-0.174533,-0.174533,-1.03606,-0.683049,-0.15588,-0.165195,-1.11367,-0.422308,-0.279795,-0.140062
35,25,-1.0472,-0.698132,-0.174533,-0.174533,-1.03606,-0.683049,-0.15588,-0.165195,-1.11367,-0.422308,-0.279795,-0.140062
35,25,-1.0472,-0.698132,-0.174533,-0.174533,-1.03606,-0.683049,-0.15588,-0.165195,-1.11367,-0.422308,-0.279795,-0.140062
35,25,-1.0472,-0.698132,-0.174533,-0.174533,-1.03606,-0.683049,-0.15588,-0.165195,-1.11367,-0.422308,-0.279795,-0.140062
35,25,-1.0472,-0.698132,-0.174533,-0.174533,-1.03606,-0.683049,-0.15588,-0.165195,-1.11367,-0.422308,-0.279795,-0.140062
35,25,-1.0472,-0.698132,-0.174533,-0.174533,-1.03606,-0.683049,-0.15588,-0.165195,-1.11367,-0.422308,-0.279795,-0.140062
35,25,-1.0472,-0.698132,-0.174533,-0.174533,-1.03606,-0.683049,-0.15588,-0.165195,-1.11367,-0.422308,-0.279795,-0.140062
35,25,-1.0472,-0.698132,-0.174533,-0.174533,-1.03606,-0.683049,-0.15588,-0.165195,-1.11367,-0.422308,-0.279795,-0.140062
35,25,-1.0472,-0.698132,-0.174533,-0.174533,-1.03606,-0.683049,-0.15588,-0.165195,-1.11367,-0.422308,-0.279795,-0.140062
35,25,-1.0472,-0.698132,-0.174533,-0.174533,-1.03606,-0.683049,-0.15588,-0.165195,-1.11367,-0.422308,-0.279795,-0.140062
35,25,-1.0472,-0.698132,-0.174533,-0.174533,-1.03606,-0.683049,-0.15588,-0.165195,-1.11367,-0.422308,-0.279795,-0.140062
35,25,-1.0472,-0.698132,-0.174533,-0.174533,-1.03606,-0.683049,-0.15588,-0.165195,-1.11367,-0.422308,-0.279795,-0.140062
35,25,-1.0472,-0.698132,-0.174533,-0.174533,-1.03606,-0.683049,-0.15588,-0.165195,-1.11367,-0.422308,-0.279795,-0.140062
35,25,-1.0472,-0.698132,-0.174533,-0.174533,-1.03606,-0.683049,-0.15588,-0.165195,-1.11367,-0.422308,-0.279795,-0.140062
35,25,-1.0472,-0.698132,-0.174533,-0.174533,-1.03606,-0.683049,-0.15588,-0.165195,-1.11367,-0.422308,-0.279795,-0.140062
35,25,-1.0472,-0.698132,-0.174533,-0.174533,-1.03606,-0.683049,-0.15588,-0.165195,-1.11367,-0.422308,-0.279795,-0.140062
35,25,-1.0472,-0.698132,-0.174533,-0.174533,-1.03606,-0.683049,-0.15588,-0.165195,-1.11367,-0.422308,-0.279795,-0.140062
35,25,-1.0472,-0.698132,-0.174533,-0.174533,-1.03606,-0.683049,-0.15588,-0.165195,-1.11367,-0.422308,-0.279795,-0.140062
35,25,-1.0472,-0.698132,-0.174533,-0.174533,-1.03606,-0.683049,-0.15588,-0.165195,-1.11367,-0.422308,-0.279795,-0.140062
35,25,-1.0472,-0.698132,-0.174533,-0.174533,-1.03606,-0.683049,-0.15588,-0.165195,-1.11367,-0.422308,-0.279795,-0.140062
35,25,-1.0472,-0.698132,-0.174533,-0.174533,-1.03606,-0.683049,-0.15588,-0.165195,-1.11367,-0.422308,-0.279795,-0.140062
35,25,-1.0472,-0.698132,-0.174533,-0.174533,-1.03606,-0.683049,-0.15588,-0.165195,-1.11367,-0.422308,-0.279795,-0.140062
35,25,-1.0472,-0.698132,-0.174533,-0.174533,-1.03606,-0.683049,-0.15588,-0.165195,-1.11367,-0.422308,-0.279795,-0.140062
35,25,-1.0472,-0.698132,-0.174533,-0.174533,-1.03606,-0.683049,-0.15588,-0.165195,-1.11367,-0.422308,-0.279795,-0.140062
35,25,-1.0472,-0.698132,-0.174533,-0.174533,-1.03606,-0.683049,-0.15588,-0.165195,-1.11367,-0.422308,-0.279795,-0.140062
35,25,-1.0472,-0.698132,-0.174533,-0.174533,-1.03606,-0.683049,-0.15588,-0.165195,-1.11367,-0.422308,-0.279795,-0.140062
35,25,-1.0472,-0.698132,-0.174533,-0.174533,-1.03606,-0.683049,-0.15588,-0.165195,-1.11367,-0.422308,-0.279795,-0.140062
35,25,-1.0472,-0.698132,-0.174533,-0.174533,-1.03606,-0.683049,-0.15588,-0.165195,-1.11367,-0.422308,-0.279795,-0.140062
35,25,-1.0472,-0.698132,-0.174533,-0.174533,-1.03606,-0.683049,-0.15588,-0.165195,-1.11367,-0.422308,-0.279795,-0.140062
35,25,-1.0472,-0.698132,-0.174533,-0.174533,-1.03606,-0.683049,-0.15588,-0.165195,-1.11367,-0.422308,-0.279795,-0.140062
35,25,-1.0472,-0.698132,-0.174533,-0.174533,-1.03606,-0.683049,-0.15588,-0.165195,-1.11367,-0.422308,-0.279795,-0.140062
35,25,-1.0472,-0.698132,-0.174533,-0.174533,-1.03606,-0.683049,-0.15588,-0.165195,-1.11367,-0.422308,-0.279795,-0.140062
35,25,-1.0472,-0.698132,-0.174533,-0.174533,-1.03606,-0.683049,-0.15588,-0.165195,-1.11367,-0.422308,-0.279795,-0.140062
35,25,-1.0472,-0.698132,-0.174533,-0.174533,-1.03606,-0.683049,-0.15588,-0.165195,-1.11367,-0.422308,-0.279795,-0.140062
35,25,-1.0472,-0.698132,-0.174533,-0.174533,-1.03606,-0.683049,-0.15588,-0.165195,-1.11367,-0.422308,-0.279795,-0.140062
35,25,-1.0472,-0.698132,-0.174533,-0.174533,-1.03606,-0.683049,-0.15588,-0.165195,-1.11367,-0.422308,-0.279795,-0.140062
35,25,-1.0472,-0.698132,-0.174533,-0.174533,-1.03606,-0.683049,-0.155943,-0.165237,-1.11367,-0.422308,-0.278842,-0.13944
35,25,-1.0472,-0.698132,-0.174533,-0.174533,-1.03606,-0.683049,-0.155943,-0.165237,-1.11367,-0.422308,-0.278842,-0.13944
35,25,-1.0472,-0.698132,-0.174533,-0.174533,-1.03606,-0.683049,-0.155943,-0.165237,-1.11367,-0.422308,-0.278842,-0.13944
35,25,-1.0472,-0.698132,-0.174533,-0.174533,-1.03606,-0.683049,-0.155943,-0.165237,-1.11367,-0.422308,-0.278842,-0.13944
35,25,-1.0472,-0.698132,-0.174533,-0.174533,-1.03606,-0.683049,-0.155943,-0.165237,-1.11367,-0.422308,-0.278842,-0.13944
35,25,-1.0472,-0.698132,-0.174533,-0.174533,-1.03606,-0.683049,-0.155943,-0.165237,-1.11367,-0.422308,-0.278842,-0.13944
35,25,-1.0472,-0.698132,-0.174533,-0.174533,-1.03606,-0.683049,-0.155943,-0.165237,-1.11367,-0.422308,-0.278842,-0.13944
35,25,-1.0472,-0.698132,-0.174533,-0.174533,-1.03606,-0.683049,-0.155943,-0.165237,-1.11367,-0.422308,-0.278842,-0.13944
35,25,-1.0472,-0.698132,-0.174533,-0.174533,-1.03606,-0.683049,-0.155943,-0.165237,-1.11367,-0.422308,-0.278842,-0.13944
35,25,-1.0472,-0.698132,-0.174533,-0.174533,-1.03606,-0.683049,-0.155943,-0.165237,-1.11367,-0.422308,-0.278842,-0.13944
35,25,-1.0472,-0.698132,-0.174533,-0.174533,-1.03606,-0.683049,-0.155943,-0.165237,-1.11367,-0.422308,-0.278842,-0.13944
35,25,-1.0472,-0.698132,-0.174533,-0.174533,-1.03606,-0.683049,-0.155943,-0.165237,-1.11367,-0.422308,-0.278842,-0.13944
35,25,-1.0472,-0.698132,-0.174533,-0.174533,-1.03606,-0.683049,-0.156007,-0.165278,-1.11367,-0.422308,-0.277889,-0.138818
35,25,-1.0472,-0.698132,-0.174533,-0.174533,-1.03606,-0.683049,-0.156007,-0.165278,-1.11367,-0.422308,-0.277889,-0.138818
35,25,-1.0472,-0.698132,-0.174533,-0.174533,-1.03606,-0.683049,-0.156007,-0.165278,-1.11367,-0.422308,-0.277889,-0.138818
35,25,-1.0472,-0.698132,-0.174533,-0.174533,-1.03606,-0.683049,-0.156007,-0.165278,-1.11367,-0.422308,-0.277889,-0.138818
35,25,-1.0472,-0.698132,-0.174533,-0.174533,-1.03606,-0.683049,-0.156007,-0.165278,-1.11367,-0.422308,-0.277889,-0.138818
35,25,-1.0472,-0.698132,-0.174533,-0.174533,-1.03606,-0.683049,-0.156007,-0.165278,-1.11367,-0.422308,-0.277889,-0.138818
35,25,-1.0472,-0.698132,-0.174533,-0.174533,-1.03606,-0.683049,-0.156071,-0.16532,-1.11367,-0.422308,-0.276936,-0.138196
35,25,-1.0472,-0.698132,-0.174533,-0.174533,-1.03606,-0.683049,-0.156071,-0.16532,-1.11367,-0.422308,-0.276936,-0.138196
35,25,-1.0472,-0.698132,-0.174533,-0.174533,-1.03606,-0.683049,-0.156071,-0.16532,-1.11367,-0.422308,-0.276936,-0.138196
35,25,-1.0472,-0.698132,-0.174533,-0.174533,-1.03606,-0.683049,-0.156071,-0.16532,-1.11367,-0.422308,-0.276936,-0.138196
35,25,-1.0472,-0.698132,-0.174533,-0.174533,-1.03606,-0.683049,-0.156071,-0.16532,-1.11367,-0.422308,-0.276936,-0.138196
35,25,-1.0472,-0.698132,-0.174533,-0.174533,-1.03606,-0.683049,-0.156134,-0.165361,-1.11367,-0.422308,-0.275982,-0.137575
35,25,-1.0472,-0.698132,-0.174533,-0.174533,-1.03606,-0.683049,-0.156134,-0.165361,-1.11367,-0.422308,-0.275982,-0.137575
35,25,-1.0472,-0.698132,-0.174533,-0.174533,-1.03606,-0.683049,-0.156134,-0.165361,-1.11367,-0.422308,-0.275982,-0.137575
35,25,-1.0472,-0.698132,-0.174533,-0.174533,-1.03606,-0.683049,-0.156134,-0.165361,-1.11367,-0.422308,-0.275982,-0.137575
35,25,-1.0472,-0.698132,-0.174533,-0.174533,-1.03606,-0.683049,-0.156134,-0.165361,-1.11367,-0.422308,-0.275982,-0.137575
35,25,-1.0472,-0.698132,-0.174533,-0.174533,-1.03606,-0.683049,-0.156198,-0.165403,-1.11367,-0.422308,-0.274937,-0.136893
35,25,-1.0472,-0.698132,-0.174533,-0.174533,-1.03606,-0.683049,-0.156198,-0.165403,-1.11367,-0.422308,-0.274937,-0.136893
35,25,-1.0472,-0.698132,-0.174533,-0.174533,-1.03606,-0.683049,-0.156198,-0.165403,-1.11367,-0.422308,-0.274937,-0.136893
35,25,-1.0472,-0.698132,-0.174533,-0.174533,-1.03606,-0.683049,-0.156198,-0.165403,-1.11367,-0.422308,-0.274937,-0.136893
35,25,-1.0472,-0.698132,-0.174533,-0.174533,-1.03606,-0.6831,-0.156198,-0.165403,-1.11367,-0.420885,-0.274937,-0.136893
35,25,-1.0472,-0.698132,-0.174533,-0.174533,-1.03606,-0.6831,-0.156261,-0.165444,-1.11367,-0.420885,-0.273952,-0.13625
35,25,-1.0472,-0.698132,-0.174533,-0.174533,-1.03606,-0.6831,-0.156261,-0.165444,-1.11367,-0.420885,-0.273952,-0.13625
35,25,-1.0472,-0.698132,-0.174533,-0.174533,-1.03606,-0.6831,-0.156261,-0.165444,-1.11367,-0.420885,-0.273952,-0.13625
35,25,-1.0472,-0.698132,-0.174533,-0.174533,-1.03606,-0.6831,-0.156261,-0.165444,-1.11367,-0.420885,-0.273952,-0.13625
35,25,-1.0472,-0.698132,-0.174533,-0.174533,-1.03606,-0.6831,-0.156325,-0.165486,-1.11367,-0.420885,-0.272984,-0.135619
35,25,-1.0472,-0.698132,-0.174533,-0.174533,-1.03606,-0.6831,-0.156325,-0.165486,-1.11367,-0.420885,-0.272984,-0.135619
35,25,-1.0472,-0.698132,-0.174533,-0.174533,-1.03606,-0.6831,-0.156325,-0.165486,-1.11367,-0.420885,-0.272984,-0.135619
35,25,-1.0472,-0.698132,-0.174533,-0.174533,-1.03606,-0.6831,-0.156388,-0.165527,-1.11367,-0.420885,-0.272014,-0.134986
35,25,-1.0472,-0.698132,-0.174533,-0.174533,-1.03606,-0.6831,-0.156388,-0.165527,-1.11367,-0.420885,-0.272014,-0.134986
35,25,-1.0472,-0.698132,-0.174533,-0.174533,-1.03606,-0.6831,-0.156388,-0.165527,-1.11367,-0.420885,-0.272014,-0.134986
35,25,-1.0472,-0.698132,-0.174533,-0.174533,-1.03606,-0.6831,-0.156452,-0.165569,-1.11367,-0.420885,-0.271042,-0.134352
35,25,-1.0472,-0.698132,-0.174533,-0.174533,-1.03606,-0.6831,-0.156452,-0.165569,-1.11367,-0.420885,-0.271042,-0.134352
35,25,-1.0472,-0.698132,-0.174533,-0.174533,-1.03606,-0.6831,-0.156452,-0.165569,-1.11367,-0.420885,-0.271042,-0.134352
35,25,-1.0472,-0.698132,-0.174533,-0.174533,-1.03606,-0.6831,-0.156516,-0.16561,-1.11367,-0.420885,-0.270062,-0.133713
35,25,-1.0472,-0.698132,-0.174533,-0.174533,-1.03606,-0.6831,-0.156516,-0.16561,-1.11367,-0.420885,-0.270062,-0.133713
35,25,-1.0472,-0.698132,-0.174533,-0.174533,-1.03606,-0.6831,-0.156516,-0.16561,-1.11367,-0.420885,-0.270062,-0.133713
35,25,-1.0472,-0.698132,-0.174533,-0.174533,-1.03606,-0.6831,-0.156516,-0.16561,-1.11367,-0.420885,-0.270062,-0.133713
35,25,-1.0472,-0.698132,-0.174533,-0.174533,-1.03606,-0.6831,-0.156516,-0.16561,-1.11367,-0.420885,-0.270062,-0.133713
35,25,-1.0472,-0.698132,-0.174533,-0.174533,-1.03606,-0.6831,-0.156579,-0.165652,-1.11367,-0.420885,-0.269123,-0.133101
35,25,-1.0472,-0.698132,-0.174533,-0.174533,-1.03606,-0.6831,-0.156579,-0.165652,-1.11367,-0.420885,-0.269123,-0.133101
35,25,-1.0472,-0.698132,-0.174533,-0.174533,-1.03606,-0.6831,-0.156579,-0.165652,-1.11367,-0.420885,-0.269123,-0.133101
35,25,-1.0472,-0.698132,-0.174533,-0.174533,-1.03606,-0.6831,-0.156579,-0.165652,-1.11367,-0.420885,-0.269123,-0.133101
35,25,-1.0472,-0.698132,-0.174533,-0.174533,-1.03606,-0.6831,-0.156579,-0.165652,-1.11367,-0.420885,-0.269123,-0.133101
35,25,-1.0472,-0.698132,-0.174533,-0.174533,-1.03606,-0.6831,-0.156579,-0.165652,-1.11367,-0.420885,-0.269123,-0.133101
35,25,-1.0472,-0.698132,-0.174533,-0.174533,-1.03606,-0.6831,-0.156643,-0.165693,-1.11367,-0.420885,-0.268208,-0.132504
35,25,-1.0472,-0.698132,-0.174533,-0.174533,-1.03606,-0.6831,-0.156643,-0.165693,-1.11367,-0.420885,-0.268208,-0.132504
35,25,-1.0472,-0.698132,-0.174533,-0.174533,-1.03606,-0.6831,-0.156643,-0.165693,-1.11367,-0.420885,-0.268208,-0.132504
35,25,-1.0472,-0.698132,-0.174533,-0.174533,-1.03606,-0.6831,-0.156643,-0.165693,-1.11367,-0.420885,-0.268208,-0.132504
35,25,-1.0472,-0.698132,-0.174533,-0.174533,-1.03606,-0.6831,-0.156643,-0.165693,-1.11367,-0.420885,-0.268208,-0.132504
35,25,-1.0472,-0.698132,-0.174533,-0.174533,-1.03606,-0.6831,-0.156706,-0.165735,-1.11367,-0.420885,-0.267268,-0.131891
35,25,-1.0472,-0.698132,-0.174533,-0.174533,-1.03606,-0.6831,-0.156706,-0.165735,-1.11367,-0.420885,-0.267268,-0.131891
35,25,-1.0472,-0.698132,-0.174533,-0.174533,-1.03606,-0.6831,-0.156706,-0.165735,-1.11367,-0.420885,-0.267268,-0.131891
35,25,-1.0472,-0.698132,-0.174533,-0.174533,-1.03606,-0.6831,-0.156706,-0.165735,-1.11367,-0.420885,-0.267268,-0.131891
35,25,-1.0472,-0.698132,-0.174533,-0.174533,-1.03606,-0.6831,-0.156706,-0.165735,-1.11367,-0.420885,-0.267268,-0.131891
35,25,-1.0472,-0.698132,-0.174533,-0.174533,-1.03606,-0.6831,-0.156706,-0.165735,-1.11367,-0.420885,-0.267268,-0.131891
35,25,-1.0472,-0.698132,-0.174533,-0.174533,-1.03606,-0.6831,-0.156706,-0.165735,-1.11367,-0.420885,-0.267268,-0.131891
35,25,-1.0472,-0.698132,-0.174533,-0.174533,-1.03606,-0.6831,-0.156706,-0.165735,-1.11367,-0.420885,-0.267268,-0.131891
35,25,-1.0472,-0.698132,-0.174533,-0.174533,-1.03606,-0.6831,-0.156706,-0.165735,-1.11367,-0.420885,-0.267268,-0.131891
35,25,-1.0472,-0.698132,-0.174533,-0.174533,-1.03606,-0.6831,-0.15677,-0.165776,-1.11367,-0.420885,-0.266343,-0.131288
35,25,-1.0472,-0.698132,-0.174533,-0.174533,-1.03606,-0.6831,-0.15677,-0.165776,-1.11367,-0.420885,-0.266343,-0.131288
35,25,-1.0472,-0.698132,-0.174533,-0.174533,-1.03606,-0.6831,-0.15677,-0.165776,-1.11367,-0.420885,-0.266343,-0.131288
35,25,-1.0472,-0.698132,-0.174533,-0.174533,-1.03606,-0.6831,-0.15677,-0.165776,-1.11367,-0.420885,-0.266343,-0.131288
35,25,-1.0472,-0.698132,-0.174533,-0.174533,-1.03606,-0.6831,-0.15677,-0.165776,-1.11367,-0.420885,-0.266343,-0.131288
35,25,-1.0472,-0.698132,-0.174533,-0.174533,-1.03606,-0.6831,-0.15677,-0.165776,-1.11367,-0.420885,-0.266343,-0.131288
35,25,-1.0472,-0.698132,-0.174533,-0.174533,-1.03606,-0.6831,-0.15677,-0.165776,-1.11367,-0.420885,-0.266343,-0.131288
35,25,-1.0472,-0.698132,-0.174533,-0.174533,-1.03606,-0.6831,-0.15677,-0.165776,-1.11367,-0.420885,-0.266343,-0.131288
35,25,-1.0472,-0.698132,-0.174533,-0.174533,-1.03606,-0.6831,-0.15677,-0.165776,-1.11367,-0.420885,-0.266343,-0.131288
35,25,-1.0472,-0.698132,-0.174533,-0.174533,-1.03606,-0.683151,-0.15677,-0.165776,-1.11367,-0.419461,-0.266343,-0.131288
35,25,-1.0472,-0.698132,-0.174533,-0.174533,-1.03606,-0.683151,-0.156834,-0.165818,-1.11367,-0.419461,-0.265405,-0.130677
35,25,-1.0472,-0.698132,-0.174533,-0.174533,-1.03606,-0.683151,-0.156834,-0.165818,-1.11367,-0.419461,-0.265405,-0.130677
35,25,-1.0472,-0.698132,-0.174533,-0.174533,-1.03606,-0.683151,-0.156834,-0.165818,-1.11367,-0.419461,-0.265405,-0.130677
35,25,-1.0472,-0.698132,-0.174533,-0.174533,-1.03606,-0.683151,-0.156834,-0.165818,-1.11367,-0.419461,-0.265405,-0.130677
35,25,-1.0472,-0.698132,-0.174533,-0.174533,-1.03606,-0.683151,-0.156834,-0.165818,-1.11367,-0.419461,-0.265405,-0.130677
35,25,-1.0472,-0.698132,-0.174533,-0.174533,-1.03606,-0.683151,-0.156834,-0.165818,-1.11367,-0.419461,-0.265405,-0.130677
35,25,-1.0472,-0.698132,-0.174533,-0.174533,-1.03606,-0.683151,-0.156834,-0.165818,-1.11367,-0.419461,-0.265405,-0.130677
35,25,-1.0472,-0.698132,-0.174533,-0.174533,-1.03606,-0.683151,-0.156834,-0.165818,-1.11367,-0.419461,-0.265405,-0.130677
35,25,-1.0472,-0.698132,-0.174533,-0.174533,-1.03606,-0.683151,-0.156834,-0.165818,-1.11367,-0.419461,-0.265405,-0.130677
35,25,-1.0472,-0.698132,-0.174533,-0.174533,-1.03606,-0.683151,-0.156834,-0.165818,-1.11367,-0.419461,-0.265405,-0.130677
35,25,-1.0472,-0.698132,-0.174533,-0.174533,-1.03606,-0.683151,-0.156834,-0.165818,-1.11367,-0.419461,-0.265405,-0.130677
35,25,-1.0472,-0.698132,-0.174533,-0.174533,-1.03606,-0.683151,-0.156834,-0.165818,-1.11367,-0.419461,-0.265405,-0.130677
35,25,-1.0472,-0.698132,-0.174533,-0.174533,-1.03606,-0.683151,-0.156834,-0.165818,-1.11367,-0.419461,-0.265405,-0.130677
35,25,-1.0472,-0.698132,-0.174533,-0.174533,-1.03606,-0.683151,-0.156834,-0.165818,-1.11367,-0.419461,-0.265405,-0.130677
35,25,-1.0472,-0.698132,-0.174533,-0.174533,-1.03606,-0.683151,-0.156834,-0.165818,-1.11367,-0.419461,-0.265405,-0.130677
35,25,-1.0472,-0.698132,-0.174533,-0.174533,-1.03606,-0.683151,-0.156897,-0.165859,-1.11367,-0.419461,-0.264468,-0.130065
35,25,-1.0472,-0.698132,-0.174533,-0.174533,-1.03606,-0.683151,-0.156897,-0.165859,-1.11367,-0.419461,-0.264468,-0.130065
35,25,-1.0472,-0.698132,-0.174533,-0.174533,-1.03606,-0.683151,-0.156897,-0.165859,-1.11367,-0.419461,-0.264468,-0.130065
35,25,-1.0472,-0.698132,-0.174533,-0.174533,-1.03606,-0.683151,-0.156897,-0.165859,-1.11367,-0.419461,-0.264468,-0.130065
35,25,-1.0472,-0.698132,-0.174533,-0.174533,-1.03606,-0.683151,-0.156897,-0.165859,-1.11367,-0.419461,-0.264468,-0.130065
35,25,-1.0472,-0.698132,-0.174533,-0.174533,-1.03606,-0.683151,-0.156897,-0.165859,-1.11367,-0.419461,-0.264468,-0.130065
35,25,-1.0472,-0.698132,-0.174533,-0.174533,-1.03606,-0.683151,-0.156897,-0.165859,-1.11367,-0.419461,-0.264468,-0.130065
35,25,-1.0472,-0.698132,-0.174533,-0.174533,-1.03606,-0.683151,-0.156897,-0.165859,-1.11367,-0.419461,-0.264468,-0.130065
35,25,-1.0472,-0.698132,-0.174533,-0.174533,-1.03606,-0.683151,-0.156961,-0.165901,-1.11367,-0.419461,-0.263518,-0.129446
35,25,-1.0472,-0.698132,-0.174533,-0.174533,-1.03606,-0.683151,-0.156961,-0.165901,-1.11367,-0.419461,-0.263518,-0.129446
35,25,-1.0472,-0.698132,-0.174533,-0.174533,-1.03606,-0.683151,-0.156961,-0.165901,-1.11367,-0.419461,-0.263518,-0.129446
35,25,-1.0472,-0.698132,-0.174533,-0.174533,-1.03606,-0.683151,-0.156961,-0.165901,-1.11367,-0.419461,-0.263518,-0.129446
35,25,-1.0472,-0.698132,-0.174533,-0.174533,-1.03606,-0.683151,-0.156961,-0.165901,-1.11367,-0.419461,-0.263518,-0.129446
35,25,-1.0472,-0.698132,-0.174533,-0.174533,-1.03606,-0.683151,-0.156961,-0.165901,-1.11367,-0.419461,-0.263518,-0.129446
35,25,-1.0472,-0.698132,-0.174533,-0.174533,-1.03606,-0.683151,-0.156961,-0.165901,-1.11367,-0.419461,-0.263518,-0.129446
35,25,-1.0472,-0.698132,-0.174533,-0.174533,-1.03606,-0.683151,-0.156961,-0.165901,-1.11367,-0.419461,-0.263518,-0.129446
35,25,-1.0472,-0.698132,-0.174533,-0.174533,-1.03606,-0.683151,-0.156961,-0.165901,-1.11367,-0.419461,-0.263518,-0.129446
35,25,-1.0472,-0.698132,-0.174533,-0.174533,-1.03606,-0.683151,-0.156961,-0.165901,-1.11367,-0.419461,-0.263518,-0.129446
35,25,-1.0472,-0.698132,-0.174533,-0.174533,-1.03606,-0.683151,-0.156961,-0.165901,-1.11367,-0.419461,-0.263518,-0.129446
35,25,-1.0472,-0.698132,-0.174533,-0.174533,-1.03606,-0.683151,-0.156961,-0.165901,-1.11367,-0.419461,-0.263518,-0.129446
35,25,-1.0472,-0.698132,-0.174533,-0.174533,-1.03606,-0.683202,-0.156961,-0.165901,-1.11367,-0.418038,-0.263518,-0.129446
35,25,-1.0472,-0.698132,-0.174533,-0.174533,-1.03606,-0.683202,-0.156961,-0.165901,-1.11367,-0.418038,-0.263518,-0.129446
35,25,-1.0472,-0.698132,-0.174533,-0.174533,-1.03606,-0.683202,-0.156961,-0.165901,-1.11367,-0.418038,-0.263518,-0.129446
35,25,-1.0472,-0.698132,-0.174533,-0.174533,-1.03606,-0.683202,-0.157025,-0.165942,-1.11367,-0.418038,-0.262572,-0.128829
35,25,-1.0472,-0.698132,-0.174533,-0.174533,-1.03606,-0.683202,-0.157025,-0.165942,-1.11367,-0.418038,-0.262572,-0.128829
35,25,-1.0472,-0.698132,-0.174533,-0.174533,-1.03606,-0.683202,-0.157025,-0.165942,-1.11367,-0.418038,-0.262572,-0.128829
35,25,-1.0472,-0.698132,-0.174533,-0.174533,-1.03606,-0.683202,-0.157025,-0.165942,-1.11367,-0.418038,-0.262572,-0.128829
35,25,-1.0472,-0.698132,-0.174533,-0.174533,-1.03606,-0.683202,-0.157025,-0.165942,-1.11367,-0.418038,-0.262572,-0.128829
35,25,-1.0472,-0.698132,-0.174533,-0.174533,-1.03606,-0.683202,-0.157025,-0.165942,-1.11367,-0.418038,-0.262572,-0.128829
35,25,-1.0472,-0.698132,-0.174533,-0.174533,-1.03606,-0.683202,-0.157025,-0.165942,-1.11367,-0.418038,-0.262572,-0.128829
35,25,-1.0472,-0.698132,-0.174533,-0.174533,-1.03606,-0.683202,-0.157025,-0.165942,-1.11367,-0.418038,-0.262572,-0.128829
35,25,-1.0472,-0.698132,-0.174533,-0.174533,-1.03606,-0.683202,-0.157025,-0.165942,-1.11367,-0.418038,-0.262572,-0.128829
35,25,-1.0472,-0.698132,-0.174533,-0.174533,-1.03606,-0.683202,-0.157025,-0.165942,-1.11367,-0.418038,-0.262572,-0.128829
35,25,-1.0472,-0.698132,-0.174533,-0.174533,-1.03606,-0.683202,-0.157025,-0.165942,-1.11367,-0.418038,-0.262572,-0.128829
35,25,-1.0472,-0.698132,-0.174533,-0.174533,-1.03606,-0.683202,-0.157025,-0.165942,-1.11367,-0.418038,-0.262572,-0.128829
35,25,-1.0472,-0.698132,-0.174533,-0.174533,-1.03606,-0.683202,-0.157025,-0.165942,-1.11367,-0.418038,-0.262572,-0.128829
35,25,-1.0472,-0.698132,-0.174533,-0.174533,-1.03606,-0.683202,-0.157025,-0.165942,-1.11367,-0.418038,-0.262572,-0.128829
35,25,-1.0472,-0.698132,-0.174533,-0.174533,-1.03606,-0.683202,-0.157023,-0.165882,-1.11367,-0.418038,-0.262602,-0.129724
35,25,-1.0472,-0.698132,-0.174533,-0.174533,-1.03606,-0.683202,-0.157023,-0.165882,-1.11367,-0.418038,-0.262602,-0.129724
35,25,-1.0472,-0.698132,-0.174533,-0.174533,-1.03606,-0.683202,-0.157023,-0.165882,-1.11367,-0.418038,-0.262602,-0.129724
35,25,-1.0472,-0.698132,-0.174533,-0.174533,-1.03606,-0.683202,-0.157023,-0.165882,-1.11367,-0.418038,-0.262602,-0.129724
35,25,-1.0472,-0.698132,-0.174533,-0.174533,-1.03606,-0.683202,-0.157023,-0.165882,-1.11367,-0.418038,-0.262602,-0.129724
35,25,-1.0472,-0.698132,-0.174533,-0.174533,-1.03606,-0.683202,-0.157023,-0.165882,-1.11367,-0.418038,-0.262602,-0.129724
35,25,-1.0472,-0.698132,-0.174533,-0.174533,-1.03606,-0.683202,-0.157023,-0.165882,-1.11367,-0.418038,-0.262602,-0.129724
35,25,-1.0472,-0.698132,-0.174533,-0.174533,-1.03606,-0.683202,-0.157023,-0.165882,-1.11367,-0.418038,-0.262602,-0.129724
35,25,-1.0472,-0.698132,-0.174533,-0.174533,-1.03606,-0.683202,-0.157023,-0.165882,-1.11367,-0.418038,-0.262602,-0.129724
35,25,-1.0472,-0.698132,-0.174533,-0.174533,-1.03606,-0.683202,-0.157023,-0.165882,-1.11367,-0.418038,-0.262602,-0.129724
35,25,-1.0472,-0.698132,-0.174533,-0.174533,-1.03606,-0.683202,-0.157023,-0.165882,-1.11367,-0.418038,-0.262602,-0.129724
35,25,-1.0472,-0.698132,-0.174533,-0.174533,-1.03606,-0.683202,-0.157023,-0.165882,-1.11367,-0.418038,-0.262602,-0.129724
35,25,-1.0472,-0.698132,-0.174533,-0.174533,-1.03606,-0.683202,-0.157023,-0.165882,-1.11367,-0.418038,-0.262602,-0.129724
35,25,-1.0472,-0.698132,-0.174533,-0.174533,-1.03606,-0.683202,-0.157023,-0.165882,-1.11367,-0.418038,-0.262602,-0.129724
35,25,-1.0472,-0.698132,-0.174533,-0.174533,-1.03606,-0.683202,-0.157023,-0.165882,-1.11367,-0.418038,-0.262602,-0.129724
35,25,-1.0472,-0.698132,-0.174533,-0.174533,-1.03606,-0.683202,-0.157023,-0.165882,-1.11367,-0.418038,-0.262602,-0.129724
35,25,-1.0472,-0.698132,-0.174533,-0.174533,-1.03606,-0.683202,-0.157023,-0.165882,-1.11367,-0.418038,-0.262602,-0.129724
35,25,-1.0472,-0.698132,-0.174533,-0.174533,-1.03606,-0.683202,-0.157023,-0.165882,-1.11367,-0.418038,-0.262602,-0.129724
35,25,-1.0472,-0.698132,-0.174533,-0.174533,-1.03606,-0.683202,-0.157023,-0.165882,-1.11367,-0.418038,-0.262602,-0.129724
35,25,-1.0472,-0.698132,-0.174533,-0.174533,-1.03606,-0.683202,-0.157023,-0.165882,-1.11367,-0.418038,-0.262602,-0.129724
35,25,-1.0472,-0.698132,-0.174533,-0.174533,-1.03606,-0.683202,-0.157023,-0.165882,-1.11367,-0.418038,-0.262602,-0.129724
35,25,-1.0472,-0.698132,-0.174533,-0.174533,-1.03606,-0.683202,-0.157023,-0.165882,-1.11367,-0.418038,-0.262602,-0.129724
35,25,-1.0472,-0.698132,-0.174533,-0.174533,-1.03606,-0.683202,-0.157023,-0.165882,-1.11367,-0.418038,-0.262602,-0.129724
35,25,-1.0472,-0.698132,-0.174533,-0.174533,-1.03606,-0.683202,-0.157023,-0.165882,-1.11367,-0.418038,-0.262602,-0.129724
35,25,-1.0472,-0.698132,-0.174533,-0.174533,-1.03606,-0.683202,-0.157023,-0.165882,-1.11367,-0.418038,-0.262602,-0.129724
35,25,-1.0472,-0.698132,-0.174533,-0.174533,-1.03606,-0.683202,-0.157023,-0.165882,-1.11367,-0.418038,-0.262602,-0.129724
35,25,-1.0472,-0.698132,-0.174533,-0.174533,-1.03606,-0.683202,-0.157023,-0.165882,-1.11367,-0.418038,-0.262602,-0.129724
35,25,-1.0472,-0.698132,-0.174533,-0.174533,-1.03606,-0.683202,-0.157023,-0.165882,-1.11367,-0.418038,-0.262602,-0.129724
35,25,-1.0472,-0.698132,-0.174533,-0.174533,-1.03606,-0.683202,-0.157023,-0.165882,-1.11367,-0.418038,-0.262602,-0.129724
35,25,-1.0472,-0.698132,-0.174533,-0.174533,-1.03606,-0.683202,-0.157023,-0.165882,-1.11367,-0.418038,-0.262602,-0.129724
35,25,-1.0472,-0.698132,-0.174533,-0.174533,-1.03606,-0.683202,-0.157023,-0.165882,-1.11367,-0.418038,-0.262602,-0.129724
35,25,-1.0472,-0.698132,-0.174533,-0.174533,-1.03606,-0.683202,-0.157023,-0.165882,-1.11367,-0.418038,-0.262602,-0.129724
35,25,-1.0472,-0.698132,-0.174533,-0.174533,-1.03606,-0.683202,-0.157023,-0.165882,-1.11367,-0.418038,-0.262602,-0.129724
35,25,-1.0472,-0.698132,-0.174533,-0.174533,-1.03606,-0.683202,-0.157023,-0.165882,-1.11367,-0.418038,-0.262602,-0.129724
35,25,-1.0472,-0.698132,-0.174533,-0.174533,-1.03606,-0.683202,-0.157023,-0.165882,-1.11367,-0.418038,-0.262602,-0.129724
35,25,-1.0472,-0.698132,-0.174533,-0.174533,-1.03606,-0.683202,-0.157023,-0.165882,-1.11367,-0.418038,-0.262603,-0.129724
35,25,-1.0472,-0.698132,-0.174533,-0.174533,-1.03606,-0.683202,-0.157023,-0.165882,-1.11367,-0.418038,-0.262604,-0.129725
35,25,-1.0472,-0.698132,-0.174533,-0.174533,-1.03606,-0.683202,-0.157023,-0.165882,-1.11367,-0.418038,-0.262605,-0.129726
35,25,-1.0472,-0.698132,-0.174533,-0.174533,-1.03606,-0.683202,-0.157023,-0.165882,-1.11367,-0.418038,-0.262606,-0.129726
35,25,-1.0472,-0.698132,-0.174533,-0.174533,-1.03606,-0.683202,-0.157023,-0.165882,-1.11367,-0.418038,-0.262607,-0.129727
35,25,-1.0472,-0.698132,-0.174533,-0.174533,-1.03606,-0.683202,-0.157023,-0.165882,-1.11367,-0.418038,-0.262608,-0.129727
35,25,-1.0472,-0.698132,-0.174533,-0.174533,-1.03606,-0.683202,-0.157023,-0.165882,-1.11367,-0.418038,-0.262609,-0.129728
35,25,-1.0472,-0.698132,-0.174533,-0.174533,-1.03606,-0.683202,-0.157023,-0.165882,-1.11367,-0.418038,-0.262609,-0.129728
35,25,-1.0472,-0.698132,-0.174533,-0.174533,-1.03606,-0.683202,-0.157023,-0.165882,-1.11367,-0.418038,-0.26261,-0.129729
35,25,-1.0472,-0.698132,-0.174533,-0.174533,-1.03606,-0.683202,-0.157023,-0.165882,-1.11367,-0.418038,-0.262611,-0.12973
35,25,-1.0472,-0.698132,-0.174533,-0.174533,-1.03606,-0.683202,-0.157023,-0.165882,-1.11367,-0.418038,-0.262612,-0.12973
35,25,-1.0472,-0.698132,-0.174533,-0.174533,-1.03606,-0.683202,-0.157023,-0.165882,-1.11367,-0.418038,-0.262612,-0.12973
35,25,-1.0472,-0.698132,-0.174533,-0.174533,-1.03606,-0.683202,-0.157023,-0.165882,-1.11367,-0.418038,-0.262613,-0.129731
35,25,-1.0472,-0.698132,-0.174533,-0.174533,-1.03606,-0.683202,-0.157023,-0.165882,-1.11367,-0.418038,-0.262614,-0.129731
35,25,-1.0472,-0.698132,-0.174533,-0.174533,-1.03606,-0.683202,-0.157023,-0.165882,-1.11367,-0.418038,-0.262614,-0.129732
35,25,-1.0472,-0.698132,-0.174533,-0.174533,-1.03606,-0.683202,-0.157023,-0.165882,-1.11367,-0.418038,-0.262615,-0.129732
35,25,-1.0472,-0.698132,-0.174533,-0.174533,-1.03606,-0.683202,-0.157023,-0.165882,-1.11367,-0.418038,-0.262616,-0.129733
35,25,-1.0472,-0.698132,-0.174533,-0.174533,-1.03606,-0.683202,-0.157023,-0.165882,-1.11367,-0.418038,-0.262616,-0.129733
35,25,-1.0472,-0.698132,-0.174533,-0.174533,-1.03606,-0.683202,-0.157023,-0.165882,-1.11367,-0.418038,-0.262617,-0.129733
35,25,-1.0472,-0.698132,-0.174533,-0.174533,-1.03606,-0.683202,-0.157023,-0.165882,-1.11367,-0.418038,-0.262617,-0.129734
35,25,-1.0472,-0.698132,-0.174533,-0.174533,-1.03606,-0.683202,-0.157023,-0.165882,-1.11367,-0.418038,-0.262618,-0.129734
35,25,-1.0472,-0.698132,-0.174533,-0.174533,-1.03606,-0.683202,-0.157023,-0.165882,-1.11367,-0.418038,-0.262618,-0.129734
35,25,-1.0472,-0.698132,-0.174533,-0.174533,-1.03606,-0.683202,-0.157023,-0.165882,-1.11367,-0.418038,-0.262619,-0.129735
35,25,-1.0472,-0.698132,-0.174533,-0.174533,-1.03606,-0.683202,-0.157023,-0.165882,-1.11367,-0.418038,-0.262619,-0.129735
35,25,-1.0472,-0.698132,-0.174533,-0.174533,-1.03606,-0.683202,-0.157023,-0.165882,-1.11367,-0.418038,-0.26262,-0.129735
35,25,-1.0472,-0.698132,-0.174533,-0.174533,-1.03606,-0.683202,-0.157023,-0.165882,-1.11367,-0.418038,-0.26262,-0.129736
35,25,-1.0472,-0.698132,-0.174533,-0.174533,-1.03606,-0.683202,-0.157023,-0.165882,-1.11367,-0.418038,-0.262621,-0.129736
35,25,-1.0472,-0.698132,-0.174533,-0.174533,-1.03606,-0.683202,-0.157023,-0.165882,-1.11367,-0.418038,-0.262621,-0.129736
35,25,-1.0472,-0.698132,-0.174533,-0.174533,-1.03606,-0.683202,-0.157023,-0.165882,-1.11367,-0.418038,-0.262622,-0.129737
35,25,-1.0472,-0.698132,-0.174533,-0.174533,-1.03606,-0.683202,-0.157023,-0.165882,-1.11367,-0.418038,-0.262622,-0.129737
35,25,-1.0472,-0.698132,-0.174533,-0.174533,-1.03606,-0.683202,-0.157023,-0.165882,-1.11367,-0.418038,-0.262623,-0.129737
35,25,-1.0472,-0.698132,-0.174533,-0.174533,-1.03606,-0.683202,-0.157023,-0.165882,-1.11367,-0.418038,-0.262623,-0.129737
35,25,-1.0472,-0.698132,-0.174533,-0.174533,-1.03606,-0.683202,-0.157023,-0.165882,-1.11367,-0.418038,-0.262623,-0.129738
35,25,-1.0472,-0.698132,-0.174533,-0.174533,-1.03606,-0.683202,-0.157023,-0.165882,-1.11367,-0.418038,-0.262624,-0.129738
35,25,-1.0472,-0.698132,-0.174533,-0.174533,-1.03606,-0.683202,-0.157023,-0.165882,-1.11367,-0.418038,-0.262624,-0.129738
35,25,-1.0472,-0.698132,-0.174533,-0.174533,-1.03606,-0.683202,-0.157023,-0.165882,-1.11367,-0.418038,-0.262624,-0.129738
35,25,-1.0472,-0.698132,-0.174533,-0.174533,-1.03606,-0.683202,-0.157023,-0.165882,-1.11367,-0.418038,-0.262655,-0.129758
35,25,-1.0472,-0.698132,-0.174533,-0.174533,-1.03606,-0.683202,-0.157023,-0.165882,-1.11367,-0.418038,-0.262655,-0.129758
35,25,-1.0472,-0.698132,-0.174533,-0.174533,-1.03606,-0.683202,-0.157023,-0.165882,-1.11367,-0.418038,-0.262655,-0.129758
35,25,-1.0472,-0.698132,-0.174533,-0.174533,-1.03606,-0.683202,-0.157023,-0.165882,-1.11367,-0.418038,-0.262655,-0.129758
35,25,-1.0472,-0.698132,-0.174533,-0.174533,-1.03606,-0.683202,-0.157023,-0.165882,-1.11367,-0.418038,-0.262655,-0.129758
35,25,-1.0472,-0.698132,-0.174533,-0.174533,-1.03606,-0.683202,-0.157023,-0.165882,-1.11367,-0.418038,-0.262655,-0.129758
35,25,-1.0472,-0.698132,-0.174533,-0.174533,-1.03606,-0.683202,-0.157023,-0.165882,-1.11367,-0.418038,-0.262655,-0.129758
35,25,-1.0472,-0.698132,-0.174533,-0.174533,-1.03606,-0.683202,-0.157023,-0.165882,-1.11367,-0.418038,-0.262655,-0.129758
35,25,-1.0472,-0.698132,-0.174533,-0.174533,-1.03606,-0.683202,-0.157023,-0.165882,-1.11367,-0.418038,-0.262655,-0.129758
35,25,-1.0472,-0.698132,-0.174533,-0.174533,-1.03606,-0.683202,-0.157023,-0.165882,-1.11367,-0.418038,-0.262655,-0.129758
35,25,-1.0472,-0.698132,-0.174533,-0.174533,-1.03606,-0.683202,-0.157023,-0.165882,-1.11367,-0.418038,-0.262655,-0.129758
35,25,-1.0472,-0.698132,-0.174533,-0.174533,-1.03606,-0.683202,-0.157023,-0.165882,-1.11367,-0.418038,-0.262655,-0.129758
35,25,-1.0472,-0.698132,-0.174533,-0.174533,-1.03606,-0.683202,-0.157023,-0.165882,-1.11367,-0.418038,-0.262655,-0.129758
35,25,-1.0472,-0.698132,-0.174533,-0.174533,-1.03606,-0.683202,-0.157023,-0.165882,-1.11367,-0.418038,-0.262655,-0.129758
35,25,-1.0472,-0.698132,-0.174533,-0.174533,-1.03606,-0.683202,-0.157023,-0.165882,-1.11367,-0.418038,-0.262655,-0.129758
35,25,-1.0472,-0.698132,-0.174533,-0.174533,-1.03606,-0.683202,-0.157023,-0.165882,-1.11367,-0.418038,-0.262655,-0.129758
35,25,-1.0472,-0.698132,-0.174533,-0.174533,-1.03606,-0.683202,-0.157023,-0.165882,-1.11367,-0.418038,-0.262655,-0.129758
35,25,-1.0472,-0.698132,-0.174533,-0.174533,-1.03606,-0.683202,-0.157023,-0.165882,-1.11367,-0.418038,-0.262655,-0.129758
35,25,-1.0472,-0.698132,-0.174533,-0.174533,-1.03606,-0.683202,-0.157023,-0.165882,-1.11367,-0.418038,-0.262655,-0.129758
35,25,-1.0472,-0.698132,-0.174533,-0.174533,-1.03606,-0.683202,-0.157023,-0.165882,-1.11367,-0.418038,-0.262655,-0.129758
35,25,-1.0472,-0.698132,-0.174533,-0.174533,-1.03606,-0.683202,-0.157023,-0.165882,-1.11367,-0.418038,-0.262655,-0.129758
35,25,-1.0472,-0.698132,-0.174533,-0.174533,-1.03606,-0.683202,-0.157023,-0.165882,-1.11367,-0.418038,-0.262655,-0.129758
35,25,-1.0472,-0.698132,-0.174533,-0.174533,-1.03606,-0.683202,-0.157023,-0.165882,-1.11367,-0.418038,-0.262655,-0.129758
35,25,-1.0472,-0.698132,-0.174533,-0.174533,-1.03606,-0.683202,-0.157023,-0.165882,-1.11367,-0.418038,-0.262655,-0.129758
35,25,-1.0472,-0.698132,-0.174533,-0.174533,-1.03606,-0.683202,-0.157021,-0.165823,-1.11367,-0.418038,-0.262685,-0.130653
35,25,-1.0472,-0.698132,-0.174533,-0.174533,-1.03606,-0.683202,-0.157021,-0.165823,-1.11367,-0.418038,-0.262685,-0.130653
35,25,-1.0472,-0.698132,-0.174533,-0.174533,-1.03606,-0.683202,-0.157021,-0.165823,-1.11367,-0.418038,-0.262685,-0.130653
35,25,-1.0472,-0.698132,-0.174533,-0.174533,-1.03606,-0.683202,-0.157021,-0.165823,-1.11367,-0.418038,-0.262685,-0.130653
35,25,-1.0472,-0.698132,-0.174533,-0.174533,-1.03606,-0.683202,-0.157021,-0.165823,-1.11367,-0.418038,-0.262685,-0.130653
35,25,-1.0472,-0.698132,-0.174533,-0.174533,-1.03606,-0.683202,-0.157021,-0.165823,-1.11367,-0.418038,-0.262685,-0.130653
35,25,-1.0472,-0.698132,-0.174533,-0.174533,-1.03606,-0.683202,-0.157021,-0.165823,-1.11367,-0.418038,-0.262685,-0.130653
35,25,-1.0472,-0.698132,-0.174533,-0.174533,-1.03606,-0.683202,-0.157021,-0.165823,-1.11367,-0.418038,-0.262685,-0.130653
35,25,-1.0472,-0.698132,-0.174533,-0.174533,-1.03606,-0.683202,-0.157021,-0.165823,-1.11367,-0.418038,-0.262685,-0.130653
35,25,-1.0472,-0.698132,-0.174533,-0.174533,-1.03606,-0.683202,-0.157021,-0.165823,-1.11367,-0.418038,-0.262685,-0.130653
35,25,-1.0472,-0.698132,-0.174533,-0.174533,-1.03606,-0.683202,-0.157021,-0.165823,-1.11367,-0.418038,-0.262685,-0.130653
35,25,-1.0472,-0.698132,-0.174533,-0.174533,-1.03606,-0.683202,-0.157021,-0.165823,-1.11367,-0.418038,-0.262685,-0.130653
35,25,-1.0472,-0.698132,-0.174533,-0.174533,-1.03606,-0.683202,-0.157021,-0.165823,-1.11367,-0.418038,-0.262685,-0.130653
35,25,-1.0472,-0.698132,-0.174533,-0.174533,-1.03606,-0.683202,-0.157021,-0.165823,-1.11367,-0.418038,-0.262685,-0.130653
35,25,-1.0472,-0.698132,-0.174533,-0.174533,-1.03606,-0.683202,-0.157021,-0.165823,-1.11367,-0.418038,-0.262685,-0.130653
35,25,-1.0472,-0.698132,-0.174533,-0.174533,-1.03606,-0.683202,-0.157021,-0.165823,-1.11367,-0.418038,-0.262685,-0.130653
35,25,-1.0472,-0.698132,-0.174533,-0.174533,-1.03606,-0.683202,-0.157021,-0.165823,-1.11367,-0.418038,-0.262685,-0.130653
35,25,-1.0472,-0.698132,-0.174533,-0.174533,-1.03606,-0.683202,-0.157021,-0.165823,-1.11367,-0.418038,-0.262685,-0.130653
35,25,-1.0472,-0.698132,-0.174533,-0.174533,-1.03606,-0.683202,-0.157021,-0.165823,-1.11367,-0.418038,-0.262685,-0.130653
35,25,-1.0472,-0.698132,-0.174533,-0.174533,-1.03606,-0.683202,-0.157021,-0.165823,-1.11367,-0.418038,-0.262685,-0.130653
35,25,-1.0472,-0.698132,-0.174533,-0.174533,-1.03606,-0.683202,-0.157021,-0.165823,-1.11367,-0.418038,-0.262685,-0.130653
35,25,-1.0472,-0.698132,-0.174533,-0.174533,-1.03606,-0.683202,-0.157021,-0.165823,-1.11367,-0.418038,-0.262685,-0.130653
35,25,-1.0472,-0.698132,-0.174533,-0.174533,-1.03606,-0.683202,-0.157021,-0.165823,-1.11367,-0.418038,-0.262685,-0.130653
35,25,-1.0472,-0.698132,-0.174533,-0.174533,-1.03606,-0.683202,-0.157021,-0.165823,-1.11367,-0.418038,-0.262685,-0.130653
35,25,-1.0472,-0.698132,-0.174533,-0.174533,-1.03606,-0.683202,-0.157021,-0.165823,-1.11367,-0.418038,-0.262685,-0.130653
35,25,-1.0472,-0.698132,-0.174533,-0.174533,-1.03606,-0.683202,-0.157021,-0.165823,-1.11367,-0.418038,-0.262685,-0.130653
35,25,-1.0472,-0.698132,-0.174533,-0.174533,-1.03606,-0.683202,-0.157021,-0.165823,-1.11367,-0.418038,-0.262685,-0.130653
35,25,-1.0472,-0.698132,-0.174533,-0.174533,-1.03606,-0.683202,-0.157084,-0.165864,-1.11367,-0.418038,-0.26173,-0.13003
35,25,-1.0472,-0.698132,-0.174533,-0.174533,-1.03606,-0.683202,-0.157084,-0.165864,-1.11367,-0.418038,-0.26173,-0.13003
35,25,-1.0472,-0.698132,-0.174533,-0.174533,-1.03606,-0.683202,-0.157084,-0.165864,-1.11367,-0.418038,-0.26173,-0.13003
35,25,-1.0472,-0.698132,-0.174533,-0.174533,-1.03606,-0.683202,-0.157084,-0.165864,-1.11367,-0.418038,-0.26173,-0.13003
35,25,-1.0472,-0.698132,-0.174533,-0.174533,-1.03606,-0.683202,-0.157084,-0.165864,-1.11367,-0.418038,-0.26173,-0.13003
35,25,-1.0472,-0.698132,-0.174533,-0.174533,-1.03606,-0.683202,-0.157084,-0.165864,-1.11367,-0.418038,-0.26173,-0.13003
35,25,-1.0472,-0.698132,-0.174533,-0.174533,-1.03606,-0.683202,-0.157084,-0.165864,-1.11367,-0.418038,-0.26173,-0.13003
35,25,-1.0472,-0.698132,-0.174533,-0.174533,-1.03606,-0.683202,-0.157084,-0.165864,-1.11367,-0.418038,-0.26173,-0.13003
35,25,-1.0472,-0.698132,-0.174533,-0.174533,-1.03606,-0.683202,-0.157084,-0.165864,-1.11367,-0.418038,-0.26173,-0.13003
35,25,-1.0472,-0.698132,-0.174533,-0.174533,-1.03606,-0.683202,-0.157084,-0.165864,-1.11367,-0.418038,-0.26173,-0.13003
35,25,-1.0472,-0.698132,-0.174533,-0.174533,-1.03606,-0.683202,-0.157084,-0.165864,-1.11367,-0.418038,-0.26173,-0.13003
35,25,-1.0472,-0.698132,-0.174533,-0.174533,-1.03606,-0.683202,-0.157084,-0.165864,-1.11367,-0.418038,-0.26173,-0.13003
35,25,-1.0472,-0.698132,-0.174533,-0.174533,-1.03606,-0.683202,-0.157084,-0.165864,-1.11367,-0.418038,-0.26173,-0.13003
35,25,-1.0472,-0.698132,-0.174533,-0.174533,-1.03606,-0.683202,-0.157084,-0.165864,-1.11367,-0.418038,-0.26173,-0.13003
35,25,-1.0472,-0.698132,-0.174533,-0.174533,-1.03606,-0.683202,-0.157084,-0.165864,-1.11367,-0.418038,-0.26173,-0.13003
35,25,-1.0472,-0.698132,-0.174533,-0.174533,-1.03606,-0.683202,-0.157084,-0.165864,-1.11367,-0.418038,-0.26173,-0.13003
35,25,-1.0472,-0.698132,-0.174533,-0.174533,-1.03606,-0.683202,-0.157084,-0.165864,-1.11367,-0.418038,-0.26173,-0.13003
35,25,-1.0472,-0.698132,-0.174533,-0.174533,-1.03606,-0.683202,-0.157084,-0.165864,-1.11367,-0.418038,-0.26173,-0.13003
35,25,-1.0472,-0.698132,-0.174533,-0.174533,-1.03606,-0.683202,-0.157084,-0.165864,-1.11367,-0.418038,-0.26173,-0.13003
35,25,-1.0472,-0.698132,-0.174533,-0.174533,-1.03606,-0.683202,-0.157084,-0.165864,-1.11367,-0.418038,-0.26173,-0.13003
35,25,-1.0472,-0.698132,-0.174533,-0.174533,-1.03606,-0.683202,-0.157084,-0.165864,-1.11367,-0.418038,-0.26173,-0.13003
35,25,-1.0472,-0.698132,-0.174533,-0.174533,-1.03606,-0.683202,-0.157084,-0.165864,-1.11367,-0.418038,-0.26173,-0.13003
35,25,-1.0472,-0.698132,-0.174533,-0.174533,-1.03606,-0.683202,-0.157084,-0.165864,-1.11367,-0.418038,-0.26173,-0.13003
35,25,-1.0472,-0.698132,-0.174533,-0.174533,-1.03606,-0.683202,-0.157084,-0.165864,-1.11367,-0.418038,-0.26173,-0.13003
35,25,-1.0472,-0.698132,-0.174533,-0.174533,-1.03606,-0.683202,-0.157084,-0.165864,-1.11367,-0.418038,-0.26173,-0.13003
35,25,-1.0472,-0.698132,-0.174533,-0.174533,-1.03606,-0.683202,-0.157084,-0.165864,-1.11367,-0.418038,-0.26173,-0.13003
35,25,-1.0472,-0.698132,-0.174533,-0.174533,-1.03606,-0.683202,-0.157084,-0.165864,-1.11367,-0.418038,-0.26173,-0.13003
35,25,-1.0472,-0.698132,-0.174533,-0.174533,-1.03606,-0.683202,-0.157084,-0.165864,-1.11367,-0.418038,-0.26173,-0.13003
35,25,-1.0472,-0.698132,-0.174533,-0.174533,-1.03606,-0.683202,-0.157084,-0.165864,-1.11367,-0.418038,-0.26173,-0.13003
35,25,-1.0472,-0.698132,-0.174533,-0.174533,-1.03606,-0.683202,-0.157084,-0.165864,-1.11367,-0.418038,-0.26173,-0.13003
35,25,-1.0472,-0.698132,-0.174533,-0.174533,-1.03606,-0.683202,-0.157084,-0.165864,-1.11367,-0.418038,-0.26173,-0.13003
35,25,-1.0472,-0.698132,-0.174533,-0.174533,-1.03606,-0.683202,-0.157084,-0.165864,-1.11367,-0.418038,-0.26173,-0.13003
35,25,-1.0472,-0.698132,-0.174533,-0.174533,-1.03606,-0.683202,-0.157084,-0.165864,-1.11367,-0.418038,-0.26173,-0.13003
35,25,-1.0472,-0.698132,-0.174533,-0.174533,-1.03606,-0.683202,-0.157084,-0.165864,-1.11367,-0.418038,-0.26173,-0.13003
35,25,-1.0472,-0.698132,-0.174533,-0.174533,-1.03606,-0.683202,-0.157084,-0.165864,-1.11367,-0.418038,-0.26173,-0.13003
35,25,-1.0472,-0.698132,-0.174533,-0.174533,-1.03606,-0.683202,-0.157084,-0.165864,-1.11367,-0.418038,-0.26173,-0.13003
35,25,-1.0472,-0.698132,-0.174533,-0.174533,-1.03606,-0.683202,-0.157084,-0.165864,-1.11367,-0.418038,-0.26173,-0.13003
35,25,-1.0472,-0.698132,-0.174533,-0.174533,-1.03606,-0.683202,-0.157084,-0.165864,-1.11367,-0.418038,-0.26173,-0.13003
35,25,-1.0472,-0.698132,-0.174533,-0.174533,-1.03606,-0.683202,-0.157084,-0.165864,-1.11367,-0.418038,-0.26173,-0.13003
35,25,-1.0472,-0.698132,-0.174533,-0.174533,-1.03606,-0.683202,-0.157084,-0.165864,-1.11367,-0.418038,-0.26173,-0.13003
35,25,-1.0472,-0.698132,-0.174533,-0.174533,-1.03606,-0.683202,-0.157084,-0.165864,-1.11367,-0.418038,-0.26173,-0.13003
35,25,-1.0472,-0.698132,-0.174533,-0.174533,-1.03606,-0.683202,-0.157084,-0.165864,-1.11367,-0.418038,-0.26173,-0.13003
35,25,-1.0472,-0.698132,-0.174533,-0.174533,-1.03606,-0.683202,-0.157084,-0.165864,-1.11367,-0.418038,-0.26173,-0.13003
35,25,-1.0472,-0.698132,-0.174533,-0.174533,-1.03606,-0.683202,-0.157084,-0.165864,-1.11367,-0.418038,-0.26173,-0.13003
35,25,-1.0472,-0.698132,-0.174533,-0.174533,-1.03606,-0.683202,-0.157084,-0.165864,-1.11367,-0.418038,-0.26173,-0.13003
35,25,-1.0472,-0.698132,-0.174533,-0.174533,-1.03606,-0.683202,-0.157084,-0.165864,-1.11367,-0.418038,-0.26173,-0.13003
35,25,-1.0472,-0.698132,-0.174533,-0.174533,-1.03606,-0.683202,-0.157084,-0.165864,-1.11367,-0.418038,-0.26173,-0.13003
35,25,-1.0472,-0.698132,-0.174533,-0.174533,-1.03606,-0.683202,-0.157084,-0.165864,-1.11367,-0.418038,-0.26173,-0.13003
35,25,-1.0472,-0.698132,-0.174533,-0.174533,-1.03606,-0.683202,-0.157084,-0.165864,-1.11367,-0.418038,-0.26173,-0.13003
35,25,-1.0472,-0.698132,-0.174533,-0.174533,-1.03606,-0.683202,-0.157084,-0.165864,-1.11367,-0.418038,-0.26173,-0.13003
35,25,-1.0472,-0.698132,-0.174533,-0.174533,-1.03606,-0.683202,-0.157084,-0.165864,-1.11367,-0.418038,-0.26173,-0.13003
35,25,-1.0472,-0.698132,-0.174533,-0.174533,-1.03606,-0.683202,-0.157084,-0.165864,-1.11367,-0.418038,-0.26173,-0.13003
35,25,-1.0472,-0.698132,-0.174533,-0.174533,-1.03606,-0.683202,-0.157084,-0.165864,-1.11367,-0.418038,-0.26173,-0.13003
35,25,-1.0472,-0.698132,-0.174533,-0.174533,-1.03606,-0.683202,-0.157084,-0.165864,-1.11367,-0.418038,-0.26173,-0.13003
35,25,-1.0472,-0.698132,-0.174533,-0.174533,-1.03606,-0.683202,-0.157084,-0.165864,-1.11367,-0.418038,-0.26173,-0.13003
35,25,-1.0472,-0.698132,-0.174533,-0.174533,-1.03606,-0.683202,-0.157084,-0.165864,-1.11367,-0.418038,-0.26173,-0.13003
35,25,-1.0472,-0.698132,-0.174533,-0.174533,-1.03606,-0.683202,-0.157084,-0.165864,-1.11367,-0.418038,-0.26173,-0.13003
35,25,-1.0472,-0.698132,-0.174533,-0.174533,-1.03606,-0.683202,-0.157084,-0.165864,-1.11367,-0.418038,-0.26173,-0.13003
35,25,-1.0472,-0.698132,-0.174533,-0.174533,-1.03606,-0.683202,-0.157084,-0.165864,-1.11367,-0.418038,-0.26173,-0.13003
35,25,-1.0472,-0.698132,-0.174533,-0.174533,-1.03606,-0.683202,-0.157084,-0.165864,-1.11367,-0.418038,-0.26173,-0.13003
35,25,-1.0472,-0.698132,-0.174533,-0.174533,-1.03606,-0.683202,-0.157084,-0.165864,-1.11367,-0.418038,-0.26173,-0.13003
35,25,-1.0472,-0.698132,-0.174533,-0.174533,-1.03606,-0.683202,-0.157084,-0.165864,-1.11367,-0.418038,-0.26173,-0.13003
35,25,-1.0472,-0.698132,-0.174533,-0.174533,-1.03606,-0.683202,-0.157084,-0.165864,-1.11367,-0.418038,-0.26173,-0.13003
35,25,-1.0472,-0.698132,-0.174533,-0.174533,-1.03606,-0.683202,-0.157084,-0.165864,-1.11367,-0.418038,-0.26173,-0.13003
35,25,-1.0472,-0.698132,-0.174533,-0.174533,-1.03606,-0.683202,-0.157084,-0.165864,-1.11367,-0.418038,-0.26173,-0.13003
35,25,-1.0472,-0.698132,-0.174533,-0.174533,-1.03606,-0.683202,-0.157084,-0.165864,-1.11367,-0.418038,-0.26173,-0.13003
35,25,-1.0472,-0.698132,-0.174533,-0.174533,-1.03606,-0.683202,-0.157084,-0.165864,-1.11367,-0.418038,-0.26173,-0.13003
35,25,-1.0472,-0.698132,-0.174533,-0.174533,-1.03606,-0.683202,-0.157084,-0.165864,-1.11367,-0.418038,-0.26173,-0.13003
35,25,-1.0472,-0.698132,-0.174533,-0.174533,-1.03606,-0.683202,-0.157084,-0.165864,-1.11367,-0.418038,-0.26173,-0.13003
35,25,-1.0472,-0.698132,-0.174533,-0.174533,-1.03606,-0.683202,-0.157084,-0.165864,-1.11367,-0.418038,-0.26173,-0.13003
35,25,-1.0472,-0.698132,-0.174533,-0.174533,-1.03606,-0.683202,-0.157084,-0.165864,-1.11367,-0.418038,-0.26173,-0.13003
35,25,-1.0472,-0.698132,-0.174533,-0.174533,-1.03606,-0.683202,-0.157084,-0.165864,-1.11367,-0.418038,-0.26173,-0.13003
35,25,-1.0472,-0.698132,-0.174533,-0.174533,-1.03606,-0.683202,-0.157084,-0.165864,-1.11367,-0.418038,-0.26173,-0.13003
35,25,-1.0472,-0.698132,-0.174533,-0.174533,-1.03606,-0.683202,-0.157084,-0.165864,-1.11367,-0.418038,-0.26173,-0.13003
35,25,-1.0472,-0.698132,-0.174533,-0.174533,-1.03606,-0.683202,-0.157084,-0.165864,-1.11367,-0.418038,-0.26173,-0.13003
35,25,-1.0472,-0.698132,-0.174533,-0.174533,-1.03606,-0.683202,-0.157084,-0.165864,-1.11367,-0.418038,-0.26173,-0.13003
35,25,-1.0472,-0.698132,-0.174533,-0.174533,-1.03606,-0.683202,-0.157084,-0.165864,-1.11367,-0.418038,-0.26173,-0.13003
35,25,-1.0472,-0.698132,-0.174533,-0.174533,-1.03606,-0.683202,-0.157084,-0.165864,-1.11367,-0.418038,-0.26173,-0.13003
35,25,-1.0472,-0.698132,-0.174533,-0.174533,-1.03606,-0.683202,-0.157084,-0.165864,-1.11367,-0.418038,-0.26173,-0.13003
35,25,-1.0472,-0.698132,-0.174533,-0.174533,-1.03606,-0.683202,-0.157084,-0.165864,-1.11367,-0.418038,-0.26173,-0.13003
35,25,-1.0472,-0.698132,-0.174533,-0.174533,-1.03606,-0.683202,-0.157084,-0.165864,-1.11367,-0.418038,-0.26173,-0.13003
35,25,-1.0472,-0.698132,-0.174533,-0.174533,-1.03606,-0.683202,-0.157084,-0.165864,-1.11367,-0.418038,-0.26173,-0.13003
35,25,-1.0472,-0.698132,-0.174533,-0.174533,-1.03606,-0.683202,-0.157084,-0.165864,-1.11367,-0.418038,-0.26173,-0.13003
35,25,-1.0472,-0.698132,-0.174533,-0.174533,-1.03606,-0.683202,-0.157084,-0.165864,-1.11367,-0.418038,-0.26173,-0.13003
35,25,-1.0472,-0.698132,-0.174533,-0.174533,-1.03606,-0.683202,-0.157084,-0.165864,-1.11367,-0.418038,-0.26173,-0.13003
35,25,-1.0472,-0.698132,-0.174533,-0.174533,-1.03606,-0.683202,-0.157084,-0.165864,-1.11367,-0.418038,-0.26173,-0.13003
35,25,-1.0472,-0.698132,-0.174533,-0.174533,-1.03606,-0.683202,-0.157084,-0.165864,-1.11367,-0.418038,-0.26173,-0.13003
35,25,-1.0472,-0.698132,-0.174533,-0.174533,-1.03606,-0.683202,-0.157084,-0.165864,-1.11367,-0.418038,-0.26173,-0.13003
35,25,-1.0472,-0.698132,-0.174533,-0.174533,-1.03606,-0.683202,-0.157084,-0.165864,-1.11367,-0.418038,-0.26173,-0.13003
35,25,-1.0472,-0.698132,-0.174533,-0.174533,-1.03606,-0.683202,-0.157084,-0.165864,-1.11367,-0.418038,-0.26173,-0.13003
35,25,-1.0472,-0.698132,-0.174533,-0.174533,-1.03606,-0.683202,-0.157084,-0.165864,-1.11367,-0.418038,-0.26173,-0.13003
35,25,-1.0472,-0.698132,-0.174533,-0.174533,-1.03606,-0.683202,-0.157084,-0.165864,-1.11367,-0.418038,-0.26173,-0.13003
35,25,-1.0472,-0.698132,-0.174533,-0.174533,-1.03606,-0.683202,-0.157084,-0.165864,-1.11367,-0.418038,-0.26173,-0.13003
35,25,-1.0472,-0.698132,-0.174533,-0.174533,-1.03606,-0.683202,-0.157084,-0.165864,-1.11367,-0.418038,-0.26173,-0.13003
35,25,-1.0472,-0.698132,-0.174533,-0.174533,-1.03606,-0.683202,-0.157084,-0.165864,-1.11367,-0.418038,-0.26173,-0.13003
35,25,-1.0472,-0.698132,-0.174533,-0.174533,-1.03606,-0.683202,-0.157084,-0.165864,-1.11367,-0.418038,-0.26173,-0.13003
35,25,-1.0472,-0.698132,-0.174533,-0.174533,-1.03606,-0.683202,-0.157084,-0.165864,-1.11367,-0.418038,-0.26173,-0.13003
35,25,-1.0472,-0.698132,-0.174533,-0.174533,-1.03606,-0.683202,-0.157084,-0.165864,-1.11367,-0.418038,-0.26173,-0.13003
35,25,-1.0472,-0.698132,-0.174533,-0.174533,-1.03606,-0.683202,-0.157084,-0.165864,-1.11367,-0.418038,-0.26173,-0.13003
35,25,-1.0472,-0.698132,-0.174533,-0.174533,-1.03606,-0.683202,-0.157084,-0.165864,-1.11367,-0.418038,-0.26173,-0.13003
35,25,-1.0472,-0.698132,-0.174533,-0.174533,-1.03606,-0.683202,-0.157084,-0.165864,-1.11367,-0.418038,-0.26173,-0.13003
35,25,-1.0472,-0.698132,-0.174533,-0.174533,-1.03606,-0.683202,-0.157084,-0.165864,-1.11367,-0.418038,-0.26173,-0.13003
35,25,-1.0472,-0.698132,-0.174533,-0.174533,-1.03606,-0.683202,-0.157084,-0.165864,-1.11367,-0.418038,-0.26173,-0.13003
35,25,-1.0472,-0.698132,-0.174533,-0.174533,-1.03606,-0.683202,-0.157084,-0.165864,-1.11367,-0.418038,-0.26173,-0.13003
35,25,-1.0472,-0.698132,-0.174533,-0.174533,-1.03606,-0.683202,-0.157084,-0.165864,-1.11367,-0.418038,-0.26173,-0.13003
35,25,-1.0472,-0.698132,-0.174533,-0.174533,-1.03606,-0.683202,-0.157084,-0.165864,-1.11367,-0.418038,-0.26173,-0.13003
35,25,-1.0472,-0.698132,-0.174533,-0.174533,-1.03606,-0.683202,-0.157084,-0.165864,-1.11367,-0.418038,-0.26173,-0.13003
35,25,-1.0472,-0.698132,-0.174533,-0.174533,-1.03606,-0.683202,-0.157084,-0.165864,-1.11367,-0.418038,-0.26173,-0.13003
35,25,-1.0472,-0.698132,-0.174533,-0.174533,-1.03606,-0.683202,-0.157084,-0.165864,-1.11367,-0.418038,-0.26173,-0.13003
35,25,-1.0472,-0.698132,-0.174533,-0.174533,-1.03606,-0.683202,-0.157084,-0.165864,-1.11367,-0.418038,-0.26173,-0.13003
35,25,-1.0472,-0.698132,-0.174533,-0.174533,-1.03606,-0.683202,-0.157084,-0.165864,-1.11367,-0.418038,-0.26173,-0.13003
35,25,-1.0472,-0.698132,-0.174533,-0.174533,-1.03606,-0.683202,-0.157084,-0.165864,-1.11367,-0.418038,-0.26173,-0.13003
35,25,-1.0472,-0.698132,-0.174533,-0.174533,-1.03606,-0.683202,-0.157084,-0.165864,-1.11367,-0.418038,-0.26173,-0.13003
35,25,-1.0472,-0.698132,-0.174533,-0.174533,-1.03606,-0.683202,-0.157084,-0.165864,-1.11367,-0.418038,-0.26173,-0.13003
35,25,-1.0472,-0.698132,-0.174533,-0.174533,-1.03606,-0.683202,-0.157084,-0.165864,-1.11367,-0.418038,-0.26173,-0.13003
35,25,-1.0472,-0.698132,-0.174533,-0.174533,-1.03606,-0.683202,-0.157084,-0.165864,-1.11367,-0.418038,-0.26173,-0.13003
35,25,-1.0472,-0.698132,-0.174533,-0.174533,-1.03606,-0.683202,-0.157084,-0.165864,-1.11367,-0.418038,-0.26173,-0.13003
35,25,-1.0472,-0.698132,-0.174533,-0.174533,-1.03606,-0.683202,-0.157084,-0.165864,-1.11367,-0.418038,-0.26173,-0.13003
35,25,-1.0472,-0.698132,-0.174533,-0.174533,-1.03606,-0.683202,-0.157084,-0.165864,-1.11367,-0.418038,-0.26173,-0.13003
35,25,-1.0472,-0.698132,-0.174533,-0.174533,-1.03606,-0.683202,-0.157084,-0.165864,-1.11367,-0.418038,-0.26173,-0.13003
35,25,-1.0472,-0.698132,-0.174533,-0.174533,-1.03606,-0.683202,-0.157084,-0.165864,-1.11367,-0.418038,-0.26173,-0.13003
35,25,-1.0472,-0.698132,-0.174533,-0.174533,-1.03606,-0.683202,-0.157084,-0.165864,-1.11367,-0.418038,-0.26173,-0.13003
35,25,-1.0472,-0.698132,-0.174533,-0.174533,-1.03606,-0.683202,-0.157084,-0.165864,-1.11367,-0.418038,-0.26173,-0.13003
35,25,-1.0472,-0.698132,-0.174533,-0.174533,-1.03606,-0.683202,-0.157084,-0.165864,-1.11367,-0.418038,-0.26173,-0.13003
35,25,-1.0472,-0.698132,-0.174533,-0.174533,-1.03606,-0.683202,-0.157084,-0.165864,-1.11367,-0.418038,-0.26173,-0.13003
35,25,-1.0472,-0.698132,-0.174533,-0.174533,-1.03606,-0.683202,-0.157084,-0.165864,-1.11367,-0.418038,-0.26173,-0.13003
35,25,-1.0472,-0.698132,-0.174533,-0.174533,-1.03606,-0.683202,-0.157084,-0.165864,-1.11367,-0.418038,-0.26173,-0.13003
35,25,-1.0472,-0.698132,-0.174533,-0.174533,-1.03606,-0.683202,-0.157084,-0.165864,-1.11367,-0.418038,-0.26173,-0.13003
35,25,-1.0472,-0.698132,-0.174533,-0.174533,-1.03606,-0.683202,-0.157084,-0.165864,-1.11367,-0.418038,-0.26173,-0.13003
35,25,-1.0472,-0.698132,-0.174533,-0.174533,-1.03606,-0.683202,-0.157084,-0.165864,-1.11367,-0.418038,-0.26173,-0.13003
35,25,-1.0472,-0.698132,-0.174533,-0.174533,-1.03606,-0.683202,-0.157084,-0.165864,-1.11367,-0.418038,-0.26173,-0.13003
35,25,-1.0472,-0.698132,-0.174533,-0.174533,-1.03606,-0.683202,-0.157084,-0.165864,-1.11367,-0.418038,-0.26173,-0.13003
35,25,-1.0472,-0.698132,-0.174533,-0.174533,-1.03606,-0.683202,-0.157084,-0.165864,-1.11367,-0.418038,-0.26173,-0.13003
35,25,-1.0472,-0.698132,-0.174533,-0.174533,-1.03606,-0.683202,-0.157084,-0.165864,-1.11367,-0.418038,-0.26173,-0.13003
35,25,-1.0472,-0.698132,-0.174533,-0.174533,-1.03606,-0.683202,-0.157084,-0.165864,-1.11367,-0.418038,-0.26173,-0.13003
35,25,-1.0472,-0.698132,-0.174533,-0.174533,-1.03606,-0.683202,-0.157084,-0.165864,-1.11367,-0.418038,-0.26173,-0.13003
35,25,-1.0472,-0.698132,-0.174533,-0.174533,-1.03606,-0.683202,-0.157084,-0.165864,-1.11367,-0.418038,-0.26173,-0.13003
35,25,-1.0472,-0.698132,-0.174533,-0.174533,-1.03606,-0.683202,-0.157084,-0.165864,-1.11367,-0.418038,-0.26173,-0.13003
35,25,-1.0472,-0.698132,-0.174533,-0.174533,-1.03606,-0.683202,-0.157084,-0.165864,-1.11367,-0.418038,-0.26173,-0.13003
35,25,-1.0472,-0.698132,-0.174533,-0.174533,-1.03606,-0.683202,-0.157084,-0.165864,-1.11367,-0.418038,-0.26173,-0.13003
35,25,-1.0472,-0.698132,-0.174533,-0.174533,-1.03606,-0.683202,-0.157084,-0.165864,-1.11367,-0.418038,-0.26173,-0.13003
35,25,-1.0472,-0.698132,-0.174533,-0.174533,-1.03606,-0.683202,-0.157084,-0.165864,-1.11367,-0.418038,-0.26173,-0.13003
35,25,-1.0472,-0.698132,-0.174533,-0.174533,-1.03606,-0.683202,-0.157084,-0.165864,-1.11367,-0.418038,-0.26173,-0.13003
35,25,-1.0472,-0.698132,-0.174533,-0.174533,-1.03606,-0.683202,-0.157084,-0.165864,-1.11367,-0.418038,-0.26173,-0.13003
35,25,-1.0472,-0.698132,-0.174533,-0.174533,-1.03606,-0.683202,-0.157084,-0.165864,-1.11367,-0.418038,-0.26173,-0.13003
35,25,-1.0472,-0.698132,-0.174533,-0.174533,-1.03606,-0.683202,-0.157084,-0.165864,-1.11367,-0.418038,-0.26173,-0.13003
35,25,-1.0472,-0.698132,-0.174533,-0.174533,-1.03606,-0.683202,-0.157084,-0.165864,-1.11367,-0.418038,-0.26173,-0.13003
35,25,-1.0472,-0.698132,-0.174533,-0.174533,-1.03606,-0.683202,-0.157084,-0.165864,-1.11367,-0.418038,-0.26173,-0.13003
35,25,-1.0472,-0.698132,-0.174533,-0.174533,-1.03606,-0.683202,-0.157084,-0.165864,-1.11367,-0.418038,-0.26173,-0.13003
35,25,-1.0472,-0.698132,-0.174533,-0.174533,-1.03606,-0.683202,-0.157084,-0.165864,-1.11367,-0.418038,-0.26173,-0.13003
35,25,-1.0472,-0.698132,-0.174533,-0.174533,-1.03606,-0.683202,-0.157084,-0.165864,-1.11367,-0.418038,-0.26173,-0.13003
35,25,-1.0472,-0.698132,-0.174533,-0.174533,-1.03606,-0.683202,-0.157084,-0.165864,-1.11367,-0.418038,-0.26173,-0.13003
35,25,-1.0472,-0.698132,-0.174533,-0.174533,-1.03606,-0.683202,-0.157084,-0.165864,-1.11367,-0.418038,-0.26173,-0.13003
35,25,-1.0472,-0.698132,-0.174533,-0.174533,-1.03606,-0.683202,-0.157084,-0.165864,-1.11367,-0.418038,-0.26173,-0.13003
35,25,-1.0472,-0.698132,-0.174533,-0.174533,-1.03606,-0.683202,-0.157084,-0.165864,-1.11367,-0.418038,-0.26173,-0.13003
35,25,-1.0472,-0.698132,-0.174533,-0.174533,-1.03606,-0.683202,-0.157084,-0.165864,-1.11367,-0.418038,-0.26173,-0.13003
35,25,-1.0472,-0.698132,-0.174533,-0.174533,-1.03606,-0.683202,-0.157084,-0.165864,-1.11367,-0.418038,-0.26173,-0.13003
35,25,-1.0472,-0.698132,-0.174533,-0.174533,-1.03606,-0.683202,-0.157084,-0.165864,-1.11367,-0.418038,-0.26173,-0.13003
35,25,-1.0472,-0.698132,-0.174533,-0.174533,-1.03606,-0.683202,-0.157084,-0.165864,-1.11367,-0.418038,-0.26173,-0.13003
35,25,-1.0472,-0.698132,-0.174533,-0.174533,-1.03606,-0.683202,-0.157084,-0.165864,-1.11367,-0.418038,-0.26173,-0.13003
35,25,-1.0472,-0.698132,-0.174533,-0.174533,-1.03606,-0.683202,-0.157084,-0.165864,-1.11367,-0.418038,-0.26173,-0.13003
35,25,-1.0472,-0.698132,-0.174533,-0.174533,-1.03606,-0.683202,-0.157084,-0.165864,-1.11367,-0.418038,-0.26173,-0.13003
35,25,-1.0472,-0.698132,-0.174533,-0.174533,-1.03606,-0.683202,-0.157084,-0.165864,-1.11367,-0.418038,-0.26173,-0.13003
35,25,-1.0472,-0.698132,-0.174533,-0.174533,-1.03606,-0.683202,-0.157084,-0.165864,-1.11367,-0.418038,-0.26173,-0.13003
35,25,-1.0472,-0.698132,-0.174533,-0.174533,-1.03606,-0.683202,-0.157084,-0.165864,-1.11367,-0.418038,-0.26173,-0.13003
35,25,-1.0472,-0.698132,-0.174533,-0.174533,-1.03606,-0.683202,-0.157084,-0.165864,-1.11367,-0.418038,-0.26173,-0.13003
35,25,-1.0472,-0.698132,-0.174533,-0.174533,-1.03606,-0.683202,-0.157084,-0.165864,-1.11367,-0.418038,-0.26173,-0.13003
35,25,-1.0472,-0.698132,-0.174533,-0.174533,-1.03606,-0.683202,-0.157084,-0.165864,-1.11367,-0.418038,-0.26173,-0.13003
35,25,-1.0472,-0.698132,-0.174533,-0.174533,-1.03606,-0.683202,-0.157084,-0.165864,-1.11367,-0.418038,-0.26173,-0.13003
35,25,-1.0472,-0.698132,-0.174533,-0.174533,-1.03606,-0.683202,-0.157084,-0.165864,-1.11367,-0.418038,-0.26173,-0.13003
35,25,-1.0472,-0.698132,-0.174533,-0.174533,-1.03606,-0.683202,-0.157084,-0.165864,-1.11367,-0.418038,-0.26173,-0.13003
35,25,-1.0472,-0.698132,-0.174533,-0.174533,-1.03606,-0.683202,-0.157084,-0.165864,-1.11367,-0.418038,-0.26173,-0.13003
35,25,-1.0472,-0.698132,-0.174533,-0.174533,-1.03606,-0.683202,-0.157084,-0.165864,-1.11367,-0.418038,-0.26173,-0.13003
35,25,-1.0472,-0.698132,-0.174533,-0.174533,-1.03606,-0.683202,-0.157084,-0.165864,-1.11367,-0.418038,-0.26173,-0.13003
35,25,-1.0472,-0.698132,-0.174533,-0.174533,-1.03606,-0.683202,-0.157084,-0.165864,-1.11367,-0.418038,-0.26173,-0.13003
35,25,-1.0472,-0.698132,-0.174533,-0.174533,-1.03606,-0.683202,-0.157084,-0.165864,-1.11367,-0.418038,-0.26173,-0.13003
35,25,-1.0472,-0.698132,-0.174533,-0.174533,-1.03606,-0.683202,-0.157084,-0.165864,-1.11367,-0.418038,-0.26173,-0.13003
35,25,-1.0472,-0.698132,-0.174533,-0.174533,-1.03606,-0.683202,-0.157084,-0.165864,-1.11367,-0.418038,-0.26173,-0.13003
35,25,-1.0472,-0.698132,-0.174533,-0.174533,-1.03606,-0.683202,-0.157084,-0.165864,-1.11367,-0.418038,-0.26173,-0.13003
35,25,-1.0472,-0.698132,-0.174533,-0.174533,-1.03606,-0.683202,-0.157084,-0.165864,-1.11367,-0.418038,-0.26173,-0.13003
35,25,-1.0472,-0.698132,-0.174533,-0.174533,-1.03606,-0.683202,-0.157084,-0.165864,-1.11367,-0.418038,-0.26173,-0.13003
35,25,-1.0472,-0.698132,-0.174533,-0.174533,-1.03606,-0.683202,-0.157084,-0.165864,-1.11367,-0.418038,-0.26173,-0.13003
35,25,-1.0472,-0.698132,-0.174533,-0.174533,-1.03606,-0.683202,-0.157084,-0.165864,-1.11367,-0.418038,-0.26173,-0.13003
35,25,-1.0472,-0.698132,-0.174533,-0.174533,-1.03606,-0.683202,-0.157084,-0.165864,-1.11367,-0.418038,-0.26173,-0.13003
35,25,-1.0472,-0.698132,-0.174533,-0.174533,-1.03606,-0.683202,-0.157084,-0.165864,-1.11367,-0.418038,-0.26173,-0.13003
35,25,-1.0472,-0.698132,-0.174533,-0.174533,-1.03606,-0.683202,-0.157084,-0.165864,-1.11367,-0.418038,-0.26173,-0.13003
35,25,-1.0472,-0.698132,-0.174533,-0.174533,-1.03606,-0.683202,-0.157084,-0.165864,-1.11367,-0.418038,-0.26173,-0.13003
35,25,-1.0472,-0.698132,-0.174533,-0.174533,-1.03606,-0.683202,-0.157084,-0.165864,-1.11367,-0.418038,-0.26173,-0.13003
35,25,-1.0472,-0.698132,-0.174533,-0.174533,-1.03606,-0.683202,-0.157084,-0.165864,-1.11367,-0.418038,-0.26173,-0.13003
35,25,-1.0472,-0.698132,-0.174533,-0.174533,-1.03606,-0.683202,-0.157084,-0.165864,-1.11367,-0.418038,-0.26173,-0.13003
35,25,-1.0472,-0.698132,-0.174533,-0.174533,-1.03606,-0.683202,-0.157084,-0.165864,-1.11367,-0.418038,-0.26173,-0.13003
35,25,-1.0472,-0.698132,-0.174533,-0.174533,-1.03606,-0.683202,-0.157084,-0.165864,-1.11367,-0.418038,-0.26173,-0.13003
35,25,-1.0472,-0.698132,-0.174533,-0.174533,-1.03606,-0.683202,-0.157084,-0.165864,-1.11367,-0.418038,-0.26173,-0.13003
35,25,-1.0472,-0.698132,-0.174533,-0.174533,-1.03606,-0.683202,-0.157084,-0.165864,-1.11367,-0.418038,-0.26173,-0.13003
35,25,-1.0472,-0.698132,-0.174533,-0.174533,-1.03606,-0.683202,-0.157084,-0.165864,-1.11367,-0.418038,-0.26173,-0.13003
35,25,-1.0472,-0.698132,-0.174533,-0.174533,-1.03606,-0.683202,-0.157084,-0.165864,-1.11367,-0.418038,-0.26173,-0.13003
35,25,-1.0472,-0.698132,-0.174533,-0.174533,-1.03606,-0.683202,-0.157084,-0.165864,-1.11367,-0.418038,-0.26173,-0.13003
35,25,-1.0472,-0.698132,-0.174533,-0.174533,-1.03606,-0.683202,-0.157084,-0.165864,-1.11367,-0.418038,-0.26173,-0.13003
35,25,-1.0472,-0.698132,-0.174533,-0.174533,-1.03606,-0.683202,-0.157084,-0.165864,-1.11367,-0.418038,-0.26173,-0.13003
35,25,-1.0472,-0.698132,-0.174533,-0.174533,-1.03606,-0.683202,-0.157084,-0.165864,-1.11367,-0.418038,-0.26173,-0.13003
35,25,-1.0472,-0.698132,-0.174533,-0.174533,-1.03606,-0.683202,-0.157084,-0.165864,-1.11367,-0.418038,-0.26173,-0.13003
35,25,-1.0472,-0.698132,-0.174533,-0.174533,-1.03606,-0.683202,-0.157084,-0.165864,-1.11367,-0.418038,-0.26173,-0.13003
35,25,-1.0472,-0.698132,-0.174533,-0.174533,-1.03606,-0.683202,-0.157084,-0.165864,-1.11367,-0.418038,-0.26173,-0.13003
35,25,-1.0472,-0.698132,-0.174533,-0.174533,-1.03606,-0.683202,-0.157084,-0.165864,-1.11367,-0.418038,-0.26173,-0.13003
35,25,-1.0472,-0.698132,-0.174533,-0.174533,-1.03606,-0.683202,-0.157084,-0.165864,-1.11367,-0.418038,-0.26173,-0.13003
35,25,-1.0472,-0.698132,-0.174533,-0.174533,-1.03606,-0.683202,-0.157084,-0.165864,-1.11367,-0.418038,-0.26173,-0.13003
35,25,-1.0472,-0.698132,-0.174533,-0.174533,-1.03606,-0.683202,-0.157084,-0.165864,-1.11367,-0.418038,-0.26173,-0.13003
35,25,-1.0472,-0.698132,-0.174533,-0.174533,-1.03606,-0.683202,-0.157084,-0.165864,-1.11367,-0.418038,-0.26173,-0.13003
35,25,-1.0472,-0.698132,-0.174533,-0.174533,-1.03606,-0.683202,-0.157084,-0.165864,-1.11367,-0.418038,-0.26173,-0.13003
35,25,-1.0472,-0.698132,-0.174533,-0.174533,-1.03606,-0.683202,-0.157084,-0.165864,-1.11367,-0.418038,-0.26173,-0.13003
35,25,-1.0472,-0.698132,-0.174533,-0.174533,-1.03606,-0.683202,-0.157084,-0.165864,-1.11367,-0.418038,-0.26173,-0.13003
35,25,-1.0472,-0.698132,-0.174533,-0.174533,-1.03606,-0.683202,-0.157084,-0.165864,-1.11367,-0.418038,-0.26173,-0.13003
35,25,-1.0472,-0.698132,-0.174533,-0.174533,-1.03606,-0.683202,-0.157084,-0.165864,-1.11367,-0.418038,-0.26173,-0.13003
35,25,-1.0472,-0.698132,-0.174533,-0.174533,-1.03606,-0.683202,-0.157084,-0.165864,-1.11367,-0.418038,-0.26173,-0.13003
35,25,-1.0472,-0.698132,-0.174533,-0.174533,-1.03606,-0.683202,-0.157084,-0.165864,-1.11367,-0.418038,-0.26173,-0.13003
35,25,-1.0472,-0.698132,-0.174533,-0.174533,-1.03606,-0.683202,-0.157084,-0.165864,-1.11367,-0.418038,-0.26173,-0.13003
35,25,-1.0472,-0.698132,-0.174533,-0.174533,-1.03606,-0.683202,-0.157084,-0.165864,-1.11367,-0.418038,-0.26173,-0.13003
35,25,-1.0472,-0.698132,-0.174533,-0.174533,-1.03606,-0.683202,-0.157084,-0.165864,-1.11367,-0.418038,-0.26173,-0.13003
35,25,-1.0472,-0.698132,-0.174533,-0.174533,-1.03606,-0.683202,-0.157084,-0.165864,-1.11367,-0.418038,-0.26173,-0.13003
35,25,-1.0472,-0.698132,-0.174533,-0.174533,-1.03606,-0.683202,-0.157082,-0.165805,-1.11367,-0.418038,-0.26176,-0.130925
35,25,-1.0472,-0.698132,-0.174533,-0.174533,-1.03606,-0.683202,-0.157082,-0.165805,-1.11367,-0.418038,-0.26176,-0.130925
35,25,-1.0472,-0.698132,-0.174533,-0.174533,-1.03606,-0.683202,-0.157082,-0.165805,-1.11367,-0.418038,-0.26176,-0.130925
35,25,-1.0472,-0.698132,-0.174533,-0.174533,-1.03606,-0.683202,-0.157082,-0.165805,-1.11367,-0.418038,-0.26176,-0.130925
35,25,-1.0472,-0.698132,-0.174533,-0.174533,-1.03606,-0.683202,-0.157082,-0.165805,-1.11367,-0.418038,-0.26176,-0.130925
35,25,-1.0472,-0.698132,-0.174533,-0.174533,-1.03606,-0.683202,-0.157082,-0.165805,-1.11367,-0.418038,-0.26176,-0.130925
35,25,-1.0472,-0.698132,-0.174533,-0.174533,-1.03606,-0.683202,-0.157082,-0.165805,-1.11367,-0.418038,-0.26176,-0.130925
35,25,-1.0472,-0.698132,-0.174533,-0.174533,-1.03606,-0.683202,-0.157082,-0.165805,-1.11367,-0.418038,-0.26176,-0.130925
35,25,-1.0472,-0.698132,-0.174533,-0.174533,-1.03606,-0.683202,-0.157082,-0.165805,-1.11367,-0.418038,-0.26176,-0.130925
35,25,-1.0472,-0.698132,-0.174533,-0.174533,-1.03606,-0.683202,-0.157082,-0.165805,-1.11367,-0.418038,-0.26176,-0.130925
35,25,-1.0472,-0.698132,-0.174533,-0.174533,-1.03606,-0.683202,-0.157082,-0.165805,-1.11367,-0.418038,-0.26176,-0.130925
35,25,-1.0472,-0.698132,-0.174533,-0.174533,-1.03606,-0.683202,-0.157082,-0.165805,-1.11367,-0.418038,-0.26176,-0.130925
35,25,-1.0472,-0.698132,-0.174533,-0.174533,-1.03606,-0.683202,-0.157082,-0.165805,-1.11367,-0.418038,-0.26176,-0.130925
35,25,-1.0472,-0.698132,-0.174533,-0.174533,-1.03606,-0.683202,-0.157082,-0.165805,-1.11367,-0.418038,-0.26176,-0.130925
35,25,-1.0472,-0.698132,-0.174533,-0.174533,-1.03606,-0.683202,-0.157082,-0.165805,-1.11367,-0.418038,-0.26176,-0.130925
35,25,-1.0472,-0.698132,-0.174533,-0.174533,-1.03606,-0.683202,-0.157082,-0.165805,-1.11367,-0.418038,-0.26176,-0.130925
35,25,-1.0472,-0.698132,-0.174533,-0.174533,-1.03606,-0.683202,-0.157082,-0.165805,-1.11367,-0.418038,-0.26176,-0.130925
35,25,-1.0472,-0.698132,-0.174533,-0.174533,-1.03606,-0.683202,-0.157082,-0.165805,-1.11367,-0.418038,-0.26176,-0.130925
35,25,-1.0472,-0.698132,-0.174533,-0.174533,-1.03606,-0.683202,-0.157082,-0.165805,-1.11367,-0.418038,-0.26176,-0.130925
35,25,-1.0472,-0.698132,-0.174533,-0.174533,-1.03606,-0.683202,-0.157082,-0.165805,-1.11367,-0.418038,-0.26176,-0.130925
35,25,-1.0472,-0.698132,-0.174533,-0.174533,-1.03606,-0.683202,-0.157082,-0.165805,-1.11367,-0.418038,-0.26176,-0.130925
35,25,-1.0472,-0.698132,-0.174533,-0.174533,-1.03606,-0.683202,-0.157082,-0.165805,-1.11367,-0.418038,-0.26176,-0.130925
35,25,-1.0472,-0.698132,-0.174533,-0.174533,-1.03606,-0.683202,-0.157082,-0.165805,-1.11367,-0.418038,-0.26176,-0.130925
35,25,-1.0472,-0.698132,-0.174533,-0.174533,-1.03606,-0.683202,-0.157082,-0.165805,-1.11367,-0.418038,-0.26176,-0.130925
35,25,-1.0472,-0.698132,-0.174533,-0.174533,-1.03606,-0.683202,-0.157082,-0.165805,-1.11367,-0.418038,-0.26176,-0.130925
35,25,-1.0472,-0.698132,-0.174533,-0.174533,-1.03606,-0.683202,-0.157082,-0.165805,-1.11367,-0.418038,-0.26176,-0.130925
35,25,-1.0472,-0.698132,-0.174533,-0.174533,-1.03606,-0.683202,-0.157082,-0.165805,-1.11367,-0.418038,-0.26176,-0.130925
35,25,-1.0472,-0.698132,-0.174533,-0.174533,-1.03606,-0.683202,-0.157082,-0.165805,-1.11367,-0.418038,-0.26176,-0.130925
35,25,-1.0472,-0.698132,-0.174533,-0.174533,-1.03606,-0.683202,-0.157082,-0.165805,-1.11367,-0.418038,-0.26176,-0.130925
35,25,-1.0472,-0.698132,-0.174533,-0.174533,-1.03606,-0.683202,-0.157082,-0.165805,-1.11367,-0.418038,-0.26176,-0.130925
35,25,-1.0472,-0.698132,-0.174533,-0.174533,-1.03606,-0.683202,-0.157082,-0.165805,-1.11367,-0.418038,-0.26176,-0.130925
35,25,-1.0472,-0.698132,-0.174533,-0.174533,-1.03606,-0.683202,-0.157082,-0.165805,-1.11367,-0.418038,-0.26176,-0.130925
35,25,-1.0472,-0.698132,-0.174533,-0.174533,-1.03606,-0.683202,-0.157082,-0.165805,-1.11367,-0.418038,-0.26176,-0.130925
35,25,-1.0472,-0.698132,-0.174533,-0.174533,-1.03606,-0.683202,-0.157082,-0.165805,-1.11367,-0.418038,-0.26176,-0.130925
35,25,-1.0472,-0.698132,-0.174533,-0.174533,-1.03606,-0.683202,-0.157082,-0.165805,-1.11367,-0.418038,-0.26176,-0.130925
35,25,-1.0472,-0.698132,-0.174533,-0.174533,-1.03606,-0.683202,-0.157146,-0.165846,-1.11367,-0.418038,-0.260805,-0.130302
35,25,-1.0472,-0.698132,-0.174533,-0.174533,-1.03606,-0.683202,-0.157146,-0.165846,-1.11367,-0.418038,-0.260805,-0.130302
35,25,-1.0472,-0.698132,-0.174533,-0.174533,-1.03606,-0.683202,-0.157146,-0.165846,-1.11367,-0.418038,-0.260805,-0.130302
35,25,-1.0472,-0.698132,-0.174533,-0.174533,-1.03606,-0.683202,-0.157146,-0.165846,-1.11367,-0.418038,-0.260805,-0.130302
35,25,-1.0472,-0.698132,-0.174533,-0.174533,-1.03606,-0.683202,-0.157146,-0.165846,-1.11367,-0.418038,-0.260805,-0.130302
35,25,-1.0472,-0.698132,-0.174533,-0.174533,-1.03606,-0.683202,-0.157146,-0.165846,-1.11367,-0.418038,-0.260805,-0.130302
35,25,-1.0472,-0.698132,-0.174533,-0.174533,-1.03606,-0.683202,-0.157146,-0.165846,-1.11367,-0.418038,-0.260805,-0.130302
35,25,-1.0472,-0.698132,-0.174533,-0.174533,-1.03606,-0.683202,-0.157146,-0.165846,-1.11367,-0.418038,-0.260805,-0.130302
35,25,-1.0472,-0.698132,-0.174533,-0.174533,-1.03606,-0.683202,-0.157146,-0.165846,-1.11367,-0.418038,-0.260805,-0.130302
35,25,-1.0472,-0.698132,-0.174533,-0.174533,-1.03606,-0.683202,-0.157146,-0.165846,-1.11367,-0.418038,-0.260805,-0.130302
35,25,-1.0472,-0.698132,-0.174533,-0.174533,-1.03606,-0.683202,-0.157146,-0.165846,-1.11367,-0.418038,-0.260805,-0.130302
35,25,-1.0472,-0.698132,-0.174533,-0.174533,-1.03606,-0.683202,-0.157146,-0.165846,-1.11367,-0.418038,-0.260805,-0.130302
35,25,-1.0472,-0.698132,-0.174533,-0.174533,-1.03606,-0.683202,-0.157146,-0.165846,-1.11367,-0.418038,-0.260805,-0.130302
35,25,-1.0472,-0.698132,-0.174533,-0.174533,-1.03606,-0.683202,-0.157146,-0.165846,-1.11367,-0.418038,-0.260805,-0.130302
35,25,-1.0472,-0.698132,-0.174533,-0.174533,-1.03606,-0.683202,-0.157146,-0.165846,-1.11367,-0.418038,-0.260805,-0.130302
35,25,-1.0472,-0.698132,-0.174533,-0.174533,-1.03606,-0.683202,-0.157146,-0.165846,-1.11367,-0.418038,-0.260805,-0.130302
35,25,-1.0472,-0.698132,-0.174533,-0.174533,-1.03606,-0.683202,-0.157146,-0.165846,-1.11367,-0.418038,-0.260805,-0.130302
35,25,-1.0472,-0.698132,-0.174533,-0.174533,-1.03606,-0.683202,-0.157146,-0.165846,-1.11367,-0.418038,-0.260805,-0.130302
35,25,-1.0472,-0.698132,-0.174533,-0.174533,-1.03606,-0.683202,-0.157146,-0.165846,-1.11367,-0.418038,-0.260805,-0.130302
35,25,-1.0472,-0.698132,-0.174533,-0.174533,-1.03606,-0.683202,-0.157146,-0.165846,-1.11367,-0.418038,-0.260805,-0.130302
35,25,-1.0472,-0.698132,-0.174533,-0.174533,-1.03606,-0.683202,-0.157146,-0.165846,-1.11367,-0.418038,-0.260805,-0.130302
35,25,-1.0472,-0.698132,-0.174533,-0.174533,-1.03606,-0.683202,-0.157146,-0.165846,-1.11367,-0.418038,-0.260805,-0.130302
35,25,-1.0472,-0.698132,-0.174533,-0.174533,-1.03606,-0.683202,-0.157146,-0.165846,-1.11367,-0.418038,-0.260805,-0.130302
35,25,-1.0472,-0.698132,-0.174533,-0.174533,-1.03606,-0.683202,-0.157146,-0.165846,-1.11367,-0.418038,-0.260805,-0.130302
35,25,-1.0472,-0.698132,-0.174533,-0.174533,-1.03606,-0.683202,-0.157146,-0.165846,-1.11367,-0.418038,-0.260805,-0.130302
35,25,-1.0472,-0.698132,-0.174533,-0.174533,-1.03606,-0.683202,-0.157146,-0.165846,-1.11367,-0.418038,-0.260805,-0.130302
35,25,-1.0472,-0.698132,-0.174533,-0.174533,-1.03606,-0.683202,-0.157146,-0.165846,-1.11367,-0.418038,-0.260805,-0.130302
35,25,-1.0472,-0.698132,-0.174533,-0.174533,-1.03606,-0.683202,-0.157146,-0.165846,-1.11367,-0.418038,-0.260805,-0.130302
35,25,-1.0472,-0.698132,-0.174533,-0.174533,-1.03606,-0.683202,-0.157146,-0.165846,-1.11367,-0.418038,-0.260805,-0.130302
35,25,-1.0472,-0.698132,-0.174533,-0.174533,-1.03606,-0.683202,-0.157146,-0.165846,-1.11367,-0.418038,-0.260805,-0.130302
35,25,-1.0472,-0.698132,-0.174533,-0.174533,-1.03606,-0.683202,-0.157146,-0.165846,-1.11367,-0.418038,-0.260805,-0.130302
35,25,-1.0472,-0.698132,-0.174533,-0.174533,-1.03606,-0.683202,-0.157146,-0.165846,-1.11367,-0.418038,-0.260805,-0.130302
35,25,-1.0472,-0.698132,-0.174533,-0.174533,-1.03606,-0.683202,-0.157146,-0.165846,-1.11367,-0.418038,-0.260805,-0.130302
35,25,-1.0472,-0.698132,-0.174533,-0.174533,-1.03606,-0.683202,-0.157146,-0.165846,-1.11367,-0.418038,-0.260805,-0.130302
35,25,-1.0472,-0.698132,-0.174533,-0.174533,-1.03606,-0.683202,-0.157146,-0.165846,-1.11367,-0.418038,-0.260805,-0.130302
35,25,-1.0472,-0.698132,-0.174533,-0.174533,-1.03606,-0.683202,-0.157146,-0.165846,-1.11367,-0.418038,-0.260805,-0.130302
35,25,-1.0472,-0.698132,-0.174533,-0.174533,-1.03606,-0.683202,-0.157146,-0.165846,-1.11367,-0.418038,-0.260805,-0.130302
35,25,-1.0472,-0.698132,-0.174533,-0.174533,-1.03606,-0.683202,-0.157146,-0.165846,-1.11367,-0.418038,-0.260805,-0.130302
35,25,-1.0472,-0.698132,-0.174533,-0.174533,-1.03606,-0.683202,-0.157146,-0.165846,-1.11367,-0.418038,-0.260805,-0.130302
35,25,-1.0472,-0.698132,-0.174533,-0.174533,-1.03606,-0.683202,-0.157146,-0.165846,-1.11367,-0.418038,-0.260805,-0.130302
35,25,-1.0472,-0.698132,-0.174533,-0.174533,-1.03606,-0.683202,-0.157146,-0.165846,-1.11367,-0.418038,-0.260805,-0.130302
35,25,-1.0472,-0.698132,-0.174533,-0.174533,-1.03606,-0.683202,-0.157144,-0.165786,-1.11367,-0.418038,-0.260835,-0.131197
35,25,-1.0472,-0.698132,-0.174533,-0.174533,-1.03606,-0.683202,-0.157144,-0.165786,-1.11367,-0.418038,-0.260835,-0.131197
35,25,-1.0472,-0.698132,-0.174533,-0.174533,-1.03606,-0.683202,-0.157144,-0.165786,-1.11367,-0.418038,-0.260835,-0.131197
35,25,-1.0472,-0.698132,-0.174533,-0.174533,-1.03606,-0.683202,-0.157144,-0.165786,-1.11367,-0.418038,-0.260835,-0.131197
35,25,-1.0472,-0.698132,-0.174533,-0.174533,-1.03606,-0.683202,-0.157144,-0.165786,-1.11367,-0.418038,-0.260835,-0.131197
35,25,-1.0472,-0.698132,-0.174533,-0.174533,-1.03606,-0.683202,-0.157144,-0.165786,-1.11367,-0.418038,-0.260835,-0.131197
35,25,-1.0472,-0.698132,-0.174533,-0.174533,-1.03606,-0.683202,-0.157144,-0.165786,-1.11367,-0.418038,-0.260835,-0.131197
35,25,-1.0472,-0.698132,-0.174533,-0.174533,-1.03606,-0.683202,-0.157144,-0.165786,-1.11367,-0.418038,-0.260835,-0.131197
35,25,-1.0472,-0.698132,-0.174533,-0.174533,-1.03606,-0.683202,-0.157144,-0.165786,-1.11367,-0.418038,-0.260835,-0.131197
35,25,-1.0472,-0.698132,-0.174533,-0.174533,-1.03606,-0.683202,-0.157144,-0.165786,-1.11367,-0.418038,-0.260835,-0.131197
35,25,-1.0472,-0.698132,-0.174533,-0.174533,-1.03606,-0.683202,-0.157144,-0.165786,-1.11367,-0.418038,-0.260835,-0.131197
35,25,-1.0472,-0.698132,-0.174533,-0.174533,-1.03606,-0.683202,-0.157144,-0.165786,-1.11367,-0.418038,-0.260835,-0.131197
35,25,-1.0472,-0.698132,-0.174533,-0.174533,-1.03606,-0.683202,-0.157144,-0.165786,-1.11367,-0.418038,-0.260835,-0.131197
35,25,-1.0472,-0.698132,-0.174533,-0.174533,-1.03606,-0.683202,-0.157144,-0.165786,-1.11367,-0.418038,-0.260835,-0.131197
35,25,-1.0472,-0.698132,-0.174533,-0.174533,-1.03606,-0.683202,-0.157144,-0.165786,-1.11367,-0.418038,-0.260835,-0.131197
35,25,-1.0472,-0.698132,-0.174533,-0.174533,-1.03606,-0.683202,-0.157144,-0.165786,-1.11367,-0.418038,-0.260835,-0.131197
35,25,-1.0472,-0.698132,-0.174533,-0.174533,-1.03606,-0.683202,-0.157144,-0.165786,-1.11367,-0.418038,-0.260835,-0.131197
35,25,-1.0472,-0.698132,-0.174533,-0.174533,-1.03606,-0.683202,-0.157144,-0.165786,-1.11367,-0.418038,-0.260835,-0.131197
35,25,-1.0472,-0.698132,-0.174533,-0.174533,-1.03606,-0.683202,-0.157144,-0.165786,-1.11367,-0.418038,-0.260835,-0.131197
35,25,-1.0472,-0.698132,-0.174533,-0.174533,-1.03606,-0.683202,-0.157144,-0.165786,-1.11367,-0.418038,-0.260835,-0.131197
35,25,-1.0472,-0.698132,-0.174533,-0.174533,-1.03606,-0.683202,-0.157144,-0.165786,-1.11367,-0.418038,-0.260835,-0.131197
35,25,-1.0472,-0.698132,-0.174533,-0.174533,-1.03606,-0.683202,-0.157144,-0.165786,-1.11367,-0.418038,-0.260835,-0.131197
35,25,-1.0472,-0.698132,-0.174533,-0.174533,-1.03606,-0.683202,-0.157144,-0.165786,-1.11367,-0.418038,-0.260835,-0.131197
35,25,-1.0472,-0.698132,-0.174533,-0.174533,-1.03606,-0.683202,-0.157144,-0.165786,-1.11367,-0.418038,-0.260835,-0.131197
35,25,-1.0472,-0.698132,-0.174533,-0.174533,-1.03606,-0.683202,-0.157144,-0.165786,-1.11367,-0.418038,-0.260835,-0.131197
35,25,-1.0472,-0.698132,-0.174533,-0.174533,-1.03606,-0.683202,-0.157144,-0.165786,-1.11367,-0.418038,-0.260835,-0.131197
35,25,-1.0472,-0.698132,-0.174533,-0.174533,-1.03606,-0.683202,-0.157144,-0.165786,-1.11367,-0.418038,-0.260835,-0.131197
35,25,-1.0472,-0.698132,-0.174533,-0.174533,-1.03606,-0.683202,-0.157144,-0.165786,-1.11367,-0.418038,-0.260835,-0.131197
35,25,-1.0472,-0.698132,-0.174533,-0.174533,-1.03606,-0.683202,-0.157144,-0.165786,-1.11367,-0.418038,-0.260835,-0.131197
35,25,-1.0472,-0.698132,-0.174533,-0.174533,-1.03606,-0.683202,-0.157144,-0.165786,-1.11367,-0.418038,-0.260835,-0.131197
35,25,-1.0472,-0.698132,-0.174533,-0.174533,-1.03606,-0.683202,-0.157144,-0.165786,-1.11367,-0.418038,-0.260835,-0.131197
35,25,-1.0472,-0.698132,-0.174533,-0.174533,-1.03606,-0.683202,-0.157144,-0.165786,-1.11367,-0.418038,-0.260835,-0.131197
35,25,-1.0472,-0.698132,-0.174533,-0.174533,-1.03606,-0.683202,-0.157144,-0.165786,-1.11367,-0.418038,-0.260835,-0.131197
35,25,-1.0472,-0.698132,-0.174533,-0.174533,-1.03606,-0.683202,-0.157144,-0.165786,-1.11367,-0.418038,-0.260835,-0.131197
35,25,-1.0472,-0.698132,-0.174533,-0.174533,-1.03606,-0.683202,-0.157144,-0.165786,-1.11367,-0.418038,-0.260835,-0.131197
35,25,-1.0472,-0.698132,-0.174533,-0.174533,-1.03606,-0.683202,-0.157144,-0.165786,-1.11367,-0.418038,-0.260835,-0.131197
35,25,-1.0472,-0.698132,-0.174533,-0.174533,-1.03606,-0.683202,-0.157144,-0.165786,-1.11367,-0.418038,-0.260835,-0.131197
35,25,-1.0472,-0.698132,-0.174533,-0.174533,-1.03606,-0.683202,-0.157144,-0.165786,-1.11367,-0.418038,-0.260835,-0.131197
35,25,-1.0472,-0.698132,-0.174533,-0.174533,-1.03606,-0.683202,-0.157144,-0.165786,-1.11367,-0.418038,-0.260835,-0.131197
35,25,-1.0472,-0.698132,-0.174533,-0.174533,-1.03606,-0.683202,-0.157144,-0.165786,-1.11367,-0.418038,-0.260835,-0.131197
35,25,-1.0472,-0.698132,-0.174533,-0.174533,-1.03606,-0.683202,-0.157144,-0.165786,-1.11367,-0.418038,-0.260835,-0.131197
35,25,-1.0472,-0.698132,-0.174533,-0.174533,-1.03606,-0.683202,-0.157144,-0.165786,-1.11367,-0.418038,-0.260835,-0.131197
35,25,-1.0472,-0.698132,-0.174533,-0.174533,-1.03606,-0.683202,-0.157144,-0.165786,-1.11367,-0.418038,-0.260835,-0.131197
35,25,-1.0472,-0.698132,-0.174533,-0.174533,-1.03606,-0.683202,-0.157144,-0.165786,-1.11367,-0.418038,-0.260835,-0.131197
35,25,-1.0472,-0.698132,-0.174533,-0.174533,-1.03606,-0.683202,-0.157144,-0.165786,-1.11367,-0.418038,-0.260835,-0.131197
35,25,-1.0472,-0.698132,-0.174533,-0.174533,-1.03606,-0.683202,-0.157144,-0.165786,-1.11367,-0.418038,-0.260835,-0.131197
35,25,-1.0472,-0.698132,-0.174533,-0.174533,-1.03606,-0.683202,-0.157144,-0.165786,-1.11367,-0.418038,-0.260835,-0.131197
35,25,-1.0472,-0.698132,-0.174533,-0.174533,-1.03606,-0.683202,-0.157144,-0.165786,-1.11367,-0.418038,-0.260835,-0.131197
35,25,-1.0472,-0.698132,-0.174533,-0.174533,-1.03606,-0.683202,-0.157144,-0.165786,-1.11367,-0.418038,-0.260835,-0.131197
35,25,-1.0472,-0.698132,-0.174533,-0.174533,-1.03606,-0.683202,-0.157144,-0.165786,-1.11367,-0.418038,-0.260835,-0.131197
35,25,-1.0472,-0.698132,-0.174533,-0.174533,-1.03606,-0.683202,-0.157144,-0.165786,-1.11367,-0.418038,-0.260835,-0.131197
35,25,-1.0472,-0.698132,-0.174533,-0.174533,-1.03606,-0.683202,-0.157144,-0.165786,-1.11367,-0.418038,-0.260835,-0.131197
35,25,-1.0472,-0.698132,-0.174533,-0.174533,-1.03606,-0.683202,-0.157144,-0.165786,-1.11367,-0.418038,-0.260835,-0.131197
35,25,-1.0472,-0.698132,-0.174533,-0.174533,-1.03606,-0.683202,-0.157144,-0.165786,-1.11367,-0.418038,-0.260835,-0.131197
35,25,-1.0472,-0.698132,-0.174533,-0.174533,-1.03606,-0.683202,-0.157144,-0.165786,-1.11367,-0.418038,-0.260835,-0.131197
35,25,-1.0472,-0.698132,-0.174533,-0.174533,-1.03606,-0.683202,-0.157144,-0.165786,-1.11367,-0.418038,-0.260835,-0.131197
35,25,-1.0472,-0.698132,-0.174533,-0.174533,-1.03606,-0.683202,-0.157144,-0.165786,-1.11367,-0.418038,-0.260835,-0.131197
35,25,-1.0472,-0.698132,-0.174533,-0.174533,-1.03606,-0.683202,-0.157144,-0.165786,-1.11367,-0.418038,-0.260835,-0.131197
35,25,-1.0472,-0.698132,-0.174533,-0.174533,-1.03606,-0.683202,-0.157144,-0.165786,-1.11367,-0.418038,-0.260835,-0.131197
35,25,-1.0472,-0.698132,-0.174533,-0.174533,-1.03606,-0.683202,-0.157144,-0.165786,-1.11367,-0.418038,-0.260835,-0.131197
35,25,-1.0472,-0.698132,-0.174533,-0.174533,-1.03606,-0.683202,-0.157144,-0.165786,-1.11367,-0.418038,-0.260835,-0.131197
35,25,-1.0472,-0.698132,-0.174533,-0.174533,-1.03606,-0.683202,-0.157144,-0.165786,-1.11367,-0.418038,-0.260835,-0.131197
35,25,-1.0472,-0.698132,-0.174533,-0.174533,-1.03606,-0.683202,-0.157144,-0.165786,-1.11367,-0.418038,-0.260835,-0.131197
35,25,-1.0472,-0.698132,-0.174533,-0.174533,-1.03606,-0.683202,-0.157144,-0.165786,-1.11367,-0.418038,-0.260835,-0.131197
35,25,-1.0472,-0.698132,-0.174533,-0.174533,-1.03606,-0.683202,-0.157144,-0.165786,-1.11367,-0.418038,-0.260835,-0.131197
35,25,-1.0472,-0.698132,-0.174533,-0.174533,-1.03606,-0.683202,-0.157144,-0.165786,-1.11367,-0.418038,-0.260835,-0.131197
35,25,-1.0472,-0.698132,-0.174533,-0.174533,-1.03606,-0.683202,-0.157144,-0.165786,-1.11367,-0.418038,-0.260835,-0.131197
35,25,-1.0472,-0.698132,-0.174533,-0.174533,-1.03606,-0.683202,-0.157144,-0.165786,-1.11367,-0.418038,-0.260835,-0.131197
35,25,-1.0472,-0.698132,-0.174533,-0.174533,-1.03606,-0.683202,-0.157144,-0.165786,-1.11367,-0.418038,-0.260835,-0.131197
35,25,-1.0472,-0.698132,-0.174533,-0.174533,-1.03606,-0.683202,-0.157144,-0.165786,-1.11367,-0.418038,-0.260835,-0.131197
35,25,-1.0472,-0.698132,-0.174533,-0.174533,-1.03606,-0.683202,-0.157144,-0.165786,-1.11367,-0.418038,-0.260835,-0.131197
35,25,-1.0472,-0.698132,-0.174533,-0.174533,-1.03606,-0.683202,-0.157144,-0.165786,-1.11367,-0.418038,-0.260835,-0.131197
35,25,-1.0472,-0.698132,-0.174533,-0.174533,-1.03606,-0.683202,-0.157144,-0.165786,-1.11367,-0.418038,-0.260835,-0.131197
35,25,-1.0472,-0.698132,-0.174533,-0.174533,-1.03606,-0.683202,-0.157144,-0.165786,-1.11367,-0.418038,-0.260835,-0.131197
35,25,-1.0472,-0.698132,-0.174533,-0.174533,-1.03606,-0.683202,-0.157144,-0.165786,-1.11367,-0.418038,-0.260835,-0.131197
35,25,-1.0472,-0.698132,-0.174533,-0.174533,-1.03606,-0.683202,-0.157144,-0.165786,-1.11367,-0.418038,-0.260835,-0.131197
35,25,-1.0472,-0.698132,-0.174533,-0.174533,-1.03606,-0.683202,-0.157144,-0.165786,-1.11367,-0.418038,-0.260835,-0.131197
35,25,-1.0472,-0.698132,-0.174533,-0.174533,-1.03606,-0.683202,-0.157144,-0.165786,-1.11367,-0.418038,-0.260835,-0.131197
35,25,-1.0472,-0.698132,-0.174533,-0.174533,-1.03606,-0.683202,-0.157144,-0.165786,-1.11367,-0.418038,-0.260835,-0.131197
35,25,-1.0472,-0.698132,-0.174533,-0.174533,-1.03606,-0.683202,-0.157144,-0.165786,-1.11367,-0.418038,-0.260835,-0.131197
35,25,-1.0472,-0.698132,-0.174533,-0.174533,-1.03606,-0.683202,-0.157144,-0.165786,-1.11367,-0.418038,-0.260835,-0.131197
35,25,-1.0472,-0.698132,-0.174533,-0.174533,-1.03606,-0.683202,-0.157144,-0.165786,-1.11367,-0.418038,-0.260835,-0.131197
35,25,-1.0472,-0.698132,-0.174533,-0.174533,-1.03606,-0.683202,-0.157144,-0.165786,-1.11367,-0.418038,-0.260835,-0.131197
35,25,-1.0472,-0.698132,-0.174533,-0.174533,-1.03606,-0.683202,-0.157144,-0.165786,-1.11367,-0.418038,-0.260835,-0.131197
35,25,-1.0472,-0.698132,-0.174533,-0.174533,-1.03606,-0.683202,-0.157144,-0.165786,-1.11367,-0.418038,-0.260835,-0.131197
35,25,-1.0472,-0.698132,-0.174533,-0.174533,-1.03606,-0.683202,-0.157144,-0.165786,-1.11367,-0.418038,-0.260835,-0.131197
35,25,-1.0472,-0.698132,-0.174533,-0.174533,-1.03606,-0.683202,-0.157144,-0.165786,-1.11367,-0.418038,-0.260835,-0.131197
35,25,-1.0472,-0.698132,-0.174533,-0.174533,-1.03606,-0.683202,-0.157144,-0.165786,-1.11367,-0.418038,-0.260835,-0.131197
35,25,-1.0472,-0.698132,-0.174533,-0.174533,-1.03606,-0.683202,-0.157144,-0.165786,-1.11367,-0.418038,-0.260835,-0.131197
35,25,-1.0472,-0.698132,-0.174533,-0.174533,-1.03606,-0.683202,-0.157144,-0.165786,-1.11367,-0.418038,-0.260835,-0.131197
35,25,-1.0472,-0.698132,-0.174533,-0.174533,-1.03606,-0.683202,-0.157144,-0.165786,-1.11367,-0.418038,-0.260835,-0.131197
35,25,-1.0472,-0.698132,-0.174533,-0.174533,-1.03606,-0.683202,-0.157144,-0.165786,-1.11367,-0.418038,-0.260835,-0.131197
35,25,-1.0472,-0.698132,-0.174533,-0.174533,-1.03606,-0.683202,-0.157144,-0.165786,-1.11367,-0.418038,-0.260835,-0.131197
35,25,-1.0472,-0.698132,-0.174533,-0.174533,-1.03606,-0.683202,-0.157144,-0.165786,-1.11367,-0.418038,-0.260835,-0.131197
35,25,-1.0472,-0.698132,-0.174533,-0.174533,-1.03606,-0.683202,-0.157144,-0.165786,-1.11367,-0.418038,-0.260835,-0.131197
35,25,-1.0472,-0.698132,-0.174533,-0.174533,-1.03606,-0.683202,-0.157144,-0.165786,-1.11367,-0.418038,-0.260835,-0.131197
35,25,-1.0472,-0.698132,-0.174533,-0.174533,-1.03606,-0.683202,-0.157144,-0.165786,-1.11367,-0.418038,-0.260835,-0.131197
35,25,-1.0472,-0.698132,-0.174533,-0.174533,-1.03606,-0.683202,-0.157144,-0.165786,-1.11367,-0.418038,-0.260835,-0.131197
35,25,-1.0472,-0.698132,-0.174533,-0.174533,-1.03606,-0.683202,-0.157144,-0.165786,-1.11367,-0.418038,-0.260835,-0.131197
35,25,-1.0472,-0.698132,-0.174533,-0.174533,-1.03606,-0.683202,-0.157144,-0.165786,-1.11367,-0.418038,-0.260835,-0.131197
35,25,-1.0472,-0.698132,-0.174533,-0.174533,-1.03606,-0.683202,-0.157144,-0.165786,-1.11367,-0.418038,-0.260835,-0.131197
35,25,-1.0472,-0.698132,-0.174533,-0.174533,-1.03606,-0.683202,-0.157144,-0.165786,-1.11367,-0.418038,-0.260835,-0.131197
35,25,-1.0472,-0.698132,-0.174533,-0.174533,-1.03606,-0.683202,-0.157144,-0.165786,-1.11367,-0.418038,-0.260835,-0.131197
35,25,-1.0472,-0.698132,-0.174533,-0.174533,-1.03606,-0.683202,-0.157144,-0.165786,-1.11367,-0.418038,-0.260835,-0.131197
35,25,-1.0472,-0.698132,-0.174533,-0.174533,-1.03606,-0.683202,-0.157144,-0.165786,-1.11367,-0.418038,-0.260835,-0.131197
35,25,-1.0472,-0.698132,-0.174533,-0.174533,-1.03606,-0.683202,-0.157144,-0.165786,-1.11367,-0.418038,-0.260835,-0.131197
35,25,-1.0472,-0.698132,-0.174533,-0.174533,-1.03606,-0.683202,-0.157144,-0.165786,-1.11367,-0.418038,-0.260835,-0.131197
35,25,-1.0472,-0.698132,-0.174533,-0.174533,-1.03606,-0.683202,-0.157142,-0.165727,-1.11367,-0.418038,-0.260865,-0.132092
35,25,-1.0472,-0.698132,-0.174533,-0.174533,-1.03606,-0.683202,-0.157142,-0.165727,-1.11367,-0.418038,-0.260865,-0.132092
35,25,-1.0472,-0.698132,-0.174533,-0.174533,-1.03606,-0.683202,-0.157142,-0.165727,-1.11367,-0.418038,-0.260865,-0.132092
35,25,-1.0472,-0.698132,-0.174533,-0.174533,-1.03606,-0.683202,-0.157142,-0.165727,-1.11367,-0.418038,-0.260865,-0.132092
35,25,-1.0472,-0.698132,-0.174533,-0.174533,-1.03606,-0.683202,-0.157142,-0.165727,-1.11367,-0.418038,-0.260865,-0.132092
35,25,-1.0472,-0.698132,-0.174533,-0.174533,-1.03606,-0.683202,-0.157142,-0.165727,-1.11367,-0.418038,-0.260865,-0.132092
35,25,-1.0472,-0.698132,-0.174533,-0.174533,-1.03606,-0.683202,-0.157142,-0.165727,-1.11367,-0.418038,-0.260865,-0.132092
35,25,-1.0472,-0.698132,-0.174533,-0.174533,-1.03606,-0.683202,-0.157142,-0.165727,-1.11367,-0.418038,-0.260865,-0.132092
35,25,-1.0472,-0.698132,-0.174533,-0.174533,-1.03606,-0.683202,-0.157142,-0.165727,-1.11367,-0.418038,-0.260865,-0.132092
35,25,-1.0472,-0.698132,-0.174533,-0.174533,-1.03606,-0.683202,-0.157142,-0.165727,-1.11367,-0.418038,-0.260865,-0.132092
35,25,-1.0472,-0.698132,-0.174533,-0.174533,-1.03606,-0.683202,-0.157142,-0.165727,-1.11367,-0.418038,-0.260865,-0.132092
35,25,-1.0472,-0.698132,-0.174533,-0.174533,-1.03606,-0.683202,-0.157142,-0.165727,-1.11367,-0.418038,-0.260865,-0.132092
35,25,-1.0472,-0.698132,-0.174533,-0.174533,-1.03606,-0.683202,-0.157142,-0.165727,-1.11367,-0.418038,-0.260865,-0.132092
35,25,-1.0472,-0.698132,-0.174533,-0.174533,-1.03606,-0.683202,-0.157142,-0.165727,-1.11367,-0.418038,-0.260865,-0.132092
35,25,-1.0472,-0.698132,-0.174533,-0.174533,-1.03606,-0.683202,-0.157142,-0.165727,-1.11367,-0.418038,-0.260865,-0.132092
35,25,-1.0472,-0.698132,-0.174533,-0.174533,-1.03606,-0.683202,-0.157142,-0.165727,-1.11367,-0.418038,-0.260865,-0.132092
35,25,-1.0472,-0.698132,-0.174533,-0.174533,-1.03606,-0.683202,-0.157142,-0.165727,-1.11367,-0.418038,-0.260865,-0.132092
35,25,-1.0472,-0.698132,-0.174533,-0.174533,-1.03606,-0.683202,-0.157142,-0.165727,-1.11367,-0.418038,-0.260865,-0.132092
35,25,-1.0472,-0.698132,-0.174533,-0.174533,-1.03606,-0.683202,-0.157142,-0.165727,-1.11367,-0.418038,-0.260865,-0.132092
35,25,-1.0472,-0.698132,-0.174533,-0.174533,-1.03606,-0.683202,-0.157142,-0.165727,-1.11367,-0.418038,-0.260865,-0.132092
35,25,-1.0472,-0.698132,-0.174533,-0.174533,-1.03606,-0.683202,-0.157142,-0.165727,-1.11367,-0.418038,-0.260865,-0.132092
35,25,-1.0472,-0.698132,-0.174533,-0.174533,-1.03606,-0.683202,-0.157142,-0.165727,-1.11367,-0.418038,-0.260865,-0.132092
35,25,-1.0472,-0.698132,-0.174533,-0.174533,-1.03606,-0.683202,-0.157142,-0.165727,-1.11367,-0.418038,-0.260865,-0.132092
35,25,-1.0472,-0.698132,-0.174533,-0.174533,-1.03606,-0.683202,-0.157142,-0.165727,-1.11367,-0.418038,-0.260865,-0.132092
35,25,-1.0472,-0.698132,-0.174533,-0.174533,-1.03606,-0.683202,-0.157142,-0.165727,-1.11367,-0.418038,-0.260865,-0.132092
35,25,-1.0472,-0.698132,-0.174533,-0.174533,-1.03606,-0.683202,-0.157142,-0.165727,-1.11367,-0.418038,-0.260865,-0.132092
35,25,-1.0472,-0.698132,-0.174533,-0.174533,-1.03606,-0.683202,-0.157142,-0.165727,-1.11367,-0.418038,-0.260865,-0.132092
35,25,-1.0472,-0.698132,-0.174533,-0.174533,-1.03606,-0.683202,-0.157142,-0.165727,-1.11367,-0.418038,-0.260865,-0.132092
35,25,-1.0472,-0.698132,-0.174533,-0.174533,-1.03606,-0.683202,-0.157142,-0.165727,-1.11367,-0.418038,-0.260865,-0.132092
35,25,-1.0472,-0.698132,-0.174533,-0.174533,-1.03606,-0.683202,-0.157142,-0.165727,-1.11367,-0.418038,-0.260865,-0.132092
35,25,-1.0472,-0.698132,-0.174533,-0.174533,-1.03606,-0.683202,-0.157142,-0.165727,-1.11367,-0.418038,-0.260865,-0.132092
35,25,-1.0472,-0.698132,-0.174533,-0.174533,-1.03606,-0.683202,-0.157142,-0.165727,-1.11367,-0.418038,-0.260865,-0.132092
35,25,-1.0472,-0.698132,-0.174533,-0.174533,-1.03606,-0.683202,-0.157142,-0.165727,-1.11367,-0.418038,-0.260865,-0.132092
35,25,-1.0472,-0.698132,-0.174533,-0.174533,-1.03606,-0.683202,-0.157142,-0.165727,-1.11367,-0.418038,-0.260865,-0.132092
35,25,-1.0472,-0.698132,-0.174533,-0.174533,-1.03606,-0.683202,-0.157142,-0.165727,-1.11367,-0.418038,-0.260865,-0.132092
35,25,-1.0472,-0.698132,-0.174533,-0.174533,-1.03606,-0.683202,-0.157142,-0.165727,-1.11367,-0.418038,-0.260865,-0.132092
35,25,-1.0472,-0.698132,-0.174533,-0.174533,-1.03606,-0.683202,-0.157142,-0.165727,-1.11367,-0.418038,-0.260865,-0.132092
35,25,-1.0472,-0.698132,-0.174533,-0.174533,-1.03606,-0.683202,-0.157142,-0.165727,-1.11367,-0.418038,-0.260865,-0.132092
35,25,-1.0472,-0.698132,-0.174533,-0.174533,-1.03606,-0.683202,-0.157142,-0.165727,-1.11367,-0.418038,-0.260865,-0.132092
35,25,-1.0472,-0.698132,-0.174533,-0.174533,-1.03606,-0.683202,-0.157142,-0.165727,-1.11367,-0.418038,-0.260865,-0.132092
35,25,-1.0472,-0.698132,-0.174533,-0.174533,-1.03606,-0.683202,-0.157142,-0.165727,-1.11367,-0.418038,-0.260865,-0.132092
35,25,-1.0472,-0.698132,-0.174533,-0.174533,-1.03606,-0.683202,-0.157142,-0.165727,-1.11367,-0.418038,-0.260865,-0.132092
35,25,-1.0472,-0.698132,-0.174533,-0.174533,-1.03606,-0.683202,-0.157142,-0.165727,-1.11367,-0.418038,-0.260865,-0.132092
35,25,-1.0472,-0.698132,-0.174533,-0.174533,-1.03606,-0.683202,-0.157142,-0.165727,-1.11367,-0.418038,-0.260865,-0.132092
35,25,-1.0472,-0.698132,-0.174533,-0.174533,-1.03606,-0.683202,-0.157142,-0.165727,-1.11367,-0.418038,-0.260865,-0.132092
35,25,-1.0472,-0.698132,-0.174533,-0.174533,-1.03606,-0.683202,-0.157142,-0.165727,-1.11367,-0.418038,-0.260865,-0.132092
35,25,-1.0472,-0.698132,-0.174533,-0.174533,-1.03606,-0.683202,-0.157142,-0.165727,-1.11367,-0.418038,-0.260865,-0.132092
35,25,-1.0472,-0.698132,-0.174533,-0.174533,-1.03606,-0.683202,-0.157142,-0.165727,-1.11367,-0.418038,-0.260865,-0.132092
35,25,-1.0472,-0.698132,-0.174533,-0.174533,-1.03606,-0.683202,-0.157142,-0.165727,-1.11367,-0.418038,-0.260865,-0.132092
35,25,-1.0472,-0.698132,-0.174533,-0.174533,-1.03606,-0.683202,-0.157142,-0.165727,-1.11367,-0.418038,-0.260865,-0.132092
35,25,-1.0472,-0.698132,-0.174533,-0.174533,-1.03606,-0.683202,-0.157142,-0.165727,-1.11367,-0.418038,-0.260865,-0.132092
35,25,-1.0472,-0.698132,-0.174533,-0.174533,-1.03606,-0.683202,-0.157142,-0.165727,-1.11367,-0.418038,-0.260865,-0.132092
35,25,-1.0472,-0.698132,-0.174533,-0.174533,-1.03606,-0.683202,-0.157142,-0.165727,-1.11367,-0.418038,-0.260865,-0.132092
35,25,-1.0472,-0.698132,-0.174533,-0.174533,-1.03606,-0.683202,-0.157142,-0.165727,-1.11367,-0.418038,-0.260865,-0.132092
35,25,-1.0472,-0.698132,-0.174533,-0.174533,-1.03606,-0.683202,-0.157142,-0.165727,-1.11367,-0.418038,-0.260865,-0.132092
35,25,-1.0472,-0.698132,-0.174533,-0.174533,-1.03606,-0.683202,-0.157142,-0.165727,-1.11367,-0.418038,-0.260865,-0.132092
35,25,-1.0472,-0.698132,-0.174533,-0.174533,-1.03606,-0.683202,-0.157142,-0.165727,-1.11367,-0.418038,-0.260865,-0.132092
35,25,-1.0472,-0.698132,-0.174533,-0.174533,-1.03606,-0.683202,-0.157142,-0.165727,-1.11367,-0.418038,-0.260865,-0.132092
35,25,-1.0472,-0.698132,-0.174533,-0.174533,-1.03606,-0.683202,-0.157142,-0.165727,-1.11367,-0.418038,-0.260865,-0.132092
35,25,-1.0472,-0.698132,-0.174533,-0.174533,-1.03606,-0.683202,-0.157142,-0.165727,-1.11367,-0.418038,-0.260865,-0.132092
35,25,-1.0472,-0.698132,-0.174533,-0.174533,-1.03606,-0.683202,-0.157142,-0.165727,-1.11367,-0.418038,-0.260865,-0.132092
35,25,-1.0472,-0.698132,-0.174533,-0.174533,-1.03606,-0.683202,-0.157142,-0.165727,-1.11367,-0.418038,-0.260865,-0.132092
35,25,-1.0472,-0.698132,-0.174533,-0.174533,-1.03606,-0.683202,-0.157142,-0.165727,-1.11367,-0.418038,-0.260865,-0.132092
35,25,-1.0472,-0.698132,-0.174533,-0.174533,-1.03606,-0.683202,-0.157142,-0.165727,-1.11367,-0.418038,-0.260865,-0.132092
35,25,-1.0472,-0.698132,-0.174533,-0.174533,-1.03606,-0.683202,-0.157142,-0.165727,-1.11367,-0.418038,-0.260865,-0.132092
35,25,-1.0472,-0.698132,-0.174533,-0.174533,-1.03606,-0.683202,-0.157142,-0.165727,-1.11367,-0.418038,-0.260865,-0.132092
35,25,-1.0472,-0.698132,-0.174533,-0.174533,-1.03606,-0.683202,-0.157142,-0.165727,-1.11367,-0.418038,-0.260865,-0.132092
35,25,-1.0472,-0.698132,-0.174533,-0.174533,-1.03606,-0.683202,-0.157142,-0.165727,-1.11367,-0.418038,-0.260865,-0.132092
35,25,-1.0472,-0.698132,-0.174533,-0.174533,-1.03606,-0.683202,-0.157142,-0.165727,-1.11367,-0.418038,-0.260865,-0.132092
35,25,-1.0472,-0.698132,-0.174533,-0.174533,-1.03606,-0.683202,-0.157142,-0.165727,-1.11367,-0.418038,-0.260865,-0.132092
35,25,-1.0472,-0.698132,-0.174533,-0.174533,-1.03606,-0.683202,-0.157142,-0.165727,-1.11367,-0.418038,-0.260865,-0.132092
35,25,-1.0472,-0.698132,-0.174533,-0.174533,-1.03606,-0.683202,-0.157142,-0.165727,-1.11367,-0.418038,-0.260865,-0.132092
35,25,-1.0472,-0.698132,-0.174533,-0.174533,-1.03606,-0.683202,-0.157142,-0.165727,-1.11367,-0.418038,-0.260865,-0.132092
35,25,-1.0472,-0.698132,-0.174533,-0.174533,-1.03606,-0.683202,-0.157142,-0.165727,-1.11367,-0.418038,-0.260865,-0.132092
35,25,-1.0472,-0.698132,-0.174533,-0.174533,-1.03606,-0.683202,-0.157142,-0.165727,-1.11367,-0.418038,-0.260865,-0.132092
35,25,-1.0472,-0.698132,-0.174533,-0.174533,-1.03606,-0.683202,-0.157142,-0.165727,-1.11367,-0.418038,-0.260865,-0.132092
35,25,-1.0472,-0.698132,-0.174533,-0.174533,-1.03606,-0.683202,-0.157142,-0.165727,-1.11367,-0.418038,-0.260865,-0.132092
35,25,-1.0472,-0.698132,-0.174533,-0.174533,-1.03606,-0.683202,-0.157142,-0.165727,-1.11367,-0.418038,-0.260865,-0.132092
35,25,-1.0472,-0.698132,-0.174533,-0.174533,-1.03606,-0.683202,-0.157142,-0.165727,-1.11367,-0.418038,-0.260865,-0.132092
35,25,-1.0472,-0.698132,-0.174533,-0.174533,-1.03606,-0.683202,-0.157142,-0.165727,-1.11367,-0.418038,-0.260865,-0.132092
35,25,-1.0472,-0.698132,-0.174533,-0.174533,-1.03606,-0.683202,-0.157142,-0.165727,-1.11367,-0.418038,-0.260865,-0.132092
35,25,-1.0472,-0.698132,-0.174533,-0.174533,-1.03606,-0.683202,-0.157142,-0.165727,-1.11367,-0.418038,-0.260865,-0.132092
35,25,-1.0472,-0.698132,-0.174533,-0.174533,-1.03606,-0.683202,-0.157142,-0.165727,-1.11367,-0.418038,-0.260865,-0.132092
35,25,-1.0472,-0.698132,-0.174533,-0.174533,-1.03606,-0.683202,-0.157142,-0.165727,-1.11367,-0.418038,-0.260865,-0.132092
35,25,-1.0472,-0.698132,-0.174533,-0.174533,-1.03606,-0.683202,-0.157142,-0.165727,-1.11367,-0.418038,-0.260865,-0.132092
35,25,-1.0472,-0.698132,-0.174533,-0.174533,-1.03606,-0.683202,-0.157142,-0.165727,-1.11367,-0.418038,-0.260865,-0.132092
35,25,-1.0472,-0.698132,-0.174533,-0.174533,-1.03606,-0.683202,-0.157142,-0.165727,-1.11367,-0.418038,-0.260865,-0.132092
35,25,-1.0472,-0.698132,-0.174533,-0.174533,-1.03606,-0.683202,-0.157142,-0.165727,-1.11367,-0.418038,-0.260865,-0.132092
35,25,-1.0472,-0.698132,-0.174533,-0.174533,-1.03606,-0.683202,-0.157142,-0.165727,-1.11367,-0.418038,-0.260865,-0.132092
35,25,-1.0472,-0.698132,-0.174533,-0.174533,-1.03606,-0.683202,-0.157142,-0.165727,-1.11367,-0.418038,-0.260865,-0.132092
35,25,-1.0472,-0.698132,-0.174533,-0.174533,-1.03606,-0.683202,-0.157142,-0.165727,-1.11367,-0.418038,-0.260865,-0.132092
35,25,-1.0472,-0.698132,-0.174533,-0.174533,-1.03606,-0.683202,-0.157142,-0.165727,-1.11367,-0.418038,-0.260865,-0.132092
35,25,-1.0472,-0.698132,-0.174533,-0.174533,-1.03606,-0.683202,-0.157142,-0.165727,-1.11367,-0.418038,-0.260865,-0.132092
35,25,-1.0472,-0.698132,-0.174533,-0.174533,-1.03606,-0.683202,-0.157142,-0.165727,-1.11367,-0.418038,-0.260865,-0.132092
35,25,-1.0472,-0.698132,-0.174533,-0.174533,-1.03606,-0.683202,-0.157142,-0.165727,-1.11367,-0.418038,-0.260865,-0.132092
35,25,-1.0472,-0.698132,-0.174533,-0.174533,-1.03606,-0.683202,-0.157142,-0.165727,-1.11367,-0.418038,-0.260865,-0.132092
35,25,-1.0472,-0.698132,-0.174533,-0.174533,-1.03606,-0.683202,-0.157142,-0.165727,-1.11367,-0.418038,-0.260865,-0.132092
35,25,-1.0472,-0.698132,-0.174533,-0.174533,-1.03606,-0.683202,-0.157142,-0.165727,-1.11367,-0.418038,-0.260865,-0.132092
35,25,-1.0472,-0.698132,-0.174533,-0.174533,-1.03606,-0.683202,-0.157142,-0.165727,-1.11367,-0.418038,-0.260865,-0.132092
35,25,-1.0472,-0.698132,-0.174533,-0.174533,-1.03606,-0.683202,-0.157142,-0.165727,-1.11367,-0.418038,-0.260865,-0.132092
35,25,-1.0472,-0.698132,-0.174533,-0.174533,-1.03606,-0.683202,-0.157142,-0.165727,-1.11367,-0.418038,-0.260865,-0.132092
35,25,-1.0472,-0.698132,-0.174533,-0.174533,-1.03606,-0.683202,-0.157142,-0.165727,-1.11367,-0.418038,-0.260865,-0.132092
35,25,-1.0472,-0.698132,-0.174533,-0.174533,-1.03606,-0.683202,-0.157142,-0.165727,-1.11367,-0.418038,-0.260865,-0.132092
35,25,-1.0472,-0.698132,-0.174533,-0.174533,-1.03606,-0.683202,-0.157142,-0.165727,-1.11367,-0.418038,-0.260865,-0.132092
35,25,-1.0472,-0.698132,-0.174533,-0.174533,-1.03606,-0.683202,-0.157142,-0.165727,-1.11367,-0.418038,-0.260865,-0.132092
35,25,-1.0472,-0.698132,-0.174533,-0.174533,-1.03606,-0.683202,-0.157142,-0.165727,-1.11367,-0.418038,-0.260865,-0.132092
35,25,-1.0472,-0.698132,-0.174533,-0.174533,-1.03606,-0.683202,-0.157142,-0.165727,-1.11367,-0.418038,-0.260865,-0.132092
