stim_pw [us],stim_amp [mA],com_elbow_fe [rad],com_forearm_ps [rad],com_wrist_fe [rad],com_wrist_ru [rad],act_elbow_fe [rad],act_forearm_ps [rad],act_wrist_fe [rad],act_wrist_ru [rad],elbow_fe_trq [Nm],forearm_ps_trq [Nm],wrist_fe_trq [Nm],wrist_ru_trq [Nm]
29,65,-1.22173,-0.814493,-0.174533,-0.174533,-1.19992,-0.797645,-0.144893,-0.161517,-2.18098,-0.47174,-0.444652,-0.195272
29,65,-1.22173,-0.814493,-0.174533,-0.174533,-1.19992,-0.797645,-0.144893,-0.161517,-2.18098,-0.47174,-0.444652,-0.195272
29,65,-1.22173,-0.814493,-0.174533,-0.174533,-1.19992,-0.797645,-0.14483,-0.161476,-2.18098,-0.47174,-0.445581,-0.195878
29,65,-1.22173,-0.814493,-0.174533,-0.174533,-1.19992,-0.797645,-0.14483,-0.161476,-2.18098,-0.47174,-0.445581,-0.195878
29,65,-1.22173,-0.814493,-0.174533,-0.174533,-1.19992,-0.797645,-0.14483,-0.161476,-2.18098,-0.47174,-0.445581,-0.195878
29,65,-1.22173,-0.814493,-0.174533,-0.174533,-1.19992,-0.797645,-0.14483,-0.161476,-2.18098,-0.47174,-0.445581,-0.195878
29,65,-1.22173,-0.814493,-0.174533,-0.174533,-1.19992,-0.797645,-0.14483,-0.161476,-2.18098,-0.47174,-0.445581,-0.195878
29,65,-1.22173,-0.814493,-0.174533,-0.174533,-1.19992,-0.797645,-0.14483,-0.161476,-2.18098,-0.47174,-0.445581,-0.195878
29,65,-1.22173,-0.814493,-0.174533,-0.174533,-1.19992,-0.797645,-0.14483,-0.161476,-2.18098,-0.47174,-0.445581,-0.195878
29,65,-1.22173,-0.814493,-0.174533,-0.174533,-1.19992,-0.797645,-0.14483,-0.161476,-2.18098,-0.47174,-0.445581,-0.195878
29,65,-1.22173,-0.814493,-0.174533,-0.174533,-1.19992,-0.797645,-0.14483,-0.161476,-2.18098,-0.47174,-0.445581,-0.195878
29,65,-1.22173,-0.814493,-0.174533,-0.174533,-1.19992,-0.797645,-0.14483,-0.161476,-2.18098,-0.47174,-0.445581,-0.195878
29,65,-1.22173,-0.814493,-0.174533,-0.174533,-1.19992,-0.797645,-0.14483,-0.161476,-2.18098,-0.47174,-0.445581,-0.195878
29,65,-1.22173,-0.814493,-0.174533,-0.174533,-1.19992,-0.797645,-0.14483,-0.161476,-2.18098,-0.47174,-0.445581,-0.195878
29,65,-1.22173,-0.814493,-0.174533,-0.174533,-1.19992,-0.797645,-0.14483,-0.161476,-2.18098,-0.47174,-0.445581,-0.195878
29,65,-1.22173,-0.814493,-0.174533,-0.174533,-1.19992,-0.797645,-0.14483,-0.161476,-2.18098,-0.47174,-0.445581,-0.195878
29,65,-1.22173,-0.814493,-0.174533,-0.174533,-1.19992,-0.797645,-0.14483,-0.161476,-2.18098,-0.47174,-0.445581,-0.195878
29,65,-1.22173,-0.814493,-0.174533,-0.174533,-1.19992,-0.797645,-0.14483,-0.161476,-2.18098,-0.47174,-0.445581,-0.195878
29,65,-1.22173,-0.814493,-0.174533,-0.174533,-1.19992,-0.797645,-0.14483,-0.161476,-2.18098,-0.47174,-0.445581,-0.195878
29,65,-1.22173,-0.814493,-0.174533,-0.174533,-1.19992,-0.797645,-0.14483,-0.161476,-2.18098,-0.47174,-0.445581,-0.195878
29,65,-1.22173,-0.814493,-0.174533,-0.174533,-1.19992,-0.797645,-0.14483,-0.161476,-2.18098,-0.47174,-0.445581,-0.195878
29,65,-1.22173,-0.814493,-0.174533,-0.174533,-1.19992,-0.797645,-0.14483,-0.161476,-2.18098,-0.47174,-0.445581,-0.195878
29,65,-1.22173,-0.814493,-0.174533,-0.174533,-1.19992,-0.797645,-0.14483,-0.161476,-2.18098,-0.47174,-0.445581,-0.195878
29,65,-1.22173,-0.814493,-0.174533,-0.174533,-1.19992,-0.797645,-0.14483,-0.161476,-2.18098,-0.47174,-0.445581,-0.195878
29,65,-1.22173,-0.814493,-0.174533,-0.174533,-1.19992,-0.797645,-0.14483,-0.161476,-2.18098,-0.47174,-0.445581,-0.195878
29,65,-1.22173,-0.814493,-0.174533,-0.174533,-1.19992,-0.797645,-0.14483,-0.161476,-2.18098,-0.47174,-0.445581,-0.195878
29,65,-1.22173,-0.814493,-0.174533,-0.174533,-1.19992,-0.797645,-0.14483,-0.161476,-2.18098,-0.47174,-0.445581,-0.195878
29,65,-1.22173,-0.814493,-0.174533,-0.174533,-1.19992,-0.797645,-0.14483,-0.161476,-2.18098,-0.47174,-0.445581,-0.195878
29,65,-1.22173,-0.814493,-0.174533,-0.174533,-1.19992,-0.797645,-0.14483,-0.161476,-2.18098,-0.47174,-0.445581,-0.195878
29,65,-1.22173,-0.814493,-0.174533,-0.174533,-1.19992,-0.797645,-0.14483,-0.161476,-2.18098,-0.47174,-0.445581,-0.195878
29,65,-1.22173,-0.814493,-0.174533,-0.174533,-1.19992,-0.797645,-0.14483,-0.161476,-2.18098,-0.47174,-0.445581,-0.195878
29,65,-1.22173,-0.814493,-0.174533,-0.174533,-1.19992,-0.797645,-0.14483,-0.161476,-2.18098,-0.47174,-0.445581,-0.195878
29,65,-1.22173,-0.814493,-0.174533,-0.174533,-1.19992,-0.797645,-0.14483,-0.161476,-2.18098,-0.47174,-0.445581,-0.195878
29,65,-1.22173,-0.814493,-0.174533,-0.174533,-1.19992,-0.797645,-0.14483,-0.161476,-2.18098,-0.47174,-0.445581,-0.195878
29,65,-1.22173,-0.814493,-0.174533,-0.174533,-1.19992,-0.797645,-0.14483,-0.161476,-2.18098,-0.47174,-0.445581,-0.195878
29,65,-1.22173,-0.814493,-0.174533,-0.174533,-1.19992,-0.797645,-0.14483,-0.161476,-2.18098,-0.47174,-0.445581,-0.195878
29,65,-1.22173,-0.814493,-0.174533,-0.174533,-1.19992,-0.797645,-0.14483,-0.161476,-2.18098,-0.47174,-0.445581,-0.195878
29,65,-1.22173,-0.814493,-0.174533,-0.174533,-1.19992,-0.797645,-0.14483,-0.161476,-2.18098,-0.47174,-0.445581,-0.195878
29,65,-1.22173,-0.814493,-0.174533,-0.174533,-1.19992,-0.797645,-0.14483,-0.161476,-2.18098,-0.47174,-0.445581,-0.195878
29,65,-1.22173,-0.814493,-0.174533,-0.174533,-1.19992,-0.797645,-0.14483,-0.161476,-2.18098,-0.47174,-0.445581,-0.195878
29,65,-1.22173,-0.814493,-0.174533,-0.174533,-1.19992,-0.797645,-0.14483,-0.161476,-2.18098,-0.47174,-0.445581,-0.195878
29,65,-1.22173,-0.814493,-0.174533,-0.174533,-1.19992,-0.797645,-0.14483,-0.161476,-2.18098,-0.47174,-0.445581,-0.195878
29,65,-1.22173,-0.814493,-0.174533,-0.174533,-1.19992,-0.797645,-0.14483,-0.161476,-2.18098,-0.47174,-0.445581,-0.195878
29,65,-1.22173,-0.814493,-0.174533,-0.174533,-1.19992,-0.797645,-0.14483,-0.161476,-2.18098,-0.47174,-0.445581,-0.195878
29,65,-1.22173,-0.814493,-0.174533,-0.174533,-1.19992,-0.797645,-0.14483,-0.161476,-2.18098,-0.47174,-0.445581,-0.195878
29,65,-1.22173,-0.814493,-0.174533,-0.174533,-1.19992,-0.797645,-0.14483,-0.161476,-2.18098,-0.47174,-0.445581,-0.195878
29,65,-1.22173,-0.814493,-0.174533,-0.174533,-1.19992,-0.797645,-0.14483,-0.161476,-2.18098,-0.47174,-0.445581,-0.195878
29,65,-1.22173,-0.814493,-0.174533,-0.174533,-1.19992,-0.797645,-0.14483,-0.161476,-2.18098,-0.47174,-0.445581,-0.195878
29,65,-1.22173,-0.814493,-0.174533,-0.174533,-1.19992,-0.797645,-0.14483,-0.161476,-2.18098,-0.47174,-0.445581,-0.195878
29,65,-1.22173,-0.814493,-0.174533,-0.174533,-1.19992,-0.797645,-0.14483,-0.161476,-2.18098,-0.47174,-0.445581,-0.195878
29,65,-1.22173,-0.814493,-0.174533,-0.174533,-1.19992,-0.797645,-0.14483,-0.161476,-2.18098,-0.47174,-0.445581,-0.195878
29,65,-1.22173,-0.814493,-0.174533,-0.174533,-1.19992,-0.797645,-0.14483,-0.161476,-2.18098,-0.47174,-0.445581,-0.195878
29,65,-1.22173,-0.814493,-0.174533,-0.174533,-1.19992,-0.797645,-0.14483,-0.161476,-2.18098,-0.47174,-0.445581,-0.195878
29,65,-1.22173,-0.814493,-0.174533,-0.174533,-1.19992,-0.797645,-0.14483,-0.161476,-2.18098,-0.47174,-0.445581,-0.195878
29,65,-1.22173,-0.814493,-0.174533,-0.174533,-1.19992,-0.797645,-0.14483,-0.161476,-2.18098,-0.47174,-0.445581,-0.195878
29,65,-1.22173,-0.814493,-0.174533,-0.174533,-1.19992,-0.797645,-0.14483,-0.161476,-2.18098,-0.47174,-0.445581,-0.195878
29,65,-1.22173,-0.814493,-0.174533,-0.174533,-1.19992,-0.797645,-0.14483,-0.161476,-2.18098,-0.47174,-0.445581,-0.195878
29,65,-1.22173,-0.814493,-0.174533,-0.174533,-1.19992,-0.797645,-0.14483,-0.161476,-2.18098,-0.47174,-0.445581,-0.195878
29,65,-1.22173,-0.814493,-0.174533,-0.174533,-1.19992,-0.797645,-0.14483,-0.161476,-2.18098,-0.47174,-0.445581,-0.195878
29,65,-1.22173,-0.814493,-0.174533,-0.174533,-1.19992,-0.797645,-0.14483,-0.161476,-2.18098,-0.47174,-0.445581,-0.195878
29,65,-1.22173,-0.814493,-0.174533,-0.174533,-1.19992,-0.797645,-0.14483,-0.161476,-2.18098,-0.47174,-0.44558,-0.195877
29,65,-1.22173,-0.814493,-0.174533,-0.174533,-1.19992,-0.797645,-0.14483,-0.161476,-2.18098,-0.47174,-0.44558,-0.195877
29,65,-1.22173,-0.814493,-0.174533,-0.174533,-1.19992,-0.797645,-0.14483,-0.161476,-2.18098,-0.47174,-0.445579,-0.195876
29,65,-1.22173,-0.814493,-0.174533,-0.174533,-1.19992,-0.797645,-0.14483,-0.161476,-2.18098,-0.47174,-0.445578,-0.195876
29,65,-1.22173,-0.814493,-0.174533,-0.174533,-1.19992,-0.797645,-0.14483,-0.161476,-2.18098,-0.47174,-0.445577,-0.195875
29,65,-1.22173,-0.814493,-0.174533,-0.174533,-1.19992,-0.797645,-0.14483,-0.161476,-2.18098,-0.47174,-0.445577,-0.195875
29,65,-1.22173,-0.814493,-0.174533,-0.174533,-1.19992,-0.797645,-0.14483,-0.161476,-2.18098,-0.47174,-0.445576,-0.195875
29,65,-1.22173,-0.814493,-0.174533,-0.174533,-1.19992,-0.797645,-0.14483,-0.161476,-2.18098,-0.47174,-0.445576,-0.195874
29,65,-1.22173,-0.814493,-0.174533,-0.174533,-1.19992,-0.797645,-0.14483,-0.161476,-2.18098,-0.47174,-0.445575,-0.195874
29,65,-1.22173,-0.814493,-0.174533,-0.174533,-1.19992,-0.797645,-0.14483,-0.161476,-2.18098,-0.47174,-0.445574,-0.195873
29,65,-1.22173,-0.814493,-0.174533,-0.174533,-1.19992,-0.797645,-0.14483,-0.161476,-2.18098,-0.47174,-0.445574,-0.195873
29,65,-1.22173,-0.814493,-0.174533,-0.174533,-1.19992,-0.797645,-0.14483,-0.161476,-2.18098,-0.47174,-0.445573,-0.195873
29,65,-1.22173,-0.814493,-0.174533,-0.174533,-1.19992,-0.797645,-0.14483,-0.161476,-2.18098,-0.47174,-0.445573,-0.195872
29,65,-1.22173,-0.814493,-0.174533,-0.174533,-1.19992,-0.797645,-0.14483,-0.161476,-2.18098,-0.47174,-0.445572,-0.195872
29,65,-1.22173,-0.814493,-0.174533,-0.174533,-1.19992,-0.797645,-0.14483,-0.161476,-2.18098,-0.47174,-0.445572,-0.195872
29,65,-1.22173,-0.814493,-0.174533,-0.174533,-1.19992,-0.797645,-0.14483,-0.161476,-2.18098,-0.47174,-0.445571,-0.195871
29,65,-1.22173,-0.814493,-0.174533,-0.174533,-1.19992,-0.797645,-0.14483,-0.161476,-2.18098,-0.47174,-0.445571,-0.195871
29,65,-1.22173,-0.814493,-0.174533,-0.174533,-1.19992,-0.797645,-0.14483,-0.161476,-2.18098,-0.47174,-0.445571,-0.195871
29,65,-1.22173,-0.814493,-0.174533,-0.174533,-1.19992,-0.797645,-0.14483,-0.161476,-2.18098,-0.47174,-0.44557,-0.195871
29,65,-1.22173,-0.814493,-0.174533,-0.174533,-1.19992,-0.797645,-0.14483,-0.161476,-2.18098,-0.47174,-0.44557,-0.19587
29,65,-1.22173,-0.814493,-0.174533,-0.174533,-1.19992,-0.797645,-0.144768,-0.161435,-2.18098,-0.47174,-0.446479,-0.196464
29,65,-1.22173,-0.814493,-0.174533,-0.174533,-1.19992,-0.797645,-0.144768,-0.161435,-2.18098,-0.47174,-0.446479,-0.196464
29,65,-1.22173,-0.814493,-0.174533,-0.174533,-1.19992,-0.797645,-0.144768,-0.161435,-2.18098,-0.47174,-0.446479,-0.196464
29,65,-1.22173,-0.814493,-0.174533,-0.174533,-1.19992,-0.797645,-0.144768,-0.161435,-2.18098,-0.47174,-0.446479,-0.196464
29,65,-1.22173,-0.814493,-0.174533,-0.174533,-1.19992,-0.797645,-0.144768,-0.161435,-2.18098,-0.47174,-0.446479,-0.196464
29,65,-1.22173,-0.814493,-0.174533,-0.174533,-1.19992,-0.797645,-0.144768,-0.161435,-2.18098,-0.47174,-0.446479,-0.196464
29,65,-1.22173,-0.814493,-0.174533,-0.174533,-1.19992,-0.797645,-0.144768,-0.161435,-2.18098,-0.47174,-0.446479,-0.196464
29,65,-1.22173,-0.814493,-0.174533,-0.174533,-1.19992,-0.797645,-0.144768,-0.161435,-2.18098,-0.47174,-0.446479,-0.196464
29,65,-1.22173,-0.814493,-0.174533,-0.174533,-1.19992,-0.797645,-0.144768,-0.161435,-2.18098,-0.47174,-0.446479,-0.196464
29,65,-1.22173,-0.814493,-0.174533,-0.174533,-1.19992,-0.797645,-0.144768,-0.161435,-2.18098,-0.47174,-0.446479,-0.196464
29,65,-1.22173,-0.814493,-0.174533,-0.174533,-1.19992,-0.797645,-0.144768,-0.161435,-2.18098,-0.47174,-0.446479,-0.196464
29,65,-1.22173,-0.814493,-0.174533,-0.174533,-1.19992,-0.797645,-0.144768,-0.161435,-2.18098,-0.47174,-0.446479,-0.196464
29,65,-1.22173,-0.814493,-0.174533,-0.174533,-1.19992,-0.797645,-0.144768,-0.161435,-2.18098,-0.47174,-0.446479,-0.196464
29,65,-1.22173,-0.814493,-0.174533,-0.174533,-1.19992,-0.797645,-0.144768,-0.161435,-2.18098,-0.47174,-0.446479,-0.196464
29,65,-1.22173,-0.814493,-0.174533,-0.174533,-1.19992,-0.797645,-0.144768,-0.161435,-2.18098,-0.47174,-0.446479,-0.196464
29,65,-1.22173,-0.814493,-0.174533,-0.174533,-1.19992,-0.797645,-0.144768,-0.161435,-2.18098,-0.47174,-0.446479,-0.196464
29,65,-1.22173,-0.814493,-0.174533,-0.174533,-1.19992,-0.797645,-0.144768,-0.161435,-2.18098,-0.47174,-0.446479,-0.196464
29,65,-1.22173,-0.814493,-0.174533,-0.174533,-1.19992,-0.797645,-0.144768,-0.161435,-2.18098,-0.47174,-0.446479,-0.196464
29,65,-1.22173,-0.814493,-0.174533,-0.174533,-1.19992,-0.797645,-0.144768,-0.161435,-2.18098,-0.47174,-0.446479,-0.196464
29,65,-1.22173,-0.814493,-0.174533,-0.174533,-1.19992,-0.797645,-0.144768,-0.161435,-2.18098,-0.47174,-0.446479,-0.196464
29,65,-1.22173,-0.814493,-0.174533,-0.174533,-1.19992,-0.797645,-0.144768,-0.161435,-2.18098,-0.47174,-0.446479,-0.196464
29,65,-1.22173,-0.814493,-0.174533,-0.174533,-1.19992,-0.797645,-0.144768,-0.161435,-2.18098,-0.47174,-0.446479,-0.196464
29,65,-1.22173,-0.814493,-0.174533,-0.174533,-1.19992,-0.797645,-0.144768,-0.161435,-2.18098,-0.47174,-0.446479,-0.196464
29,65,-1.22173,-0.814493,-0.174533,-0.174533,-1.19992,-0.797645,-0.144768,-0.161435,-2.18098,-0.47174,-0.446479,-0.196464
29,65,-1.22173,-0.814493,-0.174533,-0.174533,-1.19992,-0.797645,-0.144768,-0.161435,-2.18098,-0.47174,-0.446479,-0.196464
29,65,-1.22173,-0.814493,-0.174533,-0.174533,-1.19992,-0.797645,-0.144768,-0.161435,-2.18098,-0.47174,-0.446479,-0.196464
29,65,-1.22173,-0.814493,-0.174533,-0.174533,-1.19992,-0.797645,-0.144768,-0.161435,-2.18098,-0.47174,-0.446479,-0.196464
29,65,-1.22173,-0.814493,-0.174533,-0.174533,-1.19992,-0.797645,-0.144768,-0.161435,-2.18098,-0.47174,-0.446479,-0.196464
29,65,-1.22173,-0.814493,-0.174533,-0.174533,-1.19992,-0.797645,-0.144768,-0.161435,-2.18098,-0.47174,-0.446479,-0.196464
29,65,-1.22173,-0.814493,-0.174533,-0.174533,-1.19992,-0.797645,-0.144768,-0.161435,-2.18098,-0.47174,-0.446479,-0.196464
29,65,-1.22173,-0.814493,-0.174533,-0.174533,-1.19992,-0.797645,-0.144768,-0.161435,-2.18098,-0.47174,-0.446479,-0.196464
29,65,-1.22173,-0.814493,-0.174533,-0.174533,-1.19992,-0.797645,-0.144768,-0.161435,-2.18098,-0.47174,-0.446479,-0.196464
29,65,-1.22173,-0.814493,-0.174533,-0.174533,-1.19992,-0.797645,-0.144768,-0.161435,-2.18098,-0.47174,-0.446479,-0.196464
29,65,-1.22173,-0.814493,-0.174533,-0.174533,-1.19992,-0.797645,-0.144768,-0.161435,-2.18098,-0.47174,-0.446479,-0.196464
29,65,-1.22173,-0.814493,-0.174533,-0.174533,-1.19992,-0.797645,-0.144768,-0.161435,-2.18098,-0.47174,-0.446479,-0.196464
29,65,-1.22173,-0.814493,-0.174533,-0.174533,-1.19992,-0.797645,-0.144768,-0.161435,-2.18098,-0.47174,-0.446479,-0.196464
29,65,-1.22173,-0.814493,-0.174533,-0.174533,-1.19992,-0.797645,-0.144768,-0.161435,-2.18098,-0.47174,-0.446479,-0.196464
29,65,-1.22173,-0.814493,-0.174533,-0.174533,-1.19992,-0.797645,-0.144768,-0.161435,-2.18098,-0.47174,-0.446479,-0.196464
29,65,-1.22173,-0.814493,-0.174533,-0.174533,-1.19992,-0.797645,-0.144768,-0.161435,-2.18098,-0.47174,-0.446479,-0.196464
29,65,-1.22173,-0.814493,-0.174533,-0.174533,-1.19992,-0.797645,-0.144769,-0.161495,-2.18098,-0.47174,-0.446458,-0.19557
29,65,-1.22173,-0.814493,-0.174533,-0.174533,-1.19992,-0.797645,-0.144769,-0.161495,-2.18098,-0.47174,-0.446458,-0.19557
29,65,-1.22173,-0.814493,-0.174533,-0.174533,-1.19992,-0.797645,-0.144769,-0.161495,-2.18098,-0.47174,-0.446458,-0.19557
29,65,-1.22173,-0.814493,-0.174533,-0.174533,-1.19992,-0.797645,-0.144769,-0.161495,-2.18098,-0.47174,-0.446458,-0.19557
29,65,-1.22173,-0.814493,-0.174533,-0.174533,-1.19992,-0.797645,-0.144769,-0.161495,-2.18098,-0.47174,-0.446458,-0.19557
29,65,-1.22173,-0.814493,-0.174533,-0.174533,-1.19992,-0.797645,-0.144769,-0.161495,-2.18098,-0.47174,-0.446458,-0.19557
29,65,-1.22173,-0.814493,-0.174533,-0.174533,-1.19992,-0.797645,-0.144769,-0.161495,-2.18098,-0.47174,-0.446458,-0.19557
29,65,-1.22173,-0.814493,-0.174533,-0.174533,-1.19992,-0.797645,-0.144769,-0.161495,-2.18098,-0.47174,-0.446458,-0.19557
29,65,-1.22173,-0.814493,-0.174533,-0.174533,-1.19992,-0.797645,-0.144769,-0.161495,-2.18098,-0.47174,-0.446458,-0.19557
29,65,-1.22173,-0.814493,-0.174533,-0.174533,-1.19992,-0.797645,-0.144769,-0.161495,-2.18098,-0.47174,-0.446458,-0.19557
29,65,-1.22173,-0.814493,-0.174533,-0.174533,-1.19992,-0.797645,-0.144769,-0.161495,-2.18098,-0.47174,-0.446458,-0.19557
29,65,-1.22173,-0.814493,-0.174533,-0.174533,-1.19992,-0.797645,-0.144769,-0.161495,-2.18098,-0.47174,-0.446458,-0.19557
29,65,-1.22173,-0.814493,-0.174533,-0.174533,-1.19992,-0.797645,-0.144769,-0.161495,-2.18098,-0.47174,-0.446458,-0.19557
29,65,-1.22173,-0.814493,-0.174533,-0.174533,-1.19992,-0.797645,-0.144769,-0.161495,-2.18098,-0.47174,-0.446458,-0.19557
29,65,-1.22173,-0.814493,-0.174533,-0.174533,-1.19992,-0.797645,-0.144769,-0.161495,-2.18098,-0.47174,-0.446458,-0.19557
29,65,-1.22173,-0.814493,-0.174533,-0.174533,-1.19992,-0.797645,-0.144769,-0.161495,-2.18098,-0.47174,-0.446458,-0.19557
29,65,-1.22173,-0.814493,-0.174533,-0.174533,-1.19992,-0.797645,-0.144769,-0.161495,-2.18098,-0.47174,-0.446458,-0.19557
29,65,-1.22173,-0.814493,-0.174533,-0.174533,-1.19992,-0.797645,-0.144769,-0.161495,-2.18098,-0.47174,-0.446458,-0.19557
29,65,-1.22173,-0.814493,-0.174533,-0.174533,-1.19992,-0.797645,-0.144769,-0.161495,-2.18098,-0.47174,-0.446458,-0.19557
29,65,-1.22173,-0.814493,-0.174533,-0.174533,-1.19992,-0.797645,-0.144769,-0.161495,-2.18098,-0.47174,-0.446458,-0.19557
29,65,-1.22173,-0.814493,-0.174533,-0.174533,-1.19992,-0.797645,-0.144769,-0.161495,-2.18098,-0.47174,-0.446458,-0.19557
29,65,-1.22173,-0.814493,-0.174533,-0.174533,-1.19992,-0.797645,-0.144769,-0.161495,-2.18098,-0.47174,-0.446458,-0.19557
29,65,-1.22173,-0.814493,-0.174533,-0.174533,-1.19999,-0.797645,-0.144769,-0.161495,-2.17382,-0.47174,-0.446458,-0.19557
29,65,-1.22173,-0.814493,-0.174533,-0.174533,-1.19999,-0.797645,-0.144769,-0.161495,-2.17382,-0.47174,-0.446458,-0.19557
29,65,-1.22173,-0.814493,-0.174533,-0.174533,-1.19999,-0.797645,-0.144769,-0.161495,-2.17382,-0.47174,-0.446458,-0.19557
29,65,-1.22173,-0.814493,-0.174533,-0.174533,-1.19999,-0.797645,-0.144769,-0.161495,-2.17382,-0.47174,-0.446458,-0.19557
29,65,-1.22173,-0.814493,-0.174533,-0.174533,-1.19999,-0.797645,-0.144769,-0.161495,-2.17382,-0.47174,-0.446458,-0.19557
29,65,-1.22173,-0.814493,-0.174533,-0.174533,-1.19999,-0.797645,-0.144769,-0.161495,-2.17382,-0.47174,-0.446458,-0.19557
29,65,-1.22173,-0.814493,-0.174533,-0.174533,-1.19999,-0.797645,-0.144769,-0.161495,-2.17382,-0.47174,-0.446458,-0.19557
29,65,-1.22173,-0.814493,-0.174533,-0.174533,-1.19999,-0.797645,-0.144769,-0.161495,-2.17382,-0.47174,-0.446458,-0.19557
29,65,-1.22173,-0.814493,-0.174533,-0.174533,-1.19999,-0.797645,-0.144769,-0.161495,-2.17382,-0.47174,-0.446458,-0.19557
29,65,-1.22173,-0.814493,-0.174533,-0.174533,-1.19999,-0.797645,-0.144769,-0.161495,-2.17382,-0.47174,-0.446458,-0.19557
29,65,-1.22173,-0.814493,-0.174533,-0.174533,-1.19999,-0.797645,-0.144769,-0.161495,-2.17382,-0.47174,-0.446458,-0.19557
29,65,-1.22173,-0.814493,-0.174533,-0.174533,-1.19999,-0.797645,-0.144769,-0.161495,-2.17382,-0.47174,-0.446458,-0.19557
29,65,-1.22173,-0.814493,-0.174533,-0.174533,-1.19999,-0.797645,-0.144769,-0.161495,-2.17382,-0.47174,-0.446458,-0.19557
29,65,-1.22173,-0.814493,-0.174533,-0.174533,-1.19999,-0.797645,-0.144769,-0.161495,-2.17382,-0.47174,-0.446458,-0.19557
29,65,-1.22173,-0.814493,-0.174533,-0.174533,-1.19999,-0.797645,-0.144769,-0.161495,-2.17382,-0.47174,-0.446458,-0.19557
29,65,-1.22173,-0.814493,-0.174533,-0.174533,-1.19999,-0.797645,-0.144769,-0.161495,-2.17382,-0.47174,-0.446458,-0.19557
29,65,-1.22173,-0.814493,-0.174533,-0.174533,-1.19999,-0.797645,-0.144769,-0.161495,-2.17382,-0.47174,-0.446458,-0.19557
29,65,-1.22173,-0.814493,-0.174533,-0.174533,-1.19999,-0.797645,-0.144769,-0.161495,-2.17382,-0.47174,-0.446458,-0.19557
29,65,-1.22173,-0.814493,-0.174533,-0.174533,-1.19999,-0.797645,-0.144769,-0.161495,-2.17382,-0.47174,-0.446458,-0.19557
29,65,-1.22173,-0.814493,-0.174533,-0.174533,-1.19999,-0.797645,-0.144769,-0.161495,-2.17382,-0.47174,-0.446458,-0.19557
29,65,-1.22173,-0.814493,-0.174533,-0.174533,-1.19999,-0.797645,-0.144769,-0.161495,-2.17382,-0.47174,-0.446458,-0.19557
29,65,-1.22173,-0.814493,-0.174533,-0.174533,-1.19999,-0.797645,-0.144769,-0.161495,-2.17382,-0.47174,-0.446458,-0.19557
29,65,-1.22173,-0.814493,-0.174533,-0.174533,-1.19999,-0.797645,-0.144769,-0.161495,-2.17382,-0.47174,-0.446458,-0.19557
29,65,-1.22173,-0.814493,-0.174533,-0.174533,-1.19999,-0.797645,-0.144769,-0.161495,-2.17382,-0.47174,-0.446458,-0.19557
29,65,-1.22173,-0.814493,-0.174533,-0.174533,-1.19999,-0.797645,-0.144769,-0.161495,-2.17382,-0.47174,-0.446458,-0.19557
29,65,-1.22173,-0.814493,-0.174533,-0.174533,-1.19999,-0.797645,-0.144769,-0.161495,-2.17382,-0.47174,-0.446458,-0.19557
29,65,-1.22173,-0.814493,-0.174533,-0.174533,-1.19999,-0.797645,-0.144769,-0.161495,-2.17382,-0.47174,-0.446458,-0.19557
29,65,-1.22173,-0.814493,-0.174533,-0.174533,-1.19999,-0.797645,-0.144769,-0.161495,-2.17382,-0.47174,-0.446458,-0.19557
29,65,-1.22173,-0.814493,-0.174533,-0.174533,-1.19999,-0.797645,-0.144769,-0.161495,-2.17382,-0.47174,-0.446458,-0.19557
29,65,-1.22173,-0.814493,-0.174533,-0.174533,-1.19999,-0.797645,-0.144769,-0.161495,-2.17382,-0.47174,-0.446458,-0.19557
29,65,-1.22173,-0.814493,-0.174533,-0.174533,-1.19999,-0.797645,-0.144769,-0.161495,-2.17382,-0.47174,-0.446458,-0.19557
29,65,-1.22173,-0.814493,-0.174533,-0.174533,-1.19999,-0.797645,-0.144769,-0.161495,-2.17382,-0.47174,-0.446458,-0.19557
29,65,-1.22173,-0.814493,-0.174533,-0.174533,-1.19999,-0.797645,-0.144769,-0.161495,-2.17382,-0.47174,-0.446458,-0.19557
29,65,-1.22173,-0.814493,-0.174533,-0.174533,-1.19999,-0.797645,-0.144769,-0.161495,-2.17382,-0.47174,-0.446458,-0.19557
29,65,-1.22173,-0.814493,-0.174533,-0.174533,-1.19999,-0.797645,-0.144769,-0.161495,-2.17382,-0.47174,-0.446458,-0.19557
29,65,-1.22173,-0.814493,-0.174533,-0.174533,-1.19999,-0.797645,-0.144769,-0.161495,-2.17382,-0.47174,-0.446458,-0.19557
29,65,-1.22173,-0.814493,-0.174533,-0.174533,-1.19999,-0.797645,-0.144769,-0.161495,-2.17382,-0.47174,-0.446458,-0.19557
29,65,-1.22173,-0.814493,-0.174533,-0.174533,-1.19999,-0.797645,-0.144769,-0.161495,-2.17382,-0.47174,-0.446458,-0.19557
29,65,-1.22173,-0.814493,-0.174533,-0.174533,-1.19999,-0.797645,-0.144769,-0.161495,-2.17382,-0.47174,-0.446458,-0.19557
29,65,-1.22173,-0.814493,-0.174533,-0.174533,-1.19999,-0.797645,-0.144769,-0.161495,-2.17382,-0.47174,-0.446458,-0.19557
29,65,-1.22173,-0.814493,-0.174533,-0.174533,-1.19999,-0.797645,-0.144769,-0.161495,-2.17382,-0.47174,-0.446458,-0.19557
29,65,-1.22173,-0.814493,-0.174533,-0.174533,-1.19999,-0.797645,-0.144769,-0.161495,-2.17382,-0.47174,-0.446458,-0.19557
29,65,-1.22173,-0.814493,-0.174533,-0.174533,-1.19999,-0.797645,-0.144769,-0.161495,-2.17382,-0.47174,-0.446458,-0.19557
29,65,-1.22173,-0.814493,-0.174533,-0.174533,-1.19999,-0.797645,-0.144769,-0.161495,-2.17382,-0.47174,-0.446458,-0.19557
29,65,-1.22173,-0.814493,-0.174533,-0.174533,-1.19999,-0.797645,-0.144769,-0.161495,-2.17382,-0.47174,-0.446458,-0.19557
29,65,-1.22173,-0.814493,-0.174533,-0.174533,-1.19999,-0.797645,-0.144769,-0.161495,-2.17382,-0.47174,-0.446458,-0.19557
29,65,-1.22173,-0.814493,-0.174533,-0.174533,-1.19999,-0.797645,-0.144769,-0.161495,-2.17382,-0.47174,-0.446458,-0.19557
29,65,-1.22173,-0.814493,-0.174533,-0.174533,-1.19999,-0.797645,-0.144769,-0.161495,-2.17382,-0.47174,-0.446458,-0.19557
29,65,-1.22173,-0.814493,-0.174533,-0.174533,-1.19999,-0.797645,-0.144769,-0.161495,-2.17382,-0.47174,-0.446458,-0.19557
29,65,-1.22173,-0.814493,-0.174533,-0.174533,-1.19999,-0.797645,-0.144769,-0.161495,-2.17382,-0.47174,-0.446458,-0.19557
29,65,-1.22173,-0.814493,-0.174533,-0.174533,-1.19999,-0.797645,-0.144769,-0.161495,-2.17382,-0.47174,-0.446458,-0.19557
29,65,-1.22173,-0.814493,-0.174533,-0.174533,-1.19999,-0.797645,-0.144769,-0.161495,-2.17382,-0.47174,-0.446458,-0.19557
29,65,-1.22173,-0.814493,-0.174533,-0.174533,-1.19999,-0.797645,-0.144769,-0.161495,-2.17382,-0.47174,-0.446458,-0.19557
29,65,-1.22173,-0.814493,-0.174533,-0.174533,-1.19999,-0.797645,-0.144769,-0.161495,-2.17382,-0.47174,-0.446458,-0.19557
29,65,-1.22173,-0.814493,-0.174533,-0.174533,-1.19999,-0.797645,-0.144769,-0.161495,-2.17382,-0.47174,-0.446458,-0.19557
29,65,-1.22173,-0.814493,-0.174533,-0.174533,-1.19999,-0.797645,-0.144769,-0.161495,-2.17382,-0.47174,-0.446458,-0.19557
29,65,-1.22173,-0.814493,-0.174533,-0.174533,-1.19999,-0.797645,-0.144769,-0.161495,-2.17382,-0.47174,-0.446458,-0.19557
29,65,-1.22173,-0.814493,-0.174533,-0.174533,-1.19999,-0.797645,-0.144769,-0.161495,-2.17382,-0.47174,-0.446458,-0.19557
29,65,-1.22173,-0.814493,-0.174533,-0.174533,-1.19999,-0.797645,-0.144769,-0.161495,-2.17382,-0.47174,-0.446458,-0.19557
29,65,-1.22173,-0.814493,-0.174533,-0.174533,-1.19999,-0.797645,-0.144769,-0.161495,-2.17382,-0.47174,-0.446458,-0.19557
29,65,-1.22173,-0.814493,-0.174533,-0.174533,-1.19999,-0.797645,-0.144769,-0.161495,-2.17382,-0.47174,-0.446458,-0.19557
29,65,-1.22173,-0.814493,-0.174533,-0.174533,-1.20006,-0.797645,-0.144769,-0.161495,-2.16666,-0.47174,-0.446458,-0.19557
29,65,-1.22173,-0.814493,-0.174533,-0.174533,-1.20006,-0.797645,-0.14477,-0.161555,-2.16666,-0.47174,-0.446437,-0.194676
29,65,-1.22173,-0.814493,-0.174533,-0.174533,-1.20006,-0.797645,-0.14477,-0.161555,-2.16666,-0.47174,-0.446437,-0.194676
29,65,-1.22173,-0.814493,-0.174533,-0.174533,-1.20006,-0.797645,-0.14477,-0.161555,-2.16666,-0.47174,-0.446437,-0.194676
29,65,-1.22173,-0.814493,-0.174533,-0.174533,-1.20006,-0.797645,-0.14477,-0.161555,-2.16666,-0.47174,-0.446437,-0.194676
29,65,-1.22173,-0.814493,-0.174533,-0.174533,-1.20006,-0.797645,-0.14477,-0.161555,-2.16666,-0.47174,-0.446437,-0.194676
29,65,-1.22173,-0.814493,-0.174533,-0.174533,-1.20006,-0.797645,-0.14477,-0.161555,-2.16666,-0.47174,-0.446437,-0.194676
29,65,-1.22173,-0.814493,-0.174533,-0.174533,-1.20006,-0.797645,-0.14477,-0.161555,-2.16666,-0.47174,-0.446437,-0.194676
29,65,-1.22173,-0.814493,-0.174533,-0.174533,-1.20006,-0.797645,-0.14477,-0.161555,-2.16666,-0.47174,-0.446437,-0.194676
29,65,-1.22173,-0.814493,-0.174533,-0.174533,-1.20006,-0.797645,-0.14477,-0.161555,-2.16666,-0.47174,-0.446437,-0.194676
29,65,-1.22173,-0.814493,-0.174533,-0.174533,-1.20006,-0.797645,-0.14477,-0.161555,-2.16666,-0.47174,-0.446437,-0.194676
29,65,-1.22173,-0.814493,-0.174533,-0.174533,-1.20006,-0.797645,-0.14477,-0.161555,-2.16666,-0.47174,-0.446437,-0.194676
29,65,-1.22173,-0.814493,-0.174533,-0.174533,-1.20006,-0.797645,-0.14477,-0.161555,-2.16666,-0.47174,-0.446437,-0.194676
29,65,-1.22173,-0.814493,-0.174533,-0.174533,-1.20006,-0.797645,-0.14477,-0.161555,-2.16666,-0.47174,-0.446437,-0.194676
29,65,-1.22173,-0.814493,-0.174533,-0.174533,-1.20006,-0.797645,-0.14477,-0.161555,-2.16666,-0.47174,-0.446437,-0.194676
29,65,-1.22173,-0.814493,-0.174533,-0.174533,-1.20006,-0.797645,-0.14477,-0.161555,-2.16666,-0.47174,-0.446437,-0.194676
29,65,-1.22173,-0.814493,-0.174533,-0.174533,-1.20006,-0.797645,-0.14477,-0.161555,-2.16666,-0.47174,-0.446437,-0.194676
29,65,-1.22173,-0.814493,-0.174533,-0.174533,-1.20006,-0.797645,-0.14477,-0.161555,-2.16666,-0.47174,-0.446437,-0.194676
29,65,-1.22173,-0.814493,-0.174533,-0.174533,-1.20006,-0.797645,-0.14477,-0.161555,-2.16666,-0.47174,-0.446437,-0.194676
29,65,-1.22173,-0.814493,-0.174533,-0.174533,-1.20006,-0.797645,-0.14477,-0.161555,-2.16666,-0.47174,-0.446437,-0.194676
29,65,-1.22173,-0.814493,-0.174533,-0.174533,-1.20006,-0.797645,-0.14477,-0.161555,-2.16666,-0.47174,-0.446437,-0.194676
29,65,-1.22173,-0.814493,-0.174533,-0.174533,-1.20006,-0.797645,-0.14477,-0.161555,-2.16666,-0.47174,-0.446437,-0.194676
29,65,-1.22173,-0.814493,-0.174533,-0.174533,-1.20006,-0.797645,-0.14477,-0.161555,-2.16666,-0.47174,-0.446437,-0.194676
29,65,-1.22173,-0.814493,-0.174533,-0.174533,-1.20006,-0.797645,-0.14477,-0.161555,-2.16666,-0.47174,-0.446437,-0.194676
29,65,-1.22173,-0.814493,-0.174533,-0.174533,-1.20006,-0.797645,-0.14477,-0.161555,-2.16666,-0.47174,-0.446437,-0.194676
29,65,-1.22173,-0.814493,-0.174533,-0.174533,-1.20006,-0.797645,-0.14477,-0.161555,-2.16666,-0.47174,-0.446437,-0.194676
29,65,-1.22173,-0.814493,-0.174533,-0.174533,-1.20006,-0.797645,-0.14477,-0.161555,-2.16666,-0.47174,-0.446437,-0.194676
29,65,-1.22173,-0.814493,-0.174533,-0.174533,-1.20006,-0.797645,-0.14477,-0.161555,-2.16666,-0.47174,-0.446437,-0.194676
29,65,-1.22173,-0.814493,-0.174533,-0.174533,-1.20006,-0.797645,-0.14477,-0.161555,-2.16666,-0.47174,-0.446437,-0.194676
29,65,-1.22173,-0.814493,-0.174533,-0.174533,-1.20006,-0.797645,-0.14477,-0.161555,-2.16666,-0.47174,-0.446437,-0.194676
29,65,-1.22173,-0.814493,-0.174533,-0.174533,-1.20006,-0.797645,-0.14477,-0.161555,-2.16666,-0.47174,-0.446437,-0.194676
29,65,-1.22173,-0.814493,-0.174533,-0.174533,-1.20006,-0.797645,-0.14477,-0.161555,-2.16666,-0.47174,-0.446437,-0.194676
29,65,-1.22173,-0.814493,-0.174533,-0.174533,-1.20006,-0.797645,-0.14477,-0.161555,-2.16666,-0.47174,-0.446437,-0.194676
29,65,-1.22173,-0.814493,-0.174533,-0.174533,-1.20006,-0.797645,-0.14477,-0.161555,-2.16666,-0.47174,-0.446437,-0.194676
29,65,-1.22173,-0.814493,-0.174533,-0.174533,-1.20014,-0.797645,-0.14477,-0.161555,-2.1595,-0.47174,-0.446437,-0.194676
29,65,-1.22173,-0.814493,-0.174533,-0.174533,-1.20014,-0.797645,-0.14477,-0.161555,-2.1595,-0.47174,-0.446437,-0.194676
29,65,-1.22173,-0.814493,-0.174533,-0.174533,-1.20014,-0.797645,-0.14477,-0.161555,-2.1595,-0.47174,-0.446437,-0.194676
29,65,-1.22173,-0.814493,-0.174533,-0.174533,-1.20014,-0.797645,-0.14477,-0.161555,-2.1595,-0.47174,-0.446437,-0.194676
29,65,-1.22173,-0.814493,-0.174533,-0.174533,-1.20014,-0.797645,-0.14477,-0.161555,-2.1595,-0.47174,-0.446437,-0.194676
29,65,-1.22173,-0.814493,-0.174533,-0.174533,-1.20014,-0.797645,-0.14477,-0.161555,-2.1595,-0.47174,-0.446437,-0.194676
29,65,-1.22173,-0.814493,-0.174533,-0.174533,-1.20014,-0.797645,-0.14477,-0.161555,-2.1595,-0.47174,-0.446437,-0.194676
29,65,-1.22173,-0.814493,-0.174533,-0.174533,-1.20014,-0.797645,-0.14477,-0.161555,-2.1595,-0.47174,-0.446437,-0.194676
29,65,-1.22173,-0.814493,-0.174533,-0.174533,-1.20014,-0.797645,-0.14477,-0.161555,-2.1595,-0.47174,-0.446437,-0.194676
29,65,-1.22173,-0.814493,-0.174533,-0.174533,-1.20014,-0.797645,-0.14477,-0.161555,-2.1595,-0.47174,-0.446437,-0.194676
29,65,-1.22173,-0.814493,-0.174533,-0.174533,-1.20014,-0.797645,-0.14477,-0.161555,-2.1595,-0.47174,-0.446437,-0.194676
29,65,-1.22173,-0.814493,-0.174533,-0.174533,-1.20014,-0.797645,-0.14477,-0.161555,-2.1595,-0.47174,-0.446437,-0.194676
29,65,-1.22173,-0.814493,-0.174533,-0.174533,-1.20014,-0.797645,-0.14477,-0.161555,-2.1595,-0.47174,-0.446437,-0.194676
29,65,-1.22173,-0.814493,-0.174533,-0.174533,-1.20014,-0.797645,-0.14477,-0.161555,-2.1595,-0.47174,-0.446437,-0.194676
29,65,-1.22173,-0.814493,-0.174533,-0.174533,-1.20014,-0.797645,-0.14477,-0.161555,-2.1595,-0.47174,-0.446437,-0.194676
29,65,-1.22173,-0.814493,-0.174533,-0.174533,-1.20014,-0.797645,-0.14477,-0.161555,-2.1595,-0.47174,-0.446437,-0.194676
29,65,-1.22173,-0.814493,-0.174533,-0.174533,-1.20014,-0.797645,-0.14477,-0.161555,-2.1595,-0.47174,-0.446437,-0.194676
29,65,-1.22173,-0.814493,-0.174533,-0.174533,-1.20014,-0.797645,-0.14477,-0.161555,-2.1595,-0.47174,-0.446437,-0.194676
29,65,-1.22173,-0.814493,-0.174533,-0.174533,-1.20014,-0.797645,-0.14477,-0.161555,-2.1595,-0.47174,-0.446437,-0.194676
29,65,-1.22173,-0.814493,-0.174533,-0.174533,-1.20014,-0.797645,-0.14477,-0.161555,-2.1595,-0.47174,-0.446437,-0.194676
29,65,-1.22173,-0.814493,-0.174533,-0.174533,-1.20014,-0.797645,-0.14477,-0.161555,-2.1595,-0.47174,-0.446437,-0.194676
29,65,-1.22173,-0.814493,-0.174533,-0.174533,-1.20014,-0.797645,-0.14477,-0.161555,-2.1595,-0.47174,-0.446437,-0.194676
29,65,-1.22173,-0.814493,-0.174533,-0.174533,-1.20014,-0.797645,-0.14477,-0.161555,-2.1595,-0.47174,-0.446437,-0.194676
29,65,-1.22173,-0.814493,-0.174533,-0.174533,-1.20014,-0.797645,-0.14477,-0.161555,-2.1595,-0.47174,-0.446437,-0.194676
29,65,-1.22173,-0.814493,-0.174533,-0.174533,-1.20014,-0.797645,-0.14477,-0.161555,-2.1595,-0.47174,-0.446437,-0.194676
29,65,-1.22173,-0.814493,-0.174533,-0.174533,-1.20014,-0.797645,-0.14477,-0.161555,-2.1595,-0.47174,-0.446437,-0.194676
29,65,-1.22173,-0.814493,-0.174533,-0.174533,-1.20014,-0.797645,-0.14477,-0.161555,-2.1595,-0.47174,-0.446437,-0.194676
29,65,-1.22173,-0.814493,-0.174533,-0.174533,-1.20014,-0.797645,-0.14477,-0.161555,-2.1595,-0.47174,-0.446437,-0.194676
29,65,-1.22173,-0.814493,-0.174533,-0.174533,-1.20014,-0.797645,-0.14477,-0.161555,-2.1595,-0.47174,-0.446437,-0.194676
29,65,-1.22173,-0.814493,-0.174533,-0.174533,-1.20014,-0.797645,-0.14477,-0.161555,-2.1595,-0.47174,-0.446437,-0.194676
29,65,-1.22173,-0.814493,-0.174533,-0.174533,-1.20014,-0.797645,-0.14477,-0.161555,-2.1595,-0.47174,-0.446437,-0.194676
29,65,-1.22173,-0.814493,-0.174533,-0.174533,-1.20014,-0.797645,-0.14477,-0.161555,-2.1595,-0.47174,-0.446437,-0.194676
29,65,-1.22173,-0.814493,-0.174533,-0.174533,-1.20014,-0.797645,-0.14477,-0.161555,-2.1595,-0.47174,-0.446437,-0.194676
29,65,-1.22173,-0.814493,-0.174533,-0.174533,-1.20014,-0.797645,-0.14477,-0.161555,-2.1595,-0.47174,-0.446437,-0.194676
29,65,-1.22173,-0.814493,-0.174533,-0.174533,-1.20014,-0.797645,-0.14477,-0.161555,-2.1595,-0.47174,-0.446437,-0.194676
29,65,-1.22173,-0.814493,-0.174533,-0.174533,-1.20014,-0.797645,-0.14477,-0.161555,-2.1595,-0.47174,-0.446437,-0.194676
29,65,-1.22173,-0.814493,-0.174533,-0.174533,-1.20014,-0.797645,-0.14477,-0.161555,-2.1595,-0.47174,-0.446437,-0.194676
29,65,-1.22173,-0.814493,-0.174533,-0.174533,-1.20014,-0.797645,-0.14477,-0.161555,-2.1595,-0.47174,-0.446437,-0.194676
29,65,-1.22173,-0.814493,-0.174533,-0.174533,-1.20014,-0.797645,-0.14477,-0.161555,-2.1595,-0.47174,-0.446437,-0.194676
29,65,-1.22173,-0.814493,-0.174533,-0.174533,-1.20014,-0.797645,-0.14477,-0.161555,-2.1595,-0.47174,-0.446437,-0.194676
29,65,-1.22173,-0.814493,-0.174533,-0.174533,-1.20014,-0.797645,-0.14477,-0.161555,-2.1595,-0.47174,-0.446437,-0.194676
29,65,-1.22173,-0.814493,-0.174533,-0.174533,-1.20014,-0.797645,-0.14477,-0.161555,-2.1595,-0.47174,-0.446437,-0.194676
29,65,-1.22173,-0.814493,-0.174533,-0.174533,-1.20014,-0.797645,-0.14477,-0.161555,-2.1595,-0.47174,-0.446437,-0.194676
29,65,-1.22173,-0.814493,-0.174533,-0.174533,-1.20014,-0.797645,-0.14477,-0.161555,-2.1595,-0.47174,-0.446437,-0.194676
29,65,-1.22173,-0.814493,-0.174533,-0.174533,-1.20014,-0.797645,-0.14477,-0.161555,-2.1595,-0.47174,-0.446437,-0.194676
29,65,-1.22173,-0.814493,-0.174533,-0.174533,-1.20014,-0.797645,-0.14477,-0.161555,-2.1595,-0.47174,-0.446437,-0.194676
29,65,-1.22173,-0.814493,-0.174533,-0.174533,-1.20014,-0.797645,-0.14477,-0.161555,-2.1595,-0.47174,-0.446437,-0.194676
29,65,-1.22173,-0.814493,-0.174533,-0.174533,-1.20014,-0.797645,-0.14477,-0.161555,-2.1595,-0.47174,-0.446437,-0.194676
29,65,-1.22173,-0.814493,-0.174533,-0.174533,-1.20014,-0.797645,-0.14477,-0.161555,-2.1595,-0.47174,-0.446437,-0.194676
29,65,-1.22173,-0.814493,-0.174533,-0.174533,-1.20014,-0.797645,-0.14477,-0.161555,-2.1595,-0.47174,-0.446437,-0.194676
29,65,-1.22173,-0.814493,-0.174533,-0.174533,-1.20014,-0.797645,-0.14477,-0.161555,-2.1595,-0.47174,-0.446437,-0.194676
29,65,-1.22173,-0.814493,-0.174533,-0.174533,-1.20014,-0.797645,-0.14477,-0.161555,-2.1595,-0.47174,-0.446437,-0.194676
29,65,-1.22173,-0.814493,-0.174533,-0.174533,-1.20014,-0.797645,-0.14477,-0.161555,-2.1595,-0.47174,-0.446437,-0.194676
29,65,-1.22173,-0.814493,-0.174533,-0.174533,-1.20014,-0.797645,-0.14477,-0.161555,-2.1595,-0.47174,-0.446437,-0.194676
29,65,-1.22173,-0.814493,-0.174533,-0.174533,-1.20014,-0.797645,-0.14477,-0.161555,-2.1595,-0.47174,-0.446437,-0.194676
29,65,-1.22173,-0.814493,-0.174533,-0.174533,-1.20014,-0.797645,-0.14477,-0.161555,-2.1595,-0.47174,-0.446437,-0.194676
29,65,-1.22173,-0.814493,-0.174533,-0.174533,-1.20014,-0.797645,-0.14477,-0.161555,-2.1595,-0.47174,-0.446437,-0.194676
29,65,-1.22173,-0.814493,-0.174533,-0.174533,-1.20014,-0.797645,-0.14477,-0.161555,-2.1595,-0.47174,-0.446437,-0.194676
29,65,-1.22173,-0.814493,-0.174533,-0.174533,-1.20014,-0.797645,-0.14477,-0.161555,-2.1595,-0.47174,-0.446437,-0.194676
29,65,-1.22173,-0.814493,-0.174533,-0.174533,-1.20014,-0.797645,-0.14477,-0.161555,-2.1595,-0.47174,-0.446437,-0.194676
29,65,-1.22173,-0.814493,-0.174533,-0.174533,-1.20014,-0.797645,-0.14477,-0.161555,-2.1595,-0.47174,-0.446437,-0.194676
29,65,-1.22173,-0.814493,-0.174533,-0.174533,-1.20014,-0.797645,-0.14477,-0.161555,-2.1595,-0.47174,-0.446437,-0.194676
29,65,-1.22173,-0.814493,-0.174533,-0.174533,-1.20014,-0.797645,-0.14477,-0.161555,-2.1595,-0.47174,-0.446437,-0.194676
29,65,-1.22173,-0.814493,-0.174533,-0.174533,-1.20014,-0.797645,-0.14477,-0.161555,-2.1595,-0.47174,-0.446437,-0.194676
29,65,-1.22173,-0.814493,-0.174533,-0.174533,-1.20014,-0.797645,-0.14477,-0.161555,-2.1595,-0.47174,-0.446437,-0.194676
29,65,-1.22173,-0.814493,-0.174533,-0.174533,-1.20014,-0.797645,-0.14477,-0.161555,-2.1595,-0.47174,-0.446437,-0.194676
29,65,-1.22173,-0.814493,-0.174533,-0.174533,-1.20014,-0.797645,-0.14477,-0.161555,-2.1595,-0.47174,-0.446437,-0.194676
29,65,-1.22173,-0.814493,-0.174533,-0.174533,-1.20014,-0.797645,-0.14477,-0.161555,-2.1595,-0.47174,-0.446437,-0.194676
29,65,-1.22173,-0.814493,-0.174533,-0.174533,-1.20014,-0.797645,-0.14477,-0.161555,-2.1595,-0.47174,-0.446437,-0.194676
29,65,-1.22173,-0.814493,-0.174533,-0.174533,-1.20014,-0.797645,-0.14477,-0.161555,-2.1595,-0.47174,-0.446437,-0.194676
29,65,-1.22173,-0.814493,-0.174533,-0.174533,-1.20014,-0.797645,-0.14477,-0.161555,-2.1595,-0.47174,-0.446437,-0.194676
29,65,-1.22173,-0.814493,-0.174533,-0.174533,-1.20014,-0.797645,-0.14477,-0.161555,-2.1595,-0.47174,-0.446437,-0.194676
29,65,-1.22173,-0.814493,-0.174533,-0.174533,-1.20014,-0.797645,-0.14477,-0.161555,-2.1595,-0.47174,-0.446437,-0.194676
29,65,-1.22173,-0.814493,-0.174533,-0.174533,-1.20014,-0.797645,-0.14477,-0.161555,-2.1595,-0.47174,-0.446437,-0.194676
29,65,-1.22173,-0.814493,-0.174533,-0.174533,-1.20014,-0.797645,-0.14477,-0.161555,-2.1595,-0.47174,-0.446437,-0.194676
29,65,-1.22173,-0.814493,-0.174533,-0.174533,-1.20014,-0.797645,-0.14477,-0.161555,-2.1595,-0.47174,-0.446437,-0.194676
29,65,-1.22173,-0.814493,-0.174533,-0.174533,-1.20014,-0.797645,-0.14477,-0.161555,-2.1595,-0.47174,-0.446437,-0.194676
29,65,-1.22173,-0.814493,-0.174533,-0.174533,-1.20014,-0.797645,-0.14477,-0.161555,-2.1595,-0.47174,-0.446437,-0.194676
29,65,-1.22173,-0.814493,-0.174533,-0.174533,-1.20014,-0.797645,-0.14477,-0.161555,-2.1595,-0.47174,-0.446437,-0.194676
29,65,-1.22173,-0.814493,-0.174533,-0.174533,-1.20014,-0.797645,-0.14477,-0.161555,-2.1595,-0.47174,-0.446437,-0.194676
29,65,-1.22173,-0.814493,-0.174533,-0.174533,-1.20014,-0.797645,-0.14477,-0.161555,-2.1595,-0.47174,-0.446437,-0.194676
29,65,-1.22173,-0.814493,-0.174533,-0.174533,-1.20014,-0.797645,-0.14477,-0.161555,-2.1595,-0.47174,-0.446437,-0.194676
29,65,-1.22173,-0.814493,-0.174533,-0.174533,-1.20014,-0.797645,-0.144708,-0.161514,-2.1595,-0.47174,-0.447379,-0.195291
29,65,-1.22173,-0.814493,-0.174533,-0.174533,-1.20014,-0.797645,-0.144708,-0.161514,-2.1595,-0.47174,-0.447379,-0.195291
29,65,-1.22173,-0.814493,-0.174533,-0.174533,-1.20014,-0.797645,-0.144708,-0.161514,-2.1595,-0.47174,-0.447379,-0.195291
29,65,-1.22173,-0.814493,-0.174533,-0.174533,-1.20014,-0.797645,-0.144708,-0.161514,-2.1595,-0.47174,-0.447379,-0.195291
29,65,-1.22173,-0.814493,-0.174533,-0.174533,-1.20014,-0.797645,-0.144708,-0.161514,-2.1595,-0.47174,-0.447379,-0.195291
29,65,-1.22173,-0.814493,-0.174533,-0.174533,-1.20014,-0.797645,-0.144708,-0.161514,-2.1595,-0.47174,-0.447379,-0.195291
29,65,-1.22173,-0.814493,-0.174533,-0.174533,-1.20014,-0.797645,-0.144708,-0.161514,-2.1595,-0.47174,-0.447379,-0.195291
29,65,-1.22173,-0.814493,-0.174533,-0.174533,-1.20014,-0.797645,-0.144708,-0.161514,-2.1595,-0.47174,-0.447379,-0.195291
29,65,-1.22173,-0.814493,-0.174533,-0.174533,-1.20014,-0.797645,-0.144708,-0.161514,-2.1595,-0.47174,-0.447379,-0.195291
29,65,-1.22173,-0.814493,-0.174533,-0.174533,-1.20014,-0.797645,-0.144708,-0.161514,-2.1595,-0.47174,-0.447379,-0.195291
29,65,-1.22173,-0.814493,-0.174533,-0.174533,-1.20014,-0.797645,-0.144708,-0.161514,-2.1595,-0.47174,-0.447379,-0.195291
29,65,-1.22173,-0.814493,-0.174533,-0.174533,-1.20014,-0.797645,-0.144708,-0.161514,-2.1595,-0.47174,-0.447379,-0.195291
29,65,-1.22173,-0.814493,-0.174533,-0.174533,-1.20014,-0.797645,-0.144708,-0.161514,-2.1595,-0.47174,-0.447379,-0.195291
29,65,-1.22173,-0.814493,-0.174533,-0.174533,-1.20014,-0.797645,-0.144708,-0.161514,-2.1595,-0.47174,-0.447379,-0.195291
29,65,-1.22173,-0.814493,-0.174533,-0.174533,-1.20014,-0.797645,-0.144708,-0.161514,-2.1595,-0.47174,-0.447379,-0.195291
29,65,-1.22173,-0.814493,-0.174533,-0.174533,-1.20014,-0.797645,-0.144708,-0.161514,-2.1595,-0.47174,-0.447379,-0.195291
29,65,-1.22173,-0.814493,-0.174533,-0.174533,-1.20014,-0.797645,-0.144708,-0.161514,-2.1595,-0.47174,-0.447379,-0.195291
29,65,-1.22173,-0.814493,-0.174533,-0.174533,-1.20014,-0.797645,-0.144708,-0.161514,-2.1595,-0.47174,-0.447379,-0.195291
29,65,-1.22173,-0.814493,-0.174533,-0.174533,-1.20014,-0.797645,-0.144708,-0.161514,-2.1595,-0.47174,-0.447379,-0.195291
29,65,-1.22173,-0.814493,-0.174533,-0.174533,-1.20014,-0.797645,-0.144708,-0.161514,-2.1595,-0.47174,-0.447379,-0.195291
29,65,-1.22173,-0.814493,-0.174533,-0.174533,-1.20014,-0.797645,-0.144708,-0.161514,-2.1595,-0.47174,-0.447379,-0.195291
29,65,-1.22173,-0.814493,-0.174533,-0.174533,-1.20014,-0.797645,-0.144708,-0.161514,-2.1595,-0.47174,-0.447379,-0.195291
29,65,-1.22173,-0.814493,-0.174533,-0.174533,-1.20014,-0.797645,-0.144708,-0.161514,-2.1595,-0.47174,-0.447379,-0.195291
29,65,-1.22173,-0.814493,-0.174533,-0.174533,-1.20014,-0.797645,-0.144708,-0.161514,-2.1595,-0.47174,-0.447379,-0.195291
29,65,-1.22173,-0.814493,-0.174533,-0.174533,-1.20014,-0.797645,-0.144708,-0.161514,-2.1595,-0.47174,-0.447379,-0.195291
29,65,-1.22173,-0.814493,-0.174533,-0.174533,-1.20014,-0.797645,-0.144708,-0.161514,-2.1595,-0.47174,-0.447379,-0.195291
29,65,-1.22173,-0.814493,-0.174533,-0.174533,-1.20021,-0.797645,-0.144708,-0.161514,-2.15235,-0.47174,-0.447379,-0.195291
29,65,-1.22173,-0.814493,-0.174533,-0.174533,-1.20021,-0.797645,-0.144708,-0.161514,-2.15235,-0.47174,-0.447379,-0.195291
29,65,-1.22173,-0.814493,-0.174533,-0.174533,-1.20021,-0.797645,-0.144708,-0.161514,-2.15235,-0.47174,-0.447379,-0.195291
29,65,-1.22173,-0.814493,-0.174533,-0.174533,-1.20021,-0.797645,-0.144708,-0.161514,-2.15235,-0.47174,-0.447379,-0.195291
29,65,-1.22173,-0.814493,-0.174533,-0.174533,-1.20021,-0.797645,-0.144708,-0.161514,-2.15235,-0.47174,-0.447379,-0.195291
29,65,-1.22173,-0.814493,-0.174533,-0.174533,-1.20021,-0.797645,-0.144708,-0.161514,-2.15235,-0.47174,-0.447379,-0.195291
29,65,-1.22173,-0.814493,-0.174533,-0.174533,-1.20021,-0.797645,-0.144708,-0.161514,-2.15235,-0.47174,-0.447379,-0.195291
29,65,-1.22173,-0.814493,-0.174533,-0.174533,-1.20021,-0.797645,-0.144708,-0.161514,-2.15235,-0.47174,-0.447379,-0.195291
29,65,-1.22173,-0.814493,-0.174533,-0.174533,-1.20021,-0.797645,-0.144708,-0.161514,-2.15235,-0.47174,-0.447379,-0.195291
29,65,-1.22173,-0.814493,-0.174533,-0.174533,-1.20021,-0.797645,-0.144708,-0.161514,-2.15235,-0.47174,-0.447379,-0.195291
29,65,-1.22173,-0.814493,-0.174533,-0.174533,-1.20021,-0.797645,-0.144708,-0.161514,-2.15235,-0.47174,-0.447379,-0.195291
29,65,-1.22173,-0.814493,-0.174533,-0.174533,-1.20021,-0.797645,-0.144708,-0.161514,-2.15235,-0.47174,-0.447379,-0.195291
29,65,-1.22173,-0.814493,-0.174533,-0.174533,-1.20021,-0.797645,-0.144708,-0.161514,-2.15235,-0.47174,-0.447379,-0.195291
29,65,-1.22173,-0.814493,-0.174533,-0.174533,-1.20021,-0.797645,-0.144709,-0.161573,-2.15235,-0.47174,-0.447358,-0.194397
29,65,-1.22173,-0.814493,-0.174533,-0.174533,-1.20021,-0.797645,-0.144709,-0.161573,-2.15235,-0.47174,-0.447358,-0.194397
29,65,-1.22173,-0.814493,-0.174533,-0.174533,-1.20021,-0.797645,-0.144709,-0.161573,-2.15235,-0.47174,-0.447358,-0.194397
29,65,-1.22173,-0.814493,-0.174533,-0.174533,-1.20021,-0.797645,-0.144709,-0.161573,-2.15235,-0.47174,-0.447358,-0.194397
29,65,-1.22173,-0.814493,-0.174533,-0.174533,-1.20021,-0.797645,-0.144709,-0.161573,-2.15235,-0.47174,-0.447358,-0.194397
29,65,-1.22173,-0.814493,-0.174533,-0.174533,-1.20021,-0.797645,-0.144709,-0.161573,-2.15235,-0.47174,-0.447358,-0.194397
29,65,-1.22173,-0.814493,-0.174533,-0.174533,-1.20021,-0.797645,-0.144709,-0.161573,-2.15235,-0.47174,-0.447358,-0.194397
29,65,-1.22173,-0.814493,-0.174533,-0.174533,-1.20021,-0.797645,-0.144709,-0.161573,-2.15235,-0.47174,-0.447358,-0.194397
29,65,-1.22173,-0.814493,-0.174533,-0.174533,-1.20021,-0.797645,-0.144709,-0.161573,-2.15235,-0.47174,-0.447358,-0.194397
29,65,-1.22173,-0.814493,-0.174533,-0.174533,-1.20021,-0.797645,-0.144709,-0.161573,-2.15235,-0.47174,-0.447358,-0.194397
29,65,-1.22173,-0.814493,-0.174533,-0.174533,-1.20021,-0.797645,-0.144709,-0.161573,-2.15235,-0.47174,-0.447358,-0.194397
29,65,-1.22173,-0.814493,-0.174533,-0.174533,-1.20021,-0.797645,-0.144709,-0.161573,-2.15235,-0.47174,-0.447358,-0.194397
29,65,-1.22173,-0.814493,-0.174533,-0.174533,-1.20021,-0.797645,-0.144709,-0.161573,-2.15235,-0.47174,-0.447358,-0.194397
29,65,-1.22173,-0.814493,-0.174533,-0.174533,-1.20021,-0.797645,-0.144709,-0.161573,-2.15235,-0.47174,-0.447358,-0.194397
29,65,-1.22173,-0.814493,-0.174533,-0.174533,-1.20021,-0.797645,-0.144709,-0.161573,-2.15235,-0.47174,-0.447358,-0.194397
29,65,-1.22173,-0.814493,-0.174533,-0.174533,-1.20021,-0.797645,-0.144709,-0.161573,-2.15235,-0.47174,-0.447358,-0.194397
29,65,-1.22173,-0.814493,-0.174533,-0.174533,-1.20021,-0.797645,-0.144709,-0.161573,-2.15235,-0.47174,-0.447358,-0.194397
29,65,-1.22173,-0.814493,-0.174533,-0.174533,-1.20021,-0.797645,-0.144709,-0.161573,-2.15235,-0.47174,-0.447358,-0.194397
29,65,-1.22173,-0.814493,-0.174533,-0.174533,-1.20021,-0.797645,-0.144709,-0.161573,-2.15235,-0.47174,-0.447358,-0.194397
29,65,-1.22173,-0.814493,-0.174533,-0.174533,-1.20021,-0.797645,-0.144709,-0.161573,-2.15235,-0.47174,-0.447358,-0.194397
29,65,-1.22173,-0.814493,-0.174533,-0.174533,-1.20021,-0.797645,-0.144709,-0.161573,-2.15235,-0.47174,-0.447358,-0.194397
29,65,-1.22173,-0.814493,-0.174533,-0.174533,-1.20021,-0.797645,-0.144709,-0.161573,-2.15235,-0.47174,-0.447358,-0.194397
29,65,-1.22173,-0.814493,-0.174533,-0.174533,-1.20021,-0.797645,-0.144709,-0.161573,-2.15235,-0.47174,-0.447358,-0.194397
29,65,-1.22173,-0.814493,-0.174533,-0.174533,-1.20021,-0.797645,-0.144709,-0.161573,-2.15235,-0.47174,-0.447358,-0.194397
29,65,-1.22173,-0.814493,-0.174533,-0.174533,-1.20021,-0.797645,-0.144709,-0.161573,-2.15235,-0.47174,-0.447358,-0.194397
29,65,-1.22173,-0.814493,-0.174533,-0.174533,-1.20021,-0.797645,-0.144709,-0.161573,-2.15235,-0.47174,-0.447358,-0.194397
29,65,-1.22173,-0.814493,-0.174533,-0.174533,-1.20021,-0.797645,-0.144709,-0.161573,-2.15235,-0.47174,-0.447358,-0.194397
29,65,-1.22173,-0.814493,-0.174533,-0.174533,-1.20021,-0.797645,-0.144709,-0.161573,-2.15235,-0.47174,-0.447358,-0.194397
29,65,-1.22173,-0.814493,-0.174533,-0.174533,-1.20021,-0.797645,-0.144709,-0.161573,-2.15235,-0.47174,-0.447358,-0.194397
29,65,-1.22173,-0.814493,-0.174533,-0.174533,-1.20021,-0.797645,-0.144709,-0.161573,-2.15235,-0.47174,-0.447358,-0.194397
29,65,-1.22173,-0.814493,-0.174533,-0.174533,-1.20021,-0.797645,-0.144709,-0.161573,-2.15235,-0.47174,-0.447358,-0.194397
29,65,-1.22173,-0.814493,-0.174533,-0.174533,-1.20021,-0.797645,-0.144709,-0.161573,-2.15235,-0.47174,-0.447358,-0.194397
29,65,-1.22173,-0.814493,-0.174533,-0.174533,-1.20021,-0.797645,-0.144709,-0.161573,-2.15235,-0.47174,-0.447358,-0.194397
29,65,-1.22173,-0.814493,-0.174533,-0.174533,-1.20021,-0.797645,-0.144709,-0.161573,-2.15235,-0.47174,-0.447358,-0.194397
29,65,-1.22173,-0.814493,-0.174533,-0.174533,-1.20021,-0.797645,-0.144709,-0.161573,-2.15235,-0.47174,-0.447358,-0.194397
29,65,-1.22173,-0.814493,-0.174533,-0.174533,-1.20021,-0.797645,-0.144709,-0.161573,-2.15235,-0.47174,-0.447358,-0.194397
29,65,-1.22173,-0.814493,-0.174533,-0.174533,-1.20021,-0.797645,-0.144646,-0.161532,-2.15235,-0.47174,-0.4483,-0.195011
29,65,-1.22173,-0.814493,-0.174533,-0.174533,-1.20021,-0.797645,-0.144646,-0.161532,-2.15235,-0.47174,-0.4483,-0.195011
29,65,-1.22173,-0.814493,-0.174533,-0.174533,-1.20021,-0.797645,-0.144646,-0.161532,-2.15235,-0.47174,-0.4483,-0.195011
29,65,-1.22173,-0.814493,-0.174533,-0.174533,-1.20021,-0.797645,-0.144646,-0.161532,-2.15235,-0.47174,-0.4483,-0.195011
29,65,-1.22173,-0.814493,-0.174533,-0.174533,-1.20021,-0.797645,-0.144646,-0.161532,-2.15235,-0.47174,-0.4483,-0.195011
29,65,-1.22173,-0.814493,-0.174533,-0.174533,-1.20021,-0.797645,-0.144646,-0.161532,-2.15235,-0.47174,-0.4483,-0.195011
29,65,-1.22173,-0.814493,-0.174533,-0.174533,-1.20021,-0.797645,-0.144646,-0.161532,-2.15235,-0.47174,-0.4483,-0.195011
29,65,-1.22173,-0.814493,-0.174533,-0.174533,-1.20021,-0.797645,-0.144646,-0.161532,-2.15235,-0.47174,-0.4483,-0.195011
29,65,-1.22173,-0.814493,-0.174533,-0.174533,-1.20021,-0.797645,-0.144646,-0.161532,-2.15235,-0.47174,-0.4483,-0.195011
29,65,-1.22173,-0.814493,-0.174533,-0.174533,-1.20021,-0.797645,-0.144646,-0.161532,-2.15235,-0.47174,-0.4483,-0.195011
29,65,-1.22173,-0.814493,-0.174533,-0.174533,-1.20021,-0.797645,-0.144646,-0.161532,-2.15235,-0.47174,-0.4483,-0.195011
29,65,-1.22173,-0.814493,-0.174533,-0.174533,-1.20021,-0.797645,-0.144646,-0.161532,-2.15235,-0.47174,-0.4483,-0.195011
29,65,-1.22173,-0.814493,-0.174533,-0.174533,-1.20021,-0.797645,-0.144646,-0.161532,-2.15235,-0.47174,-0.4483,-0.195011
29,65,-1.22173,-0.814493,-0.174533,-0.174533,-1.20021,-0.797645,-0.144646,-0.161532,-2.15235,-0.47174,-0.4483,-0.195011
29,65,-1.22173,-0.814493,-0.174533,-0.174533,-1.20021,-0.797645,-0.144646,-0.161532,-2.15235,-0.47174,-0.4483,-0.195011
29,65,-1.22173,-0.814493,-0.174533,-0.174533,-1.20021,-0.797645,-0.144646,-0.161532,-2.15235,-0.47174,-0.4483,-0.195011
29,65,-1.22173,-0.814493,-0.174533,-0.174533,-1.20021,-0.797645,-0.144646,-0.161532,-2.15235,-0.47174,-0.4483,-0.195011
29,65,-1.22173,-0.814493,-0.174533,-0.174533,-1.20021,-0.797645,-0.144646,-0.161532,-2.15235,-0.47174,-0.4483,-0.195011
29,65,-1.22173,-0.814493,-0.174533,-0.174533,-1.20021,-0.797645,-0.144646,-0.161532,-2.15235,-0.47174,-0.4483,-0.195011
29,65,-1.22173,-0.814493,-0.174533,-0.174533,-1.20021,-0.797645,-0.144646,-0.161532,-2.15235,-0.47174,-0.4483,-0.195011
29,65,-1.22173,-0.814493,-0.174533,-0.174533,-1.20021,-0.797645,-0.144646,-0.161532,-2.15235,-0.47174,-0.4483,-0.195011
29,65,-1.22173,-0.814493,-0.174533,-0.174533,-1.20021,-0.797645,-0.144646,-0.161532,-2.15235,-0.47174,-0.4483,-0.195011
29,65,-1.22173,-0.814493,-0.174533,-0.174533,-1.20021,-0.797645,-0.144646,-0.161532,-2.15235,-0.47174,-0.4483,-0.195011
29,65,-1.22173,-0.814493,-0.174533,-0.174533,-1.20021,-0.797645,-0.144646,-0.161532,-2.15235,-0.47174,-0.4483,-0.195011
29,65,-1.22173,-0.814493,-0.174533,-0.174533,-1.20021,-0.797645,-0.144646,-0.161532,-2.15235,-0.47174,-0.4483,-0.195011
29,65,-1.22173,-0.814493,-0.174533,-0.174533,-1.20021,-0.797645,-0.144646,-0.161532,-2.15235,-0.47174,-0.4483,-0.195011
29,65,-1.22173,-0.814493,-0.174533,-0.174533,-1.20021,-0.797645,-0.144646,-0.161532,-2.15235,-0.47174,-0.4483,-0.195011
29,65,-1.22173,-0.814493,-0.174533,-0.174533,-1.20021,-0.797645,-0.144646,-0.161532,-2.15235,-0.47174,-0.4483,-0.195011
29,65,-1.22173,-0.814493,-0.174533,-0.174533,-1.20021,-0.797645,-0.144646,-0.161532,-2.15235,-0.47174,-0.4483,-0.195011
29,65,-1.22173,-0.814493,-0.174533,-0.174533,-1.20021,-0.797645,-0.144646,-0.161532,-2.15235,-0.47174,-0.4483,-0.195011
29,65,-1.22173,-0.814493,-0.174533,-0.174533,-1.20021,-0.797645,-0.144646,-0.161532,-2.15235,-0.47174,-0.4483,-0.195011
29,65,-1.22173,-0.814493,-0.174533,-0.174533,-1.20021,-0.797645,-0.144646,-0.161532,-2.15235,-0.47174,-0.4483,-0.195011
29,65,-1.22173,-0.814493,-0.174533,-0.174533,-1.20021,-0.797645,-0.144646,-0.161532,-2.15235,-0.47174,-0.4483,-0.195011
29,65,-1.22173,-0.814493,-0.174533,-0.174533,-1.20021,-0.797645,-0.144646,-0.161532,-2.15235,-0.47174,-0.4483,-0.195011
29,65,-1.22173,-0.814493,-0.174533,-0.174533,-1.20021,-0.797645,-0.144646,-0.161532,-2.15235,-0.47174,-0.4483,-0.195011
29,65,-1.22173,-0.814493,-0.174533,-0.174533,-1.20021,-0.797645,-0.144646,-0.161532,-2.15235,-0.47174,-0.4483,-0.195011
29,65,-1.22173,-0.814493,-0.174533,-0.174533,-1.20021,-0.797645,-0.144646,-0.161532,-2.15235,-0.47174,-0.4483,-0.195011
29,65,-1.22173,-0.814493,-0.174533,-0.174533,-1.20021,-0.797645,-0.144646,-0.161532,-2.15235,-0.47174,-0.4483,-0.195011
29,65,-1.22173,-0.814493,-0.174533,-0.174533,-1.20021,-0.797645,-0.144646,-0.161532,-2.15235,-0.47174,-0.4483,-0.195011
29,65,-1.22173,-0.814493,-0.174533,-0.174533,-1.20021,-0.797645,-0.144646,-0.161532,-2.15235,-0.47174,-0.4483,-0.195011
29,65,-1.22173,-0.814493,-0.174533,-0.174533,-1.20021,-0.797645,-0.144646,-0.161532,-2.15235,-0.47174,-0.4483,-0.195011
29,65,-1.22173,-0.814493,-0.174533,-0.174533,-1.20021,-0.797645,-0.144646,-0.161532,-2.15235,-0.47174,-0.4483,-0.195011
29,65,-1.22173,-0.814493,-0.174533,-0.174533,-1.20021,-0.797645,-0.144646,-0.161532,-2.15235,-0.47174,-0.4483,-0.195011
29,65,-1.22173,-0.814493,-0.174533,-0.174533,-1.20021,-0.797645,-0.144646,-0.161532,-2.15235,-0.47174,-0.4483,-0.195011
29,65,-1.22173,-0.814493,-0.174533,-0.174533,-1.20021,-0.797645,-0.144646,-0.161532,-2.15235,-0.47174,-0.4483,-0.195011
29,65,-1.22173,-0.814493,-0.174533,-0.174533,-1.20021,-0.797645,-0.144646,-0.161532,-2.15235,-0.47174,-0.4483,-0.195011
29,65,-1.22173,-0.814493,-0.174533,-0.174533,-1.20021,-0.797645,-0.144646,-0.161532,-2.15235,-0.47174,-0.4483,-0.195011
29,65,-1.22173,-0.814493,-0.174533,-0.174533,-1.20021,-0.797645,-0.144646,-0.161532,-2.15235,-0.47174,-0.4483,-0.195011
29,65,-1.22173,-0.814493,-0.174533,-0.174533,-1.20021,-0.797645,-0.144646,-0.161532,-2.15235,-0.47174,-0.4483,-0.195011
29,65,-1.22173,-0.814493,-0.174533,-0.174533,-1.20021,-0.797645,-0.144646,-0.161532,-2.15235,-0.47174,-0.4483,-0.195011
29,65,-1.22173,-0.814493,-0.174533,-0.174533,-1.20021,-0.797645,-0.144646,-0.161532,-2.15235,-0.47174,-0.4483,-0.195011
29,65,-1.22173,-0.814493,-0.174533,-0.174533,-1.20021,-0.797645,-0.144646,-0.161532,-2.15235,-0.47174,-0.4483,-0.195011
29,65,-1.22173,-0.814493,-0.174533,-0.174533,-1.20021,-0.797645,-0.144646,-0.161532,-2.15235,-0.47174,-0.4483,-0.195011
29,65,-1.22173,-0.814493,-0.174533,-0.174533,-1.20021,-0.797645,-0.144646,-0.161532,-2.15235,-0.47174,-0.4483,-0.195011
29,65,-1.22173,-0.814493,-0.174533,-0.174533,-1.20021,-0.797645,-0.144646,-0.161532,-2.15235,-0.47174,-0.4483,-0.195011
29,65,-1.22173,-0.814493,-0.174533,-0.174533,-1.20021,-0.797645,-0.144646,-0.161532,-2.15235,-0.47174,-0.4483,-0.195011
29,65,-1.22173,-0.814493,-0.174533,-0.174533,-1.20021,-0.797645,-0.144646,-0.161532,-2.15235,-0.47174,-0.4483,-0.195011
29,65,-1.22173,-0.814493,-0.174533,-0.174533,-1.20021,-0.797645,-0.144646,-0.161532,-2.15235,-0.47174,-0.4483,-0.195011
29,65,-1.22173,-0.814493,-0.174533,-0.174533,-1.20021,-0.797645,-0.144646,-0.161532,-2.15235,-0.47174,-0.4483,-0.195011
29,65,-1.22173,-0.814493,-0.174533,-0.174533,-1.20021,-0.797645,-0.144646,-0.161532,-2.15235,-0.47174,-0.4483,-0.195011
29,65,-1.22173,-0.814493,-0.174533,-0.174533,-1.20021,-0.797645,-0.144646,-0.161532,-2.15235,-0.47174,-0.4483,-0.195011
29,65,-1.22173,-0.814493,-0.174533,-0.174533,-1.20021,-0.797645,-0.144646,-0.161532,-2.15235,-0.47174,-0.4483,-0.195011
29,65,-1.22173,-0.814493,-0.174533,-0.174533,-1.20021,-0.797645,-0.144646,-0.161532,-2.15235,-0.47174,-0.4483,-0.195011
29,65,-1.22173,-0.814493,-0.174533,-0.174533,-1.20021,-0.797645,-0.144646,-0.161532,-2.15235,-0.47174,-0.4483,-0.195011
29,65,-1.22173,-0.814493,-0.174533,-0.174533,-1.20021,-0.797645,-0.144646,-0.161532,-2.15235,-0.47174,-0.4483,-0.195011
29,65,-1.22173,-0.814493,-0.174533,-0.174533,-1.20021,-0.797645,-0.144646,-0.161532,-2.15235,-0.47174,-0.4483,-0.195011
29,65,-1.22173,-0.814493,-0.174533,-0.174533,-1.20021,-0.797645,-0.144646,-0.161532,-2.15235,-0.47174,-0.4483,-0.195011
29,65,-1.22173,-0.814493,-0.174533,-0.174533,-1.20021,-0.797645,-0.144646,-0.161532,-2.15235,-0.47174,-0.4483,-0.195011
29,65,-1.22173,-0.814493,-0.174533,-0.174533,-1.20021,-0.797645,-0.144646,-0.161532,-2.15235,-0.47174,-0.4483,-0.195011
29,65,-1.22173,-0.814493,-0.174533,-0.174533,-1.20021,-0.797645,-0.144646,-0.161532,-2.15235,-0.47174,-0.4483,-0.195011
29,65,-1.22173,-0.814493,-0.174533,-0.174533,-1.20021,-0.797645,-0.144646,-0.161532,-2.15235,-0.47174,-0.4483,-0.195011
29,65,-1.22173,-0.814493,-0.174533,-0.174533,-1.20021,-0.797645,-0.144646,-0.161532,-2.15235,-0.47174,-0.4483,-0.195011
29,65,-1.22173,-0.814493,-0.174533,-0.174533,-1.20021,-0.797645,-0.144646,-0.161532,-2.15235,-0.47174,-0.4483,-0.195011
29,65,-1.22173,-0.814493,-0.174533,-0.174533,-1.20021,-0.797645,-0.144646,-0.161532,-2.15235,-0.47174,-0.4483,-0.195011
29,65,-1.22173,-0.814493,-0.174533,-0.174533,-1.20021,-0.797645,-0.144646,-0.161532,-2.15235,-0.47174,-0.4483,-0.195011
29,65,-1.22173,-0.814493,-0.174533,-0.174533,-1.20021,-0.797645,-0.144646,-0.161532,-2.15235,-0.47174,-0.4483,-0.195011
29,65,-1.22173,-0.814493,-0.174533,-0.174533,-1.20021,-0.797645,-0.144646,-0.161532,-2.15235,-0.47174,-0.4483,-0.195011
29,65,-1.22173,-0.814493,-0.174533,-0.174533,-1.20021,-0.797645,-0.144646,-0.161532,-2.15235,-0.47174,-0.4483,-0.195011
29,65,-1.22173,-0.814493,-0.174533,-0.174533,-1.20021,-0.797645,-0.144646,-0.161532,-2.15235,-0.47174,-0.4483,-0.195011
29,65,-1.22173,-0.814493,-0.174533,-0.174533,-1.20021,-0.797645,-0.144646,-0.161532,-2.15235,-0.47174,-0.4483,-0.195011
29,65,-1.22173,-0.814493,-0.174533,-0.174533,-1.20021,-0.797645,-0.144646,-0.161532,-2.15235,-0.47174,-0.4483,-0.195011
29,65,-1.22173,-0.814493,-0.174533,-0.174533,-1.20021,-0.797645,-0.144646,-0.161532,-2.15235,-0.47174,-0.4483,-0.195011
29,65,-1.22173,-0.814493,-0.174533,-0.174533,-1.20021,-0.797645,-0.144646,-0.161532,-2.15235,-0.47174,-0.4483,-0.195011
29,65,-1.22173,-0.814493,-0.174533,-0.174533,-1.20021,-0.797645,-0.144646,-0.161532,-2.15235,-0.47174,-0.4483,-0.195011
29,65,-1.22173,-0.814493,-0.174533,-0.174533,-1.20021,-0.797645,-0.144646,-0.161532,-2.15235,-0.47174,-0.4483,-0.195011
29,65,-1.22173,-0.814493,-0.174533,-0.174533,-1.20021,-0.797645,-0.144646,-0.161532,-2.15235,-0.47174,-0.4483,-0.195011
29,65,-1.22173,-0.814493,-0.174533,-0.174533,-1.20021,-0.797645,-0.144646,-0.161532,-2.15235,-0.47174,-0.4483,-0.195011
29,65,-1.22173,-0.814493,-0.174533,-0.174533,-1.20021,-0.797645,-0.144646,-0.161532,-2.15235,-0.47174,-0.4483,-0.195011
29,65,-1.22173,-0.814493,-0.174533,-0.174533,-1.20021,-0.797645,-0.144646,-0.161532,-2.15235,-0.47174,-0.4483,-0.195011
29,65,-1.22173,-0.814493,-0.174533,-0.174533,-1.20021,-0.797645,-0.144646,-0.161532,-2.15235,-0.47174,-0.4483,-0.195011
29,65,-1.22173,-0.814493,-0.174533,-0.174533,-1.20021,-0.797645,-0.144646,-0.161532,-2.15235,-0.47174,-0.4483,-0.195011
29,65,-1.22173,-0.814493,-0.174533,-0.174533,-1.20021,-0.797645,-0.144646,-0.161532,-2.15235,-0.47174,-0.4483,-0.195011
29,65,-1.22173,-0.814493,-0.174533,-0.174533,-1.20021,-0.797645,-0.144646,-0.161532,-2.15235,-0.47174,-0.4483,-0.195011
29,65,-1.22173,-0.814493,-0.174533,-0.174533,-1.20021,-0.797645,-0.144646,-0.161532,-2.15235,-0.47174,-0.4483,-0.195011
29,65,-1.22173,-0.814493,-0.174533,-0.174533,-1.20021,-0.797645,-0.144646,-0.161532,-2.15235,-0.47174,-0.4483,-0.195011
29,65,-1.22173,-0.814493,-0.174533,-0.174533,-1.20021,-0.797645,-0.144646,-0.161532,-2.15235,-0.47174,-0.4483,-0.195011
29,65,-1.22173,-0.814493,-0.174533,-0.174533,-1.20021,-0.797645,-0.144646,-0.161532,-2.15235,-0.47174,-0.4483,-0.195011
29,65,-1.22173,-0.814493,-0.174533,-0.174533,-1.20021,-0.797645,-0.144646,-0.161532,-2.15235,-0.47174,-0.4483,-0.195011
29,65,-1.22173,-0.814493,-0.174533,-0.174533,-1.20021,-0.797645,-0.144646,-0.161532,-2.15235,-0.47174,-0.4483,-0.195011
29,65,-1.22173,-0.814493,-0.174533,-0.174533,-1.20021,-0.797645,-0.144646,-0.161532,-2.15235,-0.47174,-0.4483,-0.195011
29,65,-1.22173,-0.814493,-0.174533,-0.174533,-1.20021,-0.797645,-0.144646,-0.161532,-2.15235,-0.47174,-0.4483,-0.195011
29,65,-1.22173,-0.814493,-0.174533,-0.174533,-1.20021,-0.797645,-0.144646,-0.161532,-2.15235,-0.47174,-0.4483,-0.195011
29,65,-1.22173,-0.814493,-0.174533,-0.174533,-1.20021,-0.797645,-0.144646,-0.161532,-2.15235,-0.47174,-0.4483,-0.195011
29,65,-1.22173,-0.814493,-0.174533,-0.174533,-1.20021,-0.797645,-0.144646,-0.161532,-2.15235,-0.47174,-0.4483,-0.195011
29,65,-1.22173,-0.814493,-0.174533,-0.174533,-1.20021,-0.797645,-0.144646,-0.161532,-2.15235,-0.47174,-0.4483,-0.195011
29,65,-1.22173,-0.814493,-0.174533,-0.174533,-1.20021,-0.797645,-0.144646,-0.161532,-2.15235,-0.47174,-0.4483,-0.195011
29,65,-1.22173,-0.814493,-0.174533,-0.174533,-1.20021,-0.797645,-0.144646,-0.161532,-2.15235,-0.47174,-0.4483,-0.195011
29,65,-1.22173,-0.814493,-0.174533,-0.174533,-1.20021,-0.797645,-0.144646,-0.161532,-2.15235,-0.47174,-0.4483,-0.195011
29,65,-1.22173,-0.814493,-0.174533,-0.174533,-1.20021,-0.797645,-0.144646,-0.161532,-2.15235,-0.47174,-0.4483,-0.195011
29,65,-1.22173,-0.814493,-0.174533,-0.174533,-1.20021,-0.797645,-0.144646,-0.161532,-2.15235,-0.47174,-0.4483,-0.195011
29,65,-1.22173,-0.814493,-0.174533,-0.174533,-1.20021,-0.797645,-0.144646,-0.161532,-2.15235,-0.47174,-0.4483,-0.195011
29,65,-1.22173,-0.814493,-0.174533,-0.174533,-1.20021,-0.797645,-0.144646,-0.161532,-2.15235,-0.47174,-0.4483,-0.195011
29,65,-1.22173,-0.814493,-0.174533,-0.174533,-1.20021,-0.797645,-0.144646,-0.161532,-2.15235,-0.47174,-0.4483,-0.195011
29,65,-1.22173,-0.814493,-0.174533,-0.174533,-1.20021,-0.797645,-0.144646,-0.161532,-2.15235,-0.47174,-0.4483,-0.195011
29,65,-1.22173,-0.814493,-0.174533,-0.174533,-1.20021,-0.797645,-0.144646,-0.161532,-2.15235,-0.47174,-0.4483,-0.195011
29,65,-1.22173,-0.814493,-0.174533,-0.174533,-1.20021,-0.797645,-0.144646,-0.161532,-2.15235,-0.47174,-0.4483,-0.195011
29,65,-1.22173,-0.814493,-0.174533,-0.174533,-1.20021,-0.797645,-0.144646,-0.161532,-2.15235,-0.47174,-0.4483,-0.195011
29,65,-1.22173,-0.814493,-0.174533,-0.174533,-1.20021,-0.797645,-0.144646,-0.161532,-2.15235,-0.47174,-0.4483,-0.195011
29,65,-1.22173,-0.814493,-0.174533,-0.174533,-1.20021,-0.797645,-0.144646,-0.161532,-2.15235,-0.47174,-0.4483,-0.195011
29,65,-1.22173,-0.814493,-0.174533,-0.174533,-1.20021,-0.797645,-0.144646,-0.161532,-2.15235,-0.47174,-0.4483,-0.195011
29,65,-1.22173,-0.814493,-0.174533,-0.174533,-1.20021,-0.797645,-0.144646,-0.161532,-2.15235,-0.47174,-0.4483,-0.195011
29,65,-1.22173,-0.814493,-0.174533,-0.174533,-1.20021,-0.797645,-0.144646,-0.161532,-2.15235,-0.47174,-0.4483,-0.195011
29,65,-1.22173,-0.814493,-0.174533,-0.174533,-1.20021,-0.797645,-0.144646,-0.161532,-2.15235,-0.47174,-0.4483,-0.195011
29,65,-1.22173,-0.814493,-0.174533,-0.174533,-1.20021,-0.797645,-0.144646,-0.161532,-2.15235,-0.47174,-0.4483,-0.195011
29,65,-1.22173,-0.814493,-0.174533,-0.174533,-1.20021,-0.797645,-0.144646,-0.161532,-2.15235,-0.47174,-0.4483,-0.195011
29,65,-1.22173,-0.814493,-0.174533,-0.174533,-1.20021,-0.797645,-0.144646,-0.161532,-2.15235,-0.47174,-0.4483,-0.195011
29,65,-1.22173,-0.814493,-0.174533,-0.174533,-1.20021,-0.797645,-0.144646,-0.161532,-2.15235,-0.47174,-0.4483,-0.195011
29,65,-1.22173,-0.814493,-0.174533,-0.174533,-1.20021,-0.797645,-0.144646,-0.161532,-2.15235,-0.47174,-0.4483,-0.195011
29,65,-1.22173,-0.814493,-0.174533,-0.174533,-1.20021,-0.797645,-0.144646,-0.161532,-2.15235,-0.47174,-0.4483,-0.195011
29,65,-1.22173,-0.814493,-0.174533,-0.174533,-1.20021,-0.797645,-0.144646,-0.161532,-2.15235,-0.47174,-0.4483,-0.195011
29,65,-1.22173,-0.814493,-0.174533,-0.174533,-1.20021,-0.797645,-0.144646,-0.161532,-2.15235,-0.47174,-0.4483,-0.195011
29,65,-1.22173,-0.814493,-0.174533,-0.174533,-1.20021,-0.797645,-0.144646,-0.161532,-2.15235,-0.47174,-0.4483,-0.195011
29,65,-1.22173,-0.814493,-0.174533,-0.174533,-1.20021,-0.797645,-0.144646,-0.161532,-2.15235,-0.47174,-0.4483,-0.195011
29,65,-1.22173,-0.814493,-0.174533,-0.174533,-1.20021,-0.797645,-0.144646,-0.161532,-2.15235,-0.47174,-0.4483,-0.195011
29,65,-1.22173,-0.814493,-0.174533,-0.174533,-1.20021,-0.797645,-0.144646,-0.161532,-2.15235,-0.47174,-0.4483,-0.195011
29,65,-1.22173,-0.814493,-0.174533,-0.174533,-1.20021,-0.797645,-0.144646,-0.161532,-2.15235,-0.47174,-0.4483,-0.195011
29,65,-1.22173,-0.814493,-0.174533,-0.174533,-1.20021,-0.797645,-0.144646,-0.161532,-2.15235,-0.47174,-0.4483,-0.195011
29,65,-1.22173,-0.814493,-0.174533,-0.174533,-1.20021,-0.797645,-0.144646,-0.161532,-2.15235,-0.47174,-0.4483,-0.195011
29,65,-1.22173,-0.814493,-0.174533,-0.174533,-1.20021,-0.797645,-0.144646,-0.161532,-2.15235,-0.47174,-0.4483,-0.195011
29,65,-1.22173,-0.814493,-0.174533,-0.174533,-1.20021,-0.797645,-0.144646,-0.161532,-2.15235,-0.47174,-0.4483,-0.195011
29,65,-1.22173,-0.814493,-0.174533,-0.174533,-1.20021,-0.797645,-0.144646,-0.161532,-2.15235,-0.47174,-0.4483,-0.195011
29,65,-1.22173,-0.814493,-0.174533,-0.174533,-1.20021,-0.797645,-0.144646,-0.161532,-2.15235,-0.47174,-0.4483,-0.195011
29,65,-1.22173,-0.814493,-0.174533,-0.174533,-1.20021,-0.797645,-0.144646,-0.161532,-2.15235,-0.47174,-0.4483,-0.195011
29,65,-1.22173,-0.814493,-0.174533,-0.174533,-1.20021,-0.797645,-0.144646,-0.161532,-2.15235,-0.47174,-0.4483,-0.195011
29,65,-1.22173,-0.814493,-0.174533,-0.174533,-1.20021,-0.797645,-0.144646,-0.161532,-2.15235,-0.47174,-0.4483,-0.195011
29,65,-1.22173,-0.814493,-0.174533,-0.174533,-1.20021,-0.797645,-0.144646,-0.161532,-2.15235,-0.47174,-0.4483,-0.195011
29,65,-1.22173,-0.814493,-0.174533,-0.174533,-1.20021,-0.797645,-0.144646,-0.161532,-2.15235,-0.47174,-0.4483,-0.195011
29,65,-1.22173,-0.814493,-0.174533,-0.174533,-1.20021,-0.797645,-0.144646,-0.161532,-2.15235,-0.47174,-0.4483,-0.195011
29,65,-1.22173,-0.814493,-0.174533,-0.174533,-1.20021,-0.797645,-0.144646,-0.161532,-2.15235,-0.47174,-0.4483,-0.195011
29,65,-1.22173,-0.814493,-0.174533,-0.174533,-1.20021,-0.797645,-0.144646,-0.161532,-2.15235,-0.47174,-0.4483,-0.195011
29,65,-1.22173,-0.814493,-0.174533,-0.174533,-1.20021,-0.797645,-0.144646,-0.161532,-2.15235,-0.47174,-0.4483,-0.195011
29,65,-1.22173,-0.814493,-0.174533,-0.174533,-1.20021,-0.797645,-0.144646,-0.161532,-2.15235,-0.47174,-0.4483,-0.195011
29,65,-1.22173,-0.814493,-0.174533,-0.174533,-1.20021,-0.797645,-0.144646,-0.161532,-2.15235,-0.47174,-0.4483,-0.195011
29,65,-1.22173,-0.814493,-0.174533,-0.174533,-1.20021,-0.797645,-0.144646,-0.161532,-2.15235,-0.47174,-0.4483,-0.195011
29,65,-1.22173,-0.814493,-0.174533,-0.174533,-1.20021,-0.797645,-0.144646,-0.161532,-2.15235,-0.47174,-0.4483,-0.195011
29,65,-1.22173,-0.814493,-0.174533,-0.174533,-1.20021,-0.797645,-0.144646,-0.161532,-2.15235,-0.47174,-0.4483,-0.195011
29,65,-1.22173,-0.814493,-0.174533,-0.174533,-1.20021,-0.797645,-0.144646,-0.161532,-2.15235,-0.47174,-0.4483,-0.195011
29,65,-1.22173,-0.814493,-0.174533,-0.174533,-1.20021,-0.797645,-0.144646,-0.161532,-2.15235,-0.47174,-0.4483,-0.195011
29,65,-1.22173,-0.814493,-0.174533,-0.174533,-1.20021,-0.797645,-0.144646,-0.161532,-2.15235,-0.47174,-0.4483,-0.195011
29,65,-1.22173,-0.814493,-0.174533,-0.174533,-1.20021,-0.797645,-0.144646,-0.161532,-2.15235,-0.47174,-0.4483,-0.195011
29,65,-1.22173,-0.814493,-0.174533,-0.174533,-1.20021,-0.797645,-0.144646,-0.161532,-2.15235,-0.47174,-0.4483,-0.195011
29,65,-1.22173,-0.814493,-0.174533,-0.174533,-1.20021,-0.797645,-0.144646,-0.161532,-2.15235,-0.47174,-0.4483,-0.195011
29,65,-1.22173,-0.814493,-0.174533,-0.174533,-1.20021,-0.797645,-0.144646,-0.161532,-2.15235,-0.47174,-0.4483,-0.195011
29,65,-1.22173,-0.814493,-0.174533,-0.174533,-1.20021,-0.797645,-0.144646,-0.161532,-2.15235,-0.47174,-0.4483,-0.195011
29,65,-1.22173,-0.814493,-0.174533,-0.174533,-1.20021,-0.797645,-0.144646,-0.161532,-2.15235,-0.47174,-0.4483,-0.195011
29,65,-1.22173,-0.814493,-0.174533,-0.174533,-1.20021,-0.797645,-0.144646,-0.161532,-2.15235,-0.47174,-0.4483,-0.195011
29,65,-1.22173,-0.814493,-0.174533,-0.174533,-1.20021,-0.797645,-0.144646,-0.161532,-2.15235,-0.47174,-0.4483,-0.195011
29,65,-1.22173,-0.814493,-0.174533,-0.174533,-1.20021,-0.797645,-0.144646,-0.161532,-2.15235,-0.47174,-0.4483,-0.195011
29,65,-1.22173,-0.814493,-0.174533,-0.174533,-1.20021,-0.797645,-0.144646,-0.161532,-2.15235,-0.47174,-0.4483,-0.195011
29,65,-1.22173,-0.814493,-0.174533,-0.174533,-1.20021,-0.797645,-0.144646,-0.161532,-2.15235,-0.47174,-0.4483,-0.195011
29,65,-1.22173,-0.814493,-0.174533,-0.174533,-1.20021,-0.797645,-0.144646,-0.161532,-2.15235,-0.47174,-0.4483,-0.195011
29,65,-1.22173,-0.814493,-0.174533,-0.174533,-1.20021,-0.797645,-0.144646,-0.161532,-2.15235,-0.47174,-0.4483,-0.195011
29,65,-1.22173,-0.814493,-0.174533,-0.174533,-1.20021,-0.797645,-0.144646,-0.161532,-2.15235,-0.47174,-0.4483,-0.195011
29,65,-1.22173,-0.814493,-0.174533,-0.174533,-1.20021,-0.797645,-0.144646,-0.161532,-2.15235,-0.47174,-0.4483,-0.195011
29,65,-1.22173,-0.814493,-0.174533,-0.174533,-1.20021,-0.797645,-0.144646,-0.161532,-2.15235,-0.47174,-0.4483,-0.195011
29,65,-1.22173,-0.814493,-0.174533,-0.174533,-1.20021,-0.797645,-0.144646,-0.161532,-2.15235,-0.47174,-0.4483,-0.195011
29,65,-1.22173,-0.814493,-0.174533,-0.174533,-1.20021,-0.797645,-0.144646,-0.161532,-2.15235,-0.47174,-0.4483,-0.195011
29,65,-1.22173,-0.814493,-0.174533,-0.174533,-1.20021,-0.797645,-0.144646,-0.161532,-2.15235,-0.47174,-0.4483,-0.195011
29,65,-1.22173,-0.814493,-0.174533,-0.174533,-1.20021,-0.797645,-0.144646,-0.161532,-2.15235,-0.47174,-0.4483,-0.195011
29,65,-1.22173,-0.814493,-0.174533,-0.174533,-1.20021,-0.797645,-0.144646,-0.161532,-2.15235,-0.47174,-0.4483,-0.195011
29,65,-1.22173,-0.814493,-0.174533,-0.174533,-1.20021,-0.797645,-0.144646,-0.161532,-2.15235,-0.47174,-0.4483,-0.195011
29,65,-1.22173,-0.814493,-0.174533,-0.174533,-1.20021,-0.797645,-0.144646,-0.161532,-2.15235,-0.47174,-0.4483,-0.195011
29,65,-1.22173,-0.814493,-0.174533,-0.174533,-1.20021,-0.797645,-0.144646,-0.161532,-2.15235,-0.47174,-0.4483,-0.195011
29,65,-1.22173,-0.814493,-0.174533,-0.174533,-1.20021,-0.797645,-0.144646,-0.161532,-2.15235,-0.47174,-0.4483,-0.195011
29,65,-1.22173,-0.814493,-0.174533,-0.174533,-1.20021,-0.797645,-0.144646,-0.161532,-2.15235,-0.47174,-0.4483,-0.195011
29,65,-1.22173,-0.814493,-0.174533,-0.174533,-1.20021,-0.797645,-0.144646,-0.161532,-2.15235,-0.47174,-0.4483,-0.195011
29,65,-1.22173,-0.814493,-0.174533,-0.174533,-1.20021,-0.797645,-0.144646,-0.161532,-2.15235,-0.47174,-0.4483,-0.195011
29,65,-1.22173,-0.814493,-0.174533,-0.174533,-1.20021,-0.797645,-0.144583,-0.161491,-2.15235,-0.47174,-0.449242,-0.195626
29,65,-1.22173,-0.814493,-0.174533,-0.174533,-1.20021,-0.797645,-0.144583,-0.161491,-2.15235,-0.47174,-0.449242,-0.195626
29,65,-1.22173,-0.814493,-0.174533,-0.174533,-1.20021,-0.797645,-0.144583,-0.161491,-2.15235,-0.47174,-0.449242,-0.195626
29,65,-1.22173,-0.814493,-0.174533,-0.174533,-1.20021,-0.797645,-0.144583,-0.161491,-2.15235,-0.47174,-0.449242,-0.195626
29,65,-1.22173,-0.814493,-0.174533,-0.174533,-1.20021,-0.797645,-0.144583,-0.161491,-2.15235,-0.47174,-0.449242,-0.195626
29,65,-1.22173,-0.814493,-0.174533,-0.174533,-1.20021,-0.797645,-0.144583,-0.161491,-2.15235,-0.47174,-0.449242,-0.195626
29,65,-1.22173,-0.814493,-0.174533,-0.174533,-1.20021,-0.797645,-0.144583,-0.161491,-2.15235,-0.47174,-0.449242,-0.195626
29,65,-1.22173,-0.814493,-0.174533,-0.174533,-1.20021,-0.797645,-0.144583,-0.161491,-2.15235,-0.47174,-0.449242,-0.195626
29,65,-1.22173,-0.814493,-0.174533,-0.174533,-1.20021,-0.797645,-0.144583,-0.161491,-2.15235,-0.47174,-0.449242,-0.195626
29,65,-1.22173,-0.814493,-0.174533,-0.174533,-1.20021,-0.797645,-0.144583,-0.161491,-2.15235,-0.47174,-0.449242,-0.195626
29,65,-1.22173,-0.814493,-0.174533,-0.174533,-1.20021,-0.797645,-0.144583,-0.161491,-2.15235,-0.47174,-0.449242,-0.195626
29,65,-1.22173,-0.814493,-0.174533,-0.174533,-1.20021,-0.797645,-0.144583,-0.161491,-2.15235,-0.47174,-0.449242,-0.195626
29,65,-1.22173,-0.814493,-0.174533,-0.174533,-1.20021,-0.797645,-0.144583,-0.161491,-2.15235,-0.47174,-0.449242,-0.195626
29,65,-1.22173,-0.814493,-0.174533,-0.174533,-1.20021,-0.797645,-0.144583,-0.161491,-2.15235,-0.47174,-0.449242,-0.195626
29,65,-1.22173,-0.814493,-0.174533,-0.174533,-1.20021,-0.797645,-0.144583,-0.161491,-2.15235,-0.47174,-0.449242,-0.195626
29,65,-1.22173,-0.814493,-0.174533,-0.174533,-1.20021,-0.797645,-0.144583,-0.161491,-2.15235,-0.47174,-0.449242,-0.195626
29,65,-1.22173,-0.814493,-0.174533,-0.174533,-1.20021,-0.797645,-0.144583,-0.161491,-2.15235,-0.47174,-0.449242,-0.195626
29,65,-1.22173,-0.814493,-0.174533,-0.174533,-1.20021,-0.797645,-0.144583,-0.161491,-2.15235,-0.47174,-0.449242,-0.195626
29,65,-1.22173,-0.814493,-0.174533,-0.174533,-1.20021,-0.797645,-0.144583,-0.161491,-2.15235,-0.47174,-0.449242,-0.195626
29,65,-1.22173,-0.814493,-0.174533,-0.174533,-1.20021,-0.797645,-0.144583,-0.161491,-2.15235,-0.47174,-0.449242,-0.195626
29,65,-1.22173,-0.814493,-0.174533,-0.174533,-1.20021,-0.797645,-0.144583,-0.161491,-2.15235,-0.47174,-0.449242,-0.195626
29,65,-1.22173,-0.814493,-0.174533,-0.174533,-1.20021,-0.797645,-0.144583,-0.161491,-2.15235,-0.47174,-0.449242,-0.195626
29,65,-1.22173,-0.814493,-0.174533,-0.174533,-1.20021,-0.797645,-0.144583,-0.161491,-2.15235,-0.47174,-0.449242,-0.195626
29,65,-1.22173,-0.814493,-0.174533,-0.174533,-1.20021,-0.797645,-0.144583,-0.161491,-2.15235,-0.47174,-0.449242,-0.195626
29,65,-1.22173,-0.814493,-0.174533,-0.174533,-1.20021,-0.797645,-0.144583,-0.161491,-2.15235,-0.47174,-0.449242,-0.195626
29,65,-1.22173,-0.814493,-0.174533,-0.174533,-1.20021,-0.797645,-0.144583,-0.161491,-2.15235,-0.47174,-0.449242,-0.195626
29,65,-1.22173,-0.814493,-0.174533,-0.174533,-1.20021,-0.797645,-0.144583,-0.161491,-2.15235,-0.47174,-0.449242,-0.195626
29,65,-1.22173,-0.814493,-0.174533,-0.174533,-1.20021,-0.797645,-0.144583,-0.161491,-2.15235,-0.47174,-0.449242,-0.195626
29,65,-1.22173,-0.814493,-0.174533,-0.174533,-1.20021,-0.797645,-0.144583,-0.161491,-2.15235,-0.47174,-0.449242,-0.195626
29,65,-1.22173,-0.814493,-0.174533,-0.174533,-1.20021,-0.797645,-0.144583,-0.161491,-2.15235,-0.47174,-0.449242,-0.195626
29,65,-1.22173,-0.814493,-0.174533,-0.174533,-1.20021,-0.797645,-0.144583,-0.161491,-2.15235,-0.47174,-0.449242,-0.195626
29,65,-1.22173,-0.814493,-0.174533,-0.174533,-1.20021,-0.797645,-0.144583,-0.161491,-2.15235,-0.47174,-0.449242,-0.195626
29,65,-1.22173,-0.814493,-0.174533,-0.174533,-1.20021,-0.797645,-0.144583,-0.161491,-2.15235,-0.47174,-0.449242,-0.195626
29,65,-1.22173,-0.814493,-0.174533,-0.174533,-1.20021,-0.797645,-0.144583,-0.161491,-2.15235,-0.47174,-0.449242,-0.195626
29,65,-1.22173,-0.814493,-0.174533,-0.174533,-1.20021,-0.797645,-0.144583,-0.161491,-2.15235,-0.47174,-0.449242,-0.195626
29,65,-1.22173,-0.814493,-0.174533,-0.174533,-1.20021,-0.797645,-0.144583,-0.161491,-2.15235,-0.47174,-0.449242,-0.195626
29,65,-1.22173,-0.814493,-0.174533,-0.174533,-1.20021,-0.797645,-0.144583,-0.161491,-2.15235,-0.47174,-0.449242,-0.195626
29,65,-1.22173,-0.814493,-0.174533,-0.174533,-1.20021,-0.797645,-0.144583,-0.161491,-2.15235,-0.47174,-0.449242,-0.195626
29,65,-1.22173,-0.814493,-0.174533,-0.174533,-1.20021,-0.797645,-0.144583,-0.161491,-2.15235,-0.47174,-0.449242,-0.195626
29,65,-1.22173,-0.814493,-0.174533,-0.174533,-1.20021,-0.797645,-0.144583,-0.161491,-2.15235,-0.47174,-0.449242,-0.195626
29,65,-1.22173,-0.814493,-0.174533,-0.174533,-1.20021,-0.797645,-0.144583,-0.161491,-2.15235,-0.47174,-0.449242,-0.195626
29,65,-1.22173,-0.814493,-0.174533,-0.174533,-1.20021,-0.797645,-0.144583,-0.161491,-2.15235,-0.47174,-0.449242,-0.195626
29,65,-1.22173,-0.814493,-0.174533,-0.174533,-1.20021,-0.797645,-0.144583,-0.161491,-2.15235,-0.47174,-0.449242,-0.195626
29,65,-1.22173,-0.814493,-0.174533,-0.174533,-1.20021,-0.797645,-0.144583,-0.161491,-2.15235,-0.47174,-0.449242,-0.195626
29,65,-1.22173,-0.814493,-0.174533,-0.174533,-1.20021,-0.797645,-0.144583,-0.161491,-2.15235,-0.47174,-0.449242,-0.195626
29,65,-1.22173,-0.814493,-0.174533,-0.174533,-1.20021,-0.797645,-0.144583,-0.161491,-2.15235,-0.47174,-0.449242,-0.195626
29,65,-1.22173,-0.814493,-0.174533,-0.174533,-1.20021,-0.797645,-0.144583,-0.161491,-2.15235,-0.47174,-0.449242,-0.195626
29,65,-1.22173,-0.814493,-0.174533,-0.174533,-1.20021,-0.797645,-0.144583,-0.161491,-2.15235,-0.47174,-0.449242,-0.195626
29,65,-1.22173,-0.814493,-0.174533,-0.174533,-1.20021,-0.797645,-0.144583,-0.161491,-2.15235,-0.47174,-0.449242,-0.195626
29,65,-1.22173,-0.814493,-0.174533,-0.174533,-1.20021,-0.797645,-0.144583,-0.161491,-2.15235,-0.47174,-0.449242,-0.195626
29,65,-1.22173,-0.814493,-0.174533,-0.174533,-1.20021,-0.797645,-0.144583,-0.161491,-2.15235,-0.47174,-0.449242,-0.195626
29,65,-1.22173,-0.814493,-0.174533,-0.174533,-1.20021,-0.797645,-0.144583,-0.161491,-2.15235,-0.47174,-0.449242,-0.195626
29,65,-1.22173,-0.814493,-0.174533,-0.174533,-1.20021,-0.797645,-0.144583,-0.161491,-2.15235,-0.47174,-0.449242,-0.195626
29,65,-1.22173,-0.814493,-0.174533,-0.174533,-1.20021,-0.797645,-0.144583,-0.161491,-2.15235,-0.47174,-0.449242,-0.195626
29,65,-1.22173,-0.814493,-0.174533,-0.174533,-1.20021,-0.797645,-0.144583,-0.161491,-2.15235,-0.47174,-0.449242,-0.195626
29,65,-1.22173,-0.814493,-0.174533,-0.174533,-1.20021,-0.797645,-0.144583,-0.161491,-2.15235,-0.47174,-0.449242,-0.195626
29,65,-1.22173,-0.814493,-0.174533,-0.174533,-1.20021,-0.797645,-0.144583,-0.161491,-2.15235,-0.47174,-0.449242,-0.195626
29,65,-1.22173,-0.814493,-0.174533,-0.174533,-1.20021,-0.797645,-0.144583,-0.161491,-2.15235,-0.47174,-0.449242,-0.195626
29,65,-1.22173,-0.814493,-0.174533,-0.174533,-1.20021,-0.797645,-0.144583,-0.161491,-2.15235,-0.47174,-0.449242,-0.195626
29,65,-1.22173,-0.814493,-0.174533,-0.174533,-1.20021,-0.797645,-0.144583,-0.161491,-2.15235,-0.47174,-0.449242,-0.195626
29,65,-1.22173,-0.814493,-0.174533,-0.174533,-1.20021,-0.797645,-0.144583,-0.161491,-2.15235,-0.47174,-0.449242,-0.195626
29,65,-1.22173,-0.814493,-0.174533,-0.174533,-1.20021,-0.797645,-0.144583,-0.161491,-2.15235,-0.47174,-0.449242,-0.195626
29,65,-1.22173,-0.814493,-0.174533,-0.174533,-1.20021,-0.797645,-0.144583,-0.161491,-2.15235,-0.47174,-0.449242,-0.195626
29,65,-1.22173,-0.814493,-0.174533,-0.174533,-1.20021,-0.797645,-0.144583,-0.161491,-2.15235,-0.47174,-0.449242,-0.195626
29,65,-1.22173,-0.814493,-0.174533,-0.174533,-1.20021,-0.797645,-0.144583,-0.161491,-2.15235,-0.47174,-0.449242,-0.195626
29,65,-1.22173,-0.814493,-0.174533,-0.174533,-1.20021,-0.797645,-0.144583,-0.161491,-2.15235,-0.47174,-0.449242,-0.195626
29,65,-1.22173,-0.814493,-0.174533,-0.174533,-1.20021,-0.797645,-0.144583,-0.161491,-2.15235,-0.47174,-0.449242,-0.195626
29,65,-1.22173,-0.814493,-0.174533,-0.174533,-1.20021,-0.797645,-0.144583,-0.161491,-2.15235,-0.47174,-0.449242,-0.195626
29,65,-1.22173,-0.814493,-0.174533,-0.174533,-1.20021,-0.797645,-0.144583,-0.161491,-2.15235,-0.47174,-0.449242,-0.195626
29,65,-1.22173,-0.814493,-0.174533,-0.174533,-1.20021,-0.797645,-0.144583,-0.161491,-2.15235,-0.47174,-0.449242,-0.195626
29,65,-1.22173,-0.814493,-0.174533,-0.174533,-1.20021,-0.797645,-0.144583,-0.161491,-2.15235,-0.47174,-0.449242,-0.195626
29,65,-1.22173,-0.814493,-0.174533,-0.174533,-1.20021,-0.797645,-0.144583,-0.161491,-2.15235,-0.47174,-0.449242,-0.195626
29,65,-1.22173,-0.814493,-0.174533,-0.174533,-1.20021,-0.797645,-0.144583,-0.161491,-2.15235,-0.47174,-0.449242,-0.195626
29,65,-1.22173,-0.814493,-0.174533,-0.174533,-1.20021,-0.797645,-0.144583,-0.161491,-2.15235,-0.47174,-0.449242,-0.195626
29,65,-1.22173,-0.814493,-0.174533,-0.174533,-1.20021,-0.797645,-0.144583,-0.161491,-2.15235,-0.47174,-0.449242,-0.195626
29,65,-1.22173,-0.814493,-0.174533,-0.174533,-1.20021,-0.797645,-0.144583,-0.161491,-2.15235,-0.47174,-0.449242,-0.195626
29,65,-1.22173,-0.814493,-0.174533,-0.174533,-1.20021,-0.797645,-0.144583,-0.161491,-2.15235,-0.47174,-0.449242,-0.195626
29,65,-1.22173,-0.814493,-0.174533,-0.174533,-1.20021,-0.797645,-0.144583,-0.161491,-2.15235,-0.47174,-0.449242,-0.195626
29,65,-1.22173,-0.814493,-0.174533,-0.174533,-1.20021,-0.797645,-0.144583,-0.161491,-2.15235,-0.47174,-0.449242,-0.195626
29,65,-1.22173,-0.814493,-0.174533,-0.174533,-1.20021,-0.797645,-0.144583,-0.161491,-2.15235,-0.47174,-0.449242,-0.195626
29,65,-1.22173,-0.814493,-0.174533,-0.174533,-1.20021,-0.797645,-0.144583,-0.161491,-2.15235,-0.47174,-0.449242,-0.195626
29,65,-1.22173,-0.814493,-0.174533,-0.174533,-1.20021,-0.797645,-0.144583,-0.161491,-2.15235,-0.47174,-0.449242,-0.195626
29,65,-1.22173,-0.814493,-0.174533,-0.174533,-1.20021,-0.797645,-0.144583,-0.161491,-2.15235,-0.47174,-0.449242,-0.195626
29,65,-1.22173,-0.814493,-0.174533,-0.174533,-1.20021,-0.797645,-0.144583,-0.161491,-2.15235,-0.47174,-0.449242,-0.195626
29,65,-1.22173,-0.814493,-0.174533,-0.174533,-1.20021,-0.797645,-0.144583,-0.161491,-2.15235,-0.47174,-0.449242,-0.195626
29,65,-1.22173,-0.814493,-0.174533,-0.174533,-1.20021,-0.797645,-0.144583,-0.161491,-2.15235,-0.47174,-0.449242,-0.195626
29,65,-1.22173,-0.814493,-0.174533,-0.174533,-1.20021,-0.797645,-0.144583,-0.161491,-2.15235,-0.47174,-0.449242,-0.195626
29,65,-1.22173,-0.814493,-0.174533,-0.174533,-1.20021,-0.797645,-0.144583,-0.161491,-2.15235,-0.47174,-0.449242,-0.195626
29,65,-1.22173,-0.814493,-0.174533,-0.174533,-1.20021,-0.797645,-0.144583,-0.161491,-2.15235,-0.47174,-0.449242,-0.195626
29,65,-1.22173,-0.814493,-0.174533,-0.174533,-1.20021,-0.797645,-0.144583,-0.161491,-2.15235,-0.47174,-0.449242,-0.195626
29,65,-1.22173,-0.814493,-0.174533,-0.174533,-1.20021,-0.797645,-0.144583,-0.161491,-2.15235,-0.47174,-0.449242,-0.195626
29,65,-1.22173,-0.814493,-0.174533,-0.174533,-1.20021,-0.797645,-0.144583,-0.161491,-2.15235,-0.47174,-0.449242,-0.195626
29,65,-1.22173,-0.814493,-0.174533,-0.174533,-1.20021,-0.797645,-0.144583,-0.161491,-2.15235,-0.47174,-0.449242,-0.195626
29,65,-1.22173,-0.814493,-0.174533,-0.174533,-1.20021,-0.797645,-0.144583,-0.161491,-2.15235,-0.47174,-0.449242,-0.195626
29,65,-1.22173,-0.814493,-0.174533,-0.174533,-1.20021,-0.797645,-0.144583,-0.161491,-2.15235,-0.47174,-0.449242,-0.195626
29,65,-1.22173,-0.814493,-0.174533,-0.174533,-1.20021,-0.797645,-0.144583,-0.161491,-2.15235,-0.47174,-0.449242,-0.195626
29,65,-1.22173,-0.814493,-0.174533,-0.174533,-1.20021,-0.797645,-0.144583,-0.161491,-2.15235,-0.47174,-0.449242,-0.195626
29,65,-1.22173,-0.814493,-0.174533,-0.174533,-1.20021,-0.797645,-0.144583,-0.161491,-2.15235,-0.47174,-0.449242,-0.195626
29,65,-1.22173,-0.814493,-0.174533,-0.174533,-1.20021,-0.797645,-0.144583,-0.161491,-2.15235,-0.47174,-0.449242,-0.195626
29,65,-1.22173,-0.814493,-0.174533,-0.174533,-1.20021,-0.797645,-0.144583,-0.161491,-2.15235,-0.47174,-0.449242,-0.195626
29,65,-1.22173,-0.814493,-0.174533,-0.174533,-1.20021,-0.797645,-0.144583,-0.161491,-2.15235,-0.47174,-0.449242,-0.195626
29,65,-1.22173,-0.814493,-0.174533,-0.174533,-1.20021,-0.797645,-0.144583,-0.161491,-2.15235,-0.47174,-0.449242,-0.195626
29,65,-1.22173,-0.814493,-0.174533,-0.174533,-1.20021,-0.797645,-0.144583,-0.161491,-2.15235,-0.47174,-0.449242,-0.195626
29,65,-1.22173,-0.814493,-0.174533,-0.174533,-1.20021,-0.797645,-0.144583,-0.161491,-2.15235,-0.47174,-0.449242,-0.195626
29,65,-1.22173,-0.814493,-0.174533,-0.174533,-1.20021,-0.797645,-0.144583,-0.161491,-2.15235,-0.47174,-0.449242,-0.195626
29,65,-1.22173,-0.814493,-0.174533,-0.174533,-1.20021,-0.797645,-0.144583,-0.161491,-2.15235,-0.47174,-0.449242,-0.195626
29,65,-1.22173,-0.814493,-0.174533,-0.174533,-1.20021,-0.797645,-0.144583,-0.161491,-2.15235,-0.47174,-0.449242,-0.195626
29,65,-1.22173,-0.814493,-0.174533,-0.174533,-1.20021,-0.797645,-0.144583,-0.161491,-2.15235,-0.47174,-0.449242,-0.195626
29,65,-1.22173,-0.814493,-0.174533,-0.174533,-1.20021,-0.797645,-0.144583,-0.161491,-2.15235,-0.47174,-0.449242,-0.195626
29,65,-1.22173,-0.814493,-0.174533,-0.174533,-1.20021,-0.797645,-0.144583,-0.161491,-2.15235,-0.47174,-0.449242,-0.195626
29,65,-1.22173,-0.814493,-0.174533,-0.174533,-1.20021,-0.797645,-0.144583,-0.161491,-2.15235,-0.47174,-0.449242,-0.195626
29,65,-1.22173,-0.814493,-0.174533,-0.174533,-1.20021,-0.797645,-0.144583,-0.161491,-2.15235,-0.47174,-0.449242,-0.195626
29,65,-1.22173,-0.814493,-0.174533,-0.174533,-1.20021,-0.797645,-0.144583,-0.161491,-2.15235,-0.47174,-0.449242,-0.195626
29,65,-1.22173,-0.814493,-0.174533,-0.174533,-1.20021,-0.797645,-0.144583,-0.161491,-2.15235,-0.47174,-0.449242,-0.195626
29,65,-1.22173,-0.814493,-0.174533,-0.174533,-1.20021,-0.797645,-0.144583,-0.161491,-2.15235,-0.47174,-0.449242,-0.195626
29,65,-1.22173,-0.814493,-0.174533,-0.174533,-1.20021,-0.797645,-0.144583,-0.161491,-2.15235,-0.47174,-0.449242,-0.195626
29,65,-1.22173,-0.814493,-0.174533,-0.174533,-1.20021,-0.797645,-0.144583,-0.161491,-2.15235,-0.47174,-0.449242,-0.195626
29,65,-1.22173,-0.814493,-0.174533,-0.174533,-1.20021,-0.797645,-0.144583,-0.161491,-2.15235,-0.47174,-0.449242,-0.195626
29,65,-1.22173,-0.814493,-0.174533,-0.174533,-1.20021,-0.797645,-0.144583,-0.161491,-2.15235,-0.47174,-0.449242,-0.195626
29,65,-1.22173,-0.814493,-0.174533,-0.174533,-1.20021,-0.797645,-0.144583,-0.161491,-2.15235,-0.47174,-0.449242,-0.195626
29,65,-1.22173,-0.814493,-0.174533,-0.174533,-1.20021,-0.797645,-0.144583,-0.161491,-2.15235,-0.47174,-0.449242,-0.195626
29,65,-1.22173,-0.814493,-0.174533,-0.174533,-1.20021,-0.797645,-0.144583,-0.161491,-2.15235,-0.47174,-0.449242,-0.195626
29,65,-1.22173,-0.814493,-0.174533,-0.174533,-1.20021,-0.797645,-0.144583,-0.161491,-2.15235,-0.47174,-0.449242,-0.195626
29,65,-1.22173,-0.814493,-0.174533,-0.174533,-1.20021,-0.797645,-0.144583,-0.161491,-2.15235,-0.47174,-0.449242,-0.195626
29,65,-1.22173,-0.814493,-0.174533,-0.174533,-1.20021,-0.797645,-0.144583,-0.161491,-2.15235,-0.47174,-0.449242,-0.195626
29,65,-1.22173,-0.814493,-0.174533,-0.174533,-1.20021,-0.797645,-0.144583,-0.161491,-2.15235,-0.47174,-0.449242,-0.195626
29,65,-1.22173,-0.814493,-0.174533,-0.174533,-1.20021,-0.797645,-0.144583,-0.161491,-2.15235,-0.47174,-0.449242,-0.195626
29,65,-1.22173,-0.814493,-0.174533,-0.174533,-1.20021,-0.797645,-0.144583,-0.161491,-2.15235,-0.47174,-0.449242,-0.195626
29,65,-1.22173,-0.814493,-0.174533,-0.174533,-1.20021,-0.797645,-0.144583,-0.161491,-2.15235,-0.47174,-0.449242,-0.195626
29,65,-1.22173,-0.814493,-0.174533,-0.174533,-1.20021,-0.797645,-0.144583,-0.161491,-2.15235,-0.47174,-0.449242,-0.195626
29,65,-1.22173,-0.814493,-0.174533,-0.174533,-1.20021,-0.797645,-0.144583,-0.161491,-2.15235,-0.47174,-0.449242,-0.195626
29,65,-1.22173,-0.814493,-0.174533,-0.174533,-1.20021,-0.797645,-0.144583,-0.161491,-2.15235,-0.47174,-0.449242,-0.195626
29,65,-1.22173,-0.814493,-0.174533,-0.174533,-1.20021,-0.797645,-0.144583,-0.161491,-2.15235,-0.47174,-0.449242,-0.195626
29,65,-1.22173,-0.814493,-0.174533,-0.174533,-1.20021,-0.797645,-0.144583,-0.161491,-2.15235,-0.47174,-0.449242,-0.195626
29,65,-1.22173,-0.814493,-0.174533,-0.174533,-1.20021,-0.797645,-0.144583,-0.161491,-2.15235,-0.47174,-0.449242,-0.195626
29,65,-1.22173,-0.814493,-0.174533,-0.174533,-1.20021,-0.797645,-0.144583,-0.161491,-2.15235,-0.47174,-0.449242,-0.195626
29,65,-1.22173,-0.814493,-0.174533,-0.174533,-1.20021,-0.797645,-0.144583,-0.161491,-2.15235,-0.47174,-0.449242,-0.195626
29,65,-1.22173,-0.814493,-0.174533,-0.174533,-1.20021,-0.797645,-0.144583,-0.161491,-2.15235,-0.47174,-0.449242,-0.195626
29,65,-1.22173,-0.814493,-0.174533,-0.174533,-1.20021,-0.797645,-0.144583,-0.161491,-2.15235,-0.47174,-0.449242,-0.195626
29,65,-1.22173,-0.814493,-0.174533,-0.174533,-1.20021,-0.797645,-0.144583,-0.161491,-2.15235,-0.47174,-0.449242,-0.195626
29,65,-1.22173,-0.814493,-0.174533,-0.174533,-1.20021,-0.797645,-0.144583,-0.161491,-2.15235,-0.47174,-0.449242,-0.195626
29,65,-1.22173,-0.814493,-0.174533,-0.174533,-1.20021,-0.797645,-0.144583,-0.161491,-2.15235,-0.47174,-0.449242,-0.195626
29,65,-1.22173,-0.814493,-0.174533,-0.174533,-1.20021,-0.797645,-0.144583,-0.161491,-2.15235,-0.47174,-0.449242,-0.195626
29,65,-1.22173,-0.814493,-0.174533,-0.174533,-1.20021,-0.797645,-0.144583,-0.161491,-2.15235,-0.47174,-0.449242,-0.195626
29,65,-1.22173,-0.814493,-0.174533,-0.174533,-1.20021,-0.797645,-0.144521,-0.16145,-2.15235,-0.47174,-0.450184,-0.19624
29,65,-1.22173,-0.814493,-0.174533,-0.174533,-1.20021,-0.797645,-0.144521,-0.16145,-2.15235,-0.47174,-0.450184,-0.19624
29,65,-1.22173,-0.814493,-0.174533,-0.174533,-1.20021,-0.797645,-0.144521,-0.16145,-2.15235,-0.47174,-0.450184,-0.19624
29,65,-1.22173,-0.814493,-0.174533,-0.174533,-1.20021,-0.797645,-0.144521,-0.16145,-2.15235,-0.47174,-0.450184,-0.19624
29,65,-1.22173,-0.814493,-0.174533,-0.174533,-1.20021,-0.797645,-0.144521,-0.16145,-2.15235,-0.47174,-0.450184,-0.19624
29,65,-1.22173,-0.814493,-0.174533,-0.174533,-1.20021,-0.797645,-0.144521,-0.16145,-2.15235,-0.47174,-0.450184,-0.19624
29,65,-1.22173,-0.814493,-0.174533,-0.174533,-1.20021,-0.797645,-0.144521,-0.16145,-2.15235,-0.47174,-0.450184,-0.19624
29,65,-1.22173,-0.814493,-0.174533,-0.174533,-1.20021,-0.797645,-0.144521,-0.16145,-2.15235,-0.47174,-0.450184,-0.19624
29,65,-1.22173,-0.814493,-0.174533,-0.174533,-1.20021,-0.797645,-0.144521,-0.16145,-2.15235,-0.47174,-0.450184,-0.19624
29,65,-1.22173,-0.814493,-0.174533,-0.174533,-1.20021,-0.797645,-0.144521,-0.16145,-2.15235,-0.47174,-0.450184,-0.19624
29,65,-1.22173,-0.814493,-0.174533,-0.174533,-1.20021,-0.797645,-0.144521,-0.16145,-2.15235,-0.47174,-0.450184,-0.19624
29,65,-1.22173,-0.814493,-0.174533,-0.174533,-1.20021,-0.797645,-0.144521,-0.16145,-2.15235,-0.47174,-0.450184,-0.19624
29,65,-1.22173,-0.814493,-0.174533,-0.174533,-1.20021,-0.797645,-0.144521,-0.16145,-2.15235,-0.47174,-0.450184,-0.19624
29,65,-1.22173,-0.814493,-0.174533,-0.174533,-1.20021,-0.797645,-0.144521,-0.16145,-2.15235,-0.47174,-0.450184,-0.19624
29,65,-1.22173,-0.814493,-0.174533,-0.174533,-1.20021,-0.797645,-0.144521,-0.16145,-2.15235,-0.47174,-0.450184,-0.19624
29,65,-1.22173,-0.814493,-0.174533,-0.174533,-1.20021,-0.797645,-0.144521,-0.16145,-2.15235,-0.47174,-0.450184,-0.19624
29,65,-1.22173,-0.814493,-0.174533,-0.174533,-1.20021,-0.797645,-0.144521,-0.16145,-2.15235,-0.47174,-0.450184,-0.19624
29,65,-1.22173,-0.814493,-0.174533,-0.174533,-1.20021,-0.797645,-0.144521,-0.16145,-2.15235,-0.47174,-0.450184,-0.19624
29,65,-1.22173,-0.814493,-0.174533,-0.174533,-1.20021,-0.797645,-0.144521,-0.16145,-2.15235,-0.47174,-0.450184,-0.19624
29,65,-1.22173,-0.814493,-0.174533,-0.174533,-1.20021,-0.797645,-0.144521,-0.16145,-2.15235,-0.47174,-0.450184,-0.19624
29,65,-1.22173,-0.814493,-0.174533,-0.174533,-1.20021,-0.797645,-0.144521,-0.16145,-2.15235,-0.47174,-0.450184,-0.19624
29,65,-1.22173,-0.814493,-0.174533,-0.174533,-1.20021,-0.797645,-0.144521,-0.16145,-2.15235,-0.47174,-0.450184,-0.19624
29,65,-1.22173,-0.814493,-0.174533,-0.174533,-1.20021,-0.797645,-0.144521,-0.16145,-2.15235,-0.47174,-0.450184,-0.19624
29,65,-1.22173,-0.814493,-0.174533,-0.174533,-1.20021,-0.797645,-0.144521,-0.16145,-2.15235,-0.47174,-0.450184,-0.19624
29,65,-1.22173,-0.814493,-0.174533,-0.174533,-1.20021,-0.797645,-0.144521,-0.16145,-2.15235,-0.47174,-0.450184,-0.19624
29,65,-1.22173,-0.814493,-0.174533,-0.174533,-1.20021,-0.797645,-0.144521,-0.16145,-2.15235,-0.47174,-0.450184,-0.19624
29,65,-1.22173,-0.814493,-0.174533,-0.174533,-1.20021,-0.797645,-0.144521,-0.16145,-2.15235,-0.47174,-0.450184,-0.19624
29,65,-1.22173,-0.814493,-0.174533,-0.174533,-1.20021,-0.797645,-0.144521,-0.16145,-2.15235,-0.47174,-0.450184,-0.19624
29,65,-1.22173,-0.814493,-0.174533,-0.174533,-1.20021,-0.797645,-0.144521,-0.16145,-2.15235,-0.47174,-0.450184,-0.19624
29,65,-1.22173,-0.814493,-0.174533,-0.174533,-1.20021,-0.797645,-0.144521,-0.16145,-2.15235,-0.47174,-0.450184,-0.19624
29,65,-1.22173,-0.814493,-0.174533,-0.174533,-1.20021,-0.797645,-0.144521,-0.16145,-2.15235,-0.47174,-0.450184,-0.19624
29,65,-1.22173,-0.814493,-0.174533,-0.174533,-1.20021,-0.797645,-0.144521,-0.16145,-2.15235,-0.47174,-0.450184,-0.19624
29,65,-1.22173,-0.814493,-0.174533,-0.174533,-1.20021,-0.797645,-0.144521,-0.16145,-2.15235,-0.47174,-0.450184,-0.19624
29,65,-1.22173,-0.814493,-0.174533,-0.174533,-1.20021,-0.797645,-0.144521,-0.16145,-2.15235,-0.47174,-0.450184,-0.19624
29,65,-1.22173,-0.814493,-0.174533,-0.174533,-1.20021,-0.797645,-0.144521,-0.16145,-2.15235,-0.47174,-0.450184,-0.19624
29,65,-1.22173,-0.814493,-0.174533,-0.174533,-1.20021,-0.797645,-0.144521,-0.16145,-2.15235,-0.47174,-0.450184,-0.19624
29,65,-1.22173,-0.814493,-0.174533,-0.174533,-1.20021,-0.797645,-0.144521,-0.16145,-2.15235,-0.47174,-0.450184,-0.19624
29,65,-1.22173,-0.814493,-0.174533,-0.174533,-1.20021,-0.797645,-0.144521,-0.16145,-2.15235,-0.47174,-0.450184,-0.19624
29,65,-1.22173,-0.814493,-0.174533,-0.174533,-1.20021,-0.797645,-0.144521,-0.16145,-2.15235,-0.47174,-0.450184,-0.19624
29,65,-1.22173,-0.814493,-0.174533,-0.174533,-1.20021,-0.797645,-0.144521,-0.16145,-2.15235,-0.47174,-0.450184,-0.19624
29,65,-1.22173,-0.814493,-0.174533,-0.174533,-1.20021,-0.797645,-0.144521,-0.16145,-2.15235,-0.47174,-0.450184,-0.19624
29,65,-1.22173,-0.814493,-0.174533,-0.174533,-1.20021,-0.797645,-0.144521,-0.16145,-2.15235,-0.47174,-0.450184,-0.19624
29,65,-1.22173,-0.814493,-0.174533,-0.174533,-1.20021,-0.797645,-0.144521,-0.16145,-2.15235,-0.47174,-0.450184,-0.19624
29,65,-1.22173,-0.814493,-0.174533,-0.174533,-1.20021,-0.797645,-0.144521,-0.16145,-2.15235,-0.47174,-0.450184,-0.19624
29,65,-1.22173,-0.814493,-0.174533,-0.174533,-1.20021,-0.797645,-0.144521,-0.16145,-2.15235,-0.47174,-0.450184,-0.19624
29,65,-1.22173,-0.814493,-0.174533,-0.174533,-1.20021,-0.797645,-0.144521,-0.16145,-2.15235,-0.47174,-0.450184,-0.19624
29,65,-1.22173,-0.814493,-0.174533,-0.174533,-1.20021,-0.797645,-0.144521,-0.16145,-2.15235,-0.47174,-0.450184,-0.19624
29,65,-1.22173,-0.814493,-0.174533,-0.174533,-1.20021,-0.797645,-0.144521,-0.16145,-2.15235,-0.47174,-0.450184,-0.19624
29,65,-1.22173,-0.814493,-0.174533,-0.174533,-1.20021,-0.797645,-0.144521,-0.16145,-2.15235,-0.47174,-0.450184,-0.19624
29,65,-1.22173,-0.814493,-0.174533,-0.174533,-1.20021,-0.797645,-0.144521,-0.16145,-2.15235,-0.47174,-0.450184,-0.19624
29,65,-1.22173,-0.814493,-0.174533,-0.174533,-1.20021,-0.797645,-0.144521,-0.16145,-2.15235,-0.47174,-0.450184,-0.19624
29,65,-1.22173,-0.814493,-0.174533,-0.174533,-1.20021,-0.797645,-0.144521,-0.16145,-2.15235,-0.47174,-0.450184,-0.19624
29,65,-1.22173,-0.814493,-0.174533,-0.174533,-1.20021,-0.797645,-0.144521,-0.16145,-2.15235,-0.47174,-0.450184,-0.19624
29,65,-1.22173,-0.814493,-0.174533,-0.174533,-1.20021,-0.797645,-0.144521,-0.16145,-2.15235,-0.47174,-0.450184,-0.19624
29,65,-1.22173,-0.814493,-0.174533,-0.174533,-1.20021,-0.797645,-0.144521,-0.16145,-2.15235,-0.47174,-0.450184,-0.19624
29,65,-1.22173,-0.814493,-0.174533,-0.174533,-1.20021,-0.797645,-0.144521,-0.16145,-2.15235,-0.47174,-0.450184,-0.19624
29,65,-1.22173,-0.814493,-0.174533,-0.174533,-1.20021,-0.797645,-0.144521,-0.16145,-2.15235,-0.47174,-0.450184,-0.19624
29,65,-1.22173,-0.814493,-0.174533,-0.174533,-1.20021,-0.797645,-0.144521,-0.16145,-2.15235,-0.47174,-0.450184,-0.19624
29,65,-1.22173,-0.814493,-0.174533,-0.174533,-1.20021,-0.797645,-0.144521,-0.16145,-2.15235,-0.47174,-0.450184,-0.19624
29,65,-1.22173,-0.814493,-0.174533,-0.174533,-1.20021,-0.797645,-0.144521,-0.16145,-2.15235,-0.47174,-0.450184,-0.19624
29,65,-1.22173,-0.814493,-0.174533,-0.174533,-1.20021,-0.797645,-0.144521,-0.16145,-2.15235,-0.47174,-0.450184,-0.19624
29,65,-1.22173,-0.814493,-0.174533,-0.174533,-1.20021,-0.797645,-0.144521,-0.16145,-2.15235,-0.47174,-0.450184,-0.19624
29,65,-1.22173,-0.814493,-0.174533,-0.174533,-1.20021,-0.797645,-0.144521,-0.16145,-2.15235,-0.47174,-0.450184,-0.19624
29,65,-1.22173,-0.814493,-0.174533,-0.174533,-1.20021,-0.797645,-0.144521,-0.16145,-2.15235,-0.47174,-0.450184,-0.19624
29,65,-1.22173,-0.814493,-0.174533,-0.174533,-1.20021,-0.797645,-0.144521,-0.16145,-2.15235,-0.47174,-0.450184,-0.19624
29,65,-1.22173,-0.814493,-0.174533,-0.174533,-1.20021,-0.797645,-0.144521,-0.16145,-2.15235,-0.47174,-0.450184,-0.19624
29,65,-1.22173,-0.814493,-0.174533,-0.174533,-1.20021,-0.797645,-0.144521,-0.16145,-2.15235,-0.47174,-0.450184,-0.19624
29,65,-1.22173,-0.814493,-0.174533,-0.174533,-1.20021,-0.797645,-0.144521,-0.16145,-2.15235,-0.47174,-0.450184,-0.19624
29,65,-1.22173,-0.814493,-0.174533,-0.174533,-1.20021,-0.797645,-0.144521,-0.16145,-2.15235,-0.47174,-0.450184,-0.19624
29,65,-1.22173,-0.814493,-0.174533,-0.174533,-1.20021,-0.797645,-0.144521,-0.16145,-2.15235,-0.47174,-0.450184,-0.19624
29,65,-1.22173,-0.814493,-0.174533,-0.174533,-1.20021,-0.797645,-0.144521,-0.16145,-2.15235,-0.47174,-0.450184,-0.19624
29,65,-1.22173,-0.814493,-0.174533,-0.174533,-1.20021,-0.797645,-0.144521,-0.16145,-2.15235,-0.47174,-0.450184,-0.19624
29,65,-1.22173,-0.814493,-0.174533,-0.174533,-1.20021,-0.797645,-0.144521,-0.16145,-2.15235,-0.47174,-0.450184,-0.19624
29,65,-1.22173,-0.814493,-0.174533,-0.174533,-1.20021,-0.797645,-0.144521,-0.16145,-2.15235,-0.47174,-0.450184,-0.19624
29,65,-1.22173,-0.814493,-0.174533,-0.174533,-1.20021,-0.797645,-0.144521,-0.16145,-2.15235,-0.47174,-0.450184,-0.19624
29,65,-1.22173,-0.814493,-0.174533,-0.174533,-1.20021,-0.797645,-0.144521,-0.16145,-2.15235,-0.47174,-0.450184,-0.19624
29,65,-1.22173,-0.814493,-0.174533,-0.174533,-1.20021,-0.797645,-0.144521,-0.16145,-2.15235,-0.47174,-0.450184,-0.19624
29,65,-1.22173,-0.814493,-0.174533,-0.174533,-1.20021,-0.797645,-0.144521,-0.16145,-2.15235,-0.47174,-0.450184,-0.19624
29,65,-1.22173,-0.814493,-0.174533,-0.174533,-1.20021,-0.797645,-0.144521,-0.16145,-2.15235,-0.47174,-0.450184,-0.19624
29,65,-1.22173,-0.814493,-0.174533,-0.174533,-1.20021,-0.797645,-0.144521,-0.16145,-2.15235,-0.47174,-0.450184,-0.19624
29,65,-1.22173,-0.814493,-0.174533,-0.174533,-1.20021,-0.797645,-0.144521,-0.16145,-2.15235,-0.47174,-0.450184,-0.19624
29,65,-1.22173,-0.814493,-0.174533,-0.174533,-1.20021,-0.797645,-0.144521,-0.16145,-2.15235,-0.47174,-0.450184,-0.19624
29,65,-1.22173,-0.814493,-0.174533,-0.174533,-1.20021,-0.797645,-0.144521,-0.16145,-2.15235,-0.47174,-0.450184,-0.19624
29,65,-1.22173,-0.814493,-0.174533,-0.174533,-1.20021,-0.797645,-0.144521,-0.16145,-2.15235,-0.47174,-0.450184,-0.19624
29,65,-1.22173,-0.814493,-0.174533,-0.174533,-1.20021,-0.797645,-0.144521,-0.16145,-2.15235,-0.47174,-0.450184,-0.19624
29,65,-1.22173,-0.814493,-0.174533,-0.174533,-1.20021,-0.797645,-0.144521,-0.16145,-2.15235,-0.47174,-0.450184,-0.19624
29,65,-1.22173,-0.814493,-0.174533,-0.174533,-1.20021,-0.797645,-0.144521,-0.16145,-2.15235,-0.47174,-0.450184,-0.19624
29,65,-1.22173,-0.814493,-0.174533,-0.174533,-1.20021,-0.797645,-0.144521,-0.16145,-2.15235,-0.47174,-0.450184,-0.19624
29,65,-1.22173,-0.814493,-0.174533,-0.174533,-1.20021,-0.797645,-0.144521,-0.16145,-2.15235,-0.47174,-0.450184,-0.19624
29,65,-1.22173,-0.814493,-0.174533,-0.174533,-1.20021,-0.797645,-0.144521,-0.16145,-2.15235,-0.47174,-0.450184,-0.19624
29,65,-1.22173,-0.814493,-0.174533,-0.174533,-1.20021,-0.797645,-0.144521,-0.16145,-2.15235,-0.47174,-0.450184,-0.19624
29,65,-1.22173,-0.814493,-0.174533,-0.174533,-1.20021,-0.797645,-0.144521,-0.16145,-2.15235,-0.47174,-0.450184,-0.19624
29,65,-1.22173,-0.814493,-0.174533,-0.174533,-1.20021,-0.797645,-0.144521,-0.16145,-2.15235,-0.47174,-0.450184,-0.19624
29,65,-1.22173,-0.814493,-0.174533,-0.174533,-1.20021,-0.797645,-0.144521,-0.16145,-2.15235,-0.47174,-0.450184,-0.19624
29,65,-1.22173,-0.814493,-0.174533,-0.174533,-1.20021,-0.797645,-0.144521,-0.16145,-2.15235,-0.47174,-0.450184,-0.19624
29,65,-1.22173,-0.814493,-0.174533,-0.174533,-1.20021,-0.797645,-0.144521,-0.16145,-2.15235,-0.47174,-0.450184,-0.19624
29,65,-1.22173,-0.814493,-0.174533,-0.174533,-1.20021,-0.797645,-0.144521,-0.16145,-2.15235,-0.47174,-0.450184,-0.19624
29,65,-1.22173,-0.814493,-0.174533,-0.174533,-1.20021,-0.797645,-0.144521,-0.16145,-2.15235,-0.47174,-0.450184,-0.19624
29,65,-1.22173,-0.814493,-0.174533,-0.174533,-1.20021,-0.797645,-0.144521,-0.16145,-2.15235,-0.47174,-0.450184,-0.19624
29,65,-1.22173,-0.814493,-0.174533,-0.174533,-1.20021,-0.797645,-0.144521,-0.16145,-2.15235,-0.47174,-0.450184,-0.19624
29,65,-1.22173,-0.814493,-0.174533,-0.174533,-1.20021,-0.797645,-0.144521,-0.16145,-2.15235,-0.47174,-0.450184,-0.19624
29,65,-1.22173,-0.814493,-0.174533,-0.174533,-1.20021,-0.797645,-0.144521,-0.16145,-2.15235,-0.47174,-0.450184,-0.19624
29,65,-1.22173,-0.814493,-0.174533,-0.174533,-1.20021,-0.797645,-0.144521,-0.16145,-2.15235,-0.47174,-0.450184,-0.19624
29,65,-1.22173,-0.814493,-0.174533,-0.174533,-1.20021,-0.797645,-0.144521,-0.16145,-2.15235,-0.47174,-0.450184,-0.19624
29,65,-1.22173,-0.814493,-0.174533,-0.174533,-1.20021,-0.797645,-0.144521,-0.16145,-2.15235,-0.47174,-0.450184,-0.19624
29,65,-1.22173,-0.814493,-0.174533,-0.174533,-1.20021,-0.797645,-0.144521,-0.16145,-2.15235,-0.47174,-0.450184,-0.19624
29,65,-1.22173,-0.814493,-0.174533,-0.174533,-1.20021,-0.797645,-0.144521,-0.16145,-2.15235,-0.47174,-0.450184,-0.19624
29,65,-1.22173,-0.814493,-0.174533,-0.174533,-1.20021,-0.797645,-0.144521,-0.16145,-2.15235,-0.47174,-0.450184,-0.19624
29,65,-1.22173,-0.814493,-0.174533,-0.174533,-1.20021,-0.797645,-0.144521,-0.16145,-2.15235,-0.47174,-0.450184,-0.19624
29,65,-1.22173,-0.814493,-0.174533,-0.174533,-1.20021,-0.797645,-0.144521,-0.16145,-2.15235,-0.47174,-0.450184,-0.19624
29,65,-1.22173,-0.814493,-0.174533,-0.174533,-1.20021,-0.797645,-0.144521,-0.16145,-2.15235,-0.47174,-0.450184,-0.19624
29,65,-1.22173,-0.814493,-0.174533,-0.174533,-1.20021,-0.797645,-0.144521,-0.16145,-2.15235,-0.47174,-0.450184,-0.19624
29,65,-1.22173,-0.814493,-0.174533,-0.174533,-1.20021,-0.797645,-0.144521,-0.16145,-2.15235,-0.47174,-0.450184,-0.19624
29,65,-1.22173,-0.814493,-0.174533,-0.174533,-1.20021,-0.797645,-0.144521,-0.16145,-2.15235,-0.47174,-0.450184,-0.19624
29,65,-1.22173,-0.814493,-0.174533,-0.174533,-1.20021,-0.797645,-0.144521,-0.16145,-2.15235,-0.47174,-0.450184,-0.19624
29,65,-1.22173,-0.814493,-0.174533,-0.174533,-1.20021,-0.797645,-0.144521,-0.16145,-2.15235,-0.47174,-0.450184,-0.19624
29,65,-1.22173,-0.814493,-0.174533,-0.174533,-1.20021,-0.797645,-0.144521,-0.16145,-2.15235,-0.47174,-0.450184,-0.19624
29,65,-1.22173,-0.814493,-0.174533,-0.174533,-1.20021,-0.797645,-0.144521,-0.16145,-2.15235,-0.47174,-0.450184,-0.19624
29,65,-1.22173,-0.814493,-0.174533,-0.174533,-1.20021,-0.797645,-0.144521,-0.16145,-2.15235,-0.47174,-0.450184,-0.19624
29,65,-1.22173,-0.814493,-0.174533,-0.174533,-1.20021,-0.797645,-0.144521,-0.16145,-2.15235,-0.47174,-0.450184,-0.19624
29,65,-1.22173,-0.814493,-0.174533,-0.174533,-1.20021,-0.797645,-0.144521,-0.16145,-2.15235,-0.47174,-0.450184,-0.19624
29,65,-1.22173,-0.814493,-0.174533,-0.174533,-1.20021,-0.797645,-0.144521,-0.16145,-2.15235,-0.47174,-0.450184,-0.19624
29,65,-1.22173,-0.814493,-0.174533,-0.174533,-1.20021,-0.797645,-0.144521,-0.16145,-2.15235,-0.47174,-0.450184,-0.19624
29,65,-1.22173,-0.814493,-0.174533,-0.174533,-1.20021,-0.797645,-0.144521,-0.16145,-2.15235,-0.47174,-0.450184,-0.19624
29,65,-1.22173,-0.814493,-0.174533,-0.174533,-1.20021,-0.797645,-0.144521,-0.16145,-2.15235,-0.47174,-0.450184,-0.19624
29,65,-1.22173,-0.814493,-0.174533,-0.174533,-1.20021,-0.797645,-0.144521,-0.16145,-2.15235,-0.47174,-0.450184,-0.19624
29,65,-1.22173,-0.814493,-0.174533,-0.174533,-1.20021,-0.797645,-0.144521,-0.16145,-2.15235,-0.47174,-0.450184,-0.19624
29,65,-1.22173,-0.814493,-0.174533,-0.174533,-1.20021,-0.797645,-0.144521,-0.16145,-2.15235,-0.47174,-0.450184,-0.19624
29,65,-1.22173,-0.814493,-0.174533,-0.174533,-1.20021,-0.797645,-0.144521,-0.16145,-2.15235,-0.47174,-0.450184,-0.19624
29,65,-1.22173,-0.814493,-0.174533,-0.174533,-1.20021,-0.797645,-0.144521,-0.16145,-2.15235,-0.47174,-0.450184,-0.19624
29,65,-1.22173,-0.814493,-0.174533,-0.174533,-1.20021,-0.797645,-0.144521,-0.16145,-2.15235,-0.47174,-0.450184,-0.19624
29,65,-1.22173,-0.814493,-0.174533,-0.174533,-1.20021,-0.797645,-0.144521,-0.16145,-2.15235,-0.47174,-0.450184,-0.19624
29,65,-1.22173,-0.814493,-0.174533,-0.174533,-1.20021,-0.797645,-0.144521,-0.16145,-2.15235,-0.47174,-0.450184,-0.19624
29,65,-1.22173,-0.814493,-0.174533,-0.174533,-1.20021,-0.797645,-0.144521,-0.16145,-2.15235,-0.47174,-0.450184,-0.19624
29,65,-1.22173,-0.814493,-0.174533,-0.174533,-1.20021,-0.797645,-0.144521,-0.16145,-2.15235,-0.47174,-0.450184,-0.19624
29,65,-1.22173,-0.814493,-0.174533,-0.174533,-1.20021,-0.797645,-0.144521,-0.16145,-2.15235,-0.47174,-0.450184,-0.19624
29,65,-1.22173,-0.814493,-0.174533,-0.174533,-1.20021,-0.797645,-0.144521,-0.16145,-2.15235,-0.47174,-0.450184,-0.19624
29,65,-1.22173,-0.814493,-0.174533,-0.174533,-1.20021,-0.797645,-0.144521,-0.16145,-2.15235,-0.47174,-0.450184,-0.19624
29,65,-1.22173,-0.814493,-0.174533,-0.174533,-1.20021,-0.797645,-0.144521,-0.16145,-2.15235,-0.47174,-0.450184,-0.19624
29,65,-1.22173,-0.814493,-0.174533,-0.174533,-1.20021,-0.797645,-0.144521,-0.16145,-2.15235,-0.47174,-0.450184,-0.19624
29,65,-1.22173,-0.814493,-0.174533,-0.174533,-1.20021,-0.797645,-0.144521,-0.16145,-2.15235,-0.47174,-0.450184,-0.19624
29,65,-1.22173,-0.814493,-0.174533,-0.174533,-1.20021,-0.797645,-0.144521,-0.16145,-2.15235,-0.47174,-0.450184,-0.19624
29,65,-1.22173,-0.814493,-0.174533,-0.174533,-1.20021,-0.797645,-0.144521,-0.16145,-2.15235,-0.47174,-0.450184,-0.19624
29,65,-1.22173,-0.814493,-0.174533,-0.174533,-1.20021,-0.797645,-0.144521,-0.16145,-2.15235,-0.47174,-0.450184,-0.19624
29,65,-1.22173,-0.814493,-0.174533,-0.174533,-1.20021,-0.797645,-0.144521,-0.16145,-2.15235,-0.47174,-0.450184,-0.19624
29,65,-1.22173,-0.814493,-0.174533,-0.174533,-1.20021,-0.797645,-0.144521,-0.16145,-2.15235,-0.47174,-0.450184,-0.19624
29,65,-1.22173,-0.814493,-0.174533,-0.174533,-1.20021,-0.797645,-0.144521,-0.16145,-2.15235,-0.47174,-0.450184,-0.19624
29,65,-1.22173,-0.814493,-0.174533,-0.174533,-1.20021,-0.797645,-0.144521,-0.16145,-2.15235,-0.47174,-0.450184,-0.19624
29,65,-1.22173,-0.814493,-0.174533,-0.174533,-1.20021,-0.797645,-0.144521,-0.16145,-2.15235,-0.47174,-0.450184,-0.19624
29,65,-1.22173,-0.814493,-0.174533,-0.174533,-1.20021,-0.797645,-0.144521,-0.16145,-2.15235,-0.47174,-0.450184,-0.19624
29,65,-1.22173,-0.814493,-0.174533,-0.174533,-1.20021,-0.797645,-0.144521,-0.16145,-2.15235,-0.47174,-0.450184,-0.19624
29,65,-1.22173,-0.814493,-0.174533,-0.174533,-1.20021,-0.797645,-0.144521,-0.16145,-2.15235,-0.47174,-0.450184,-0.19624
29,65,-1.22173,-0.814493,-0.174533,-0.174533,-1.20021,-0.797645,-0.144521,-0.16145,-2.15235,-0.47174,-0.450184,-0.19624
29,65,-1.22173,-0.814493,-0.174533,-0.174533,-1.20021,-0.797645,-0.144521,-0.16145,-2.15235,-0.47174,-0.450184,-0.19624
29,65,-1.22173,-0.814493,-0.174533,-0.174533,-1.20021,-0.797645,-0.144521,-0.16145,-2.15235,-0.47174,-0.450184,-0.19624
29,65,-1.22173,-0.814493,-0.174533,-0.174533,-1.20021,-0.797645,-0.144521,-0.16145,-2.15235,-0.47174,-0.450184,-0.19624
29,65,-1.22173,-0.814493,-0.174533,-0.174533,-1.20021,-0.797645,-0.144521,-0.16145,-2.15235,-0.47174,-0.450184,-0.19624
29,65,-1.22173,-0.814493,-0.174533,-0.174533,-1.20021,-0.797645,-0.144521,-0.16145,-2.15235,-0.47174,-0.450184,-0.19624
29,65,-1.22173,-0.814493,-0.174533,-0.174533,-1.20021,-0.797645,-0.144521,-0.16145,-2.15235,-0.47174,-0.450184,-0.19624
29,65,-1.22173,-0.814493,-0.174533,-0.174533,-1.20021,-0.797645,-0.144521,-0.16145,-2.15235,-0.47174,-0.450184,-0.19624
29,65,-1.22173,-0.814493,-0.174533,-0.174533,-1.20021,-0.797645,-0.144521,-0.16145,-2.15235,-0.47174,-0.450184,-0.19624
29,65,-1.22173,-0.814493,-0.174533,-0.174533,-1.20021,-0.797645,-0.144521,-0.16145,-2.15235,-0.47174,-0.450184,-0.19624
29,65,-1.22173,-0.814493,-0.174533,-0.174533,-1.20021,-0.797645,-0.144521,-0.16145,-2.15235,-0.47174,-0.450184,-0.19624
29,65,-1.22173,-0.814493,-0.174533,-0.174533,-1.20021,-0.797645,-0.144521,-0.16145,-2.15235,-0.47174,-0.450184,-0.19624
29,65,-1.22173,-0.814493,-0.174533,-0.174533,-1.20021,-0.797645,-0.144521,-0.16145,-2.15235,-0.47174,-0.450184,-0.19624
29,65,-1.22173,-0.814493,-0.174533,-0.174533,-1.20021,-0.797645,-0.144521,-0.16145,-2.15235,-0.47174,-0.450184,-0.19624
29,65,-1.22173,-0.814493,-0.174533,-0.174533,-1.20021,-0.797645,-0.144521,-0.16145,-2.15235,-0.47174,-0.450184,-0.19624
29,65,-1.22173,-0.814493,-0.174533,-0.174533,-1.20021,-0.797645,-0.144521,-0.16145,-2.15235,-0.47174,-0.450184,-0.19624
29,65,-1.22173,-0.814493,-0.174533,-0.174533,-1.20021,-0.797645,-0.144521,-0.16145,-2.15235,-0.47174,-0.450184,-0.19624
29,65,-1.22173,-0.814493,-0.174533,-0.174533,-1.20021,-0.797645,-0.144521,-0.16145,-2.15235,-0.47174,-0.450184,-0.19624
29,65,-1.22173,-0.814493,-0.174533,-0.174533,-1.20021,-0.797645,-0.144521,-0.16145,-2.15235,-0.47174,-0.450184,-0.19624
29,65,-1.22173,-0.814493,-0.174533,-0.174533,-1.20021,-0.797645,-0.144521,-0.16145,-2.15235,-0.47174,-0.450184,-0.19624
29,65,-1.22173,-0.814493,-0.174533,-0.174533,-1.20021,-0.797645,-0.144521,-0.16145,-2.15235,-0.47174,-0.450184,-0.19624
29,65,-1.22173,-0.814493,-0.174533,-0.174533,-1.20021,-0.797645,-0.144458,-0.161409,-2.15235,-0.47174,-0.451125,-0.196854
29,65,-1.22173,-0.814493,-0.174533,-0.174533,-1.20021,-0.797645,-0.144458,-0.161409,-2.15235,-0.47174,-0.451125,-0.196854
29,65,-1.22173,-0.814493,-0.174533,-0.174533,-1.20021,-0.797645,-0.144458,-0.161409,-2.15235,-0.47174,-0.451125,-0.196854
29,65,-1.22173,-0.814493,-0.174533,-0.174533,-1.20021,-0.797645,-0.144458,-0.161409,-2.15235,-0.47174,-0.451125,-0.196854
29,65,-1.22173,-0.814493,-0.174533,-0.174533,-1.20021,-0.797645,-0.144458,-0.161409,-2.15235,-0.47174,-0.451125,-0.196854
29,65,-1.22173,-0.814493,-0.174533,-0.174533,-1.20021,-0.797645,-0.144458,-0.161409,-2.15235,-0.47174,-0.451125,-0.196854
29,65,-1.22173,-0.814493,-0.174533,-0.174533,-1.20021,-0.797645,-0.144458,-0.161409,-2.15235,-0.47174,-0.451125,-0.196854
29,65,-1.22173,-0.814493,-0.174533,-0.174533,-1.20021,-0.797645,-0.144458,-0.161409,-2.15235,-0.47174,-0.451125,-0.196854
29,65,-1.22173,-0.814493,-0.174533,-0.174533,-1.20021,-0.797645,-0.144458,-0.161409,-2.15235,-0.47174,-0.451125,-0.196854
29,65,-1.22173,-0.814493,-0.174533,-0.174533,-1.20021,-0.797645,-0.144458,-0.161409,-2.15235,-0.47174,-0.451125,-0.196854
29,65,-1.22173,-0.814493,-0.174533,-0.174533,-1.20021,-0.797645,-0.144458,-0.161409,-2.15235,-0.47174,-0.451125,-0.196854
29,65,-1.22173,-0.814493,-0.174533,-0.174533,-1.20021,-0.797645,-0.144458,-0.161409,-2.15235,-0.47174,-0.451125,-0.196854
29,65,-1.22173,-0.814493,-0.174533,-0.174533,-1.20021,-0.797645,-0.144458,-0.161409,-2.15235,-0.47174,-0.451125,-0.196854
29,65,-1.22173,-0.814493,-0.174533,-0.174533,-1.20021,-0.797645,-0.144458,-0.161409,-2.15235,-0.47174,-0.451125,-0.196854
29,65,-1.22173,-0.814493,-0.174533,-0.174533,-1.20021,-0.797645,-0.144458,-0.161409,-2.15235,-0.47174,-0.451125,-0.196854
29,65,-1.22173,-0.814493,-0.174533,-0.174533,-1.20021,-0.797645,-0.144458,-0.161409,-2.15235,-0.47174,-0.451125,-0.196854
29,65,-1.22173,-0.814493,-0.174533,-0.174533,-1.20021,-0.797645,-0.144458,-0.161409,-2.15235,-0.47174,-0.451125,-0.196854
29,65,-1.22173,-0.814493,-0.174533,-0.174533,-1.20021,-0.797645,-0.144458,-0.161409,-2.15235,-0.47174,-0.451125,-0.196854
29,65,-1.22173,-0.814493,-0.174533,-0.174533,-1.20021,-0.797645,-0.144458,-0.161409,-2.15235,-0.47174,-0.451125,-0.196854
29,65,-1.22173,-0.814493,-0.174533,-0.174533,-1.20021,-0.797645,-0.144458,-0.161409,-2.15235,-0.47174,-0.451125,-0.196854
29,65,-1.22173,-0.814493,-0.174533,-0.174533,-1.20021,-0.797645,-0.144458,-0.161409,-2.15235,-0.47174,-0.451125,-0.196854
29,65,-1.22173,-0.814493,-0.174533,-0.174533,-1.20021,-0.797645,-0.144458,-0.161409,-2.15235,-0.47174,-0.451125,-0.196854
29,65,-1.22173,-0.814493,-0.174533,-0.174533,-1.20021,-0.797645,-0.144458,-0.161409,-2.15235,-0.47174,-0.451125,-0.196854
29,65,-1.22173,-0.814493,-0.174533,-0.174533,-1.20021,-0.797645,-0.144458,-0.161409,-2.15235,-0.47174,-0.451125,-0.196854
29,65,-1.22173,-0.814493,-0.174533,-0.174533,-1.20021,-0.797645,-0.144458,-0.161409,-2.15235,-0.47174,-0.451125,-0.196854
29,65,-1.22173,-0.814493,-0.174533,-0.174533,-1.20021,-0.797645,-0.144458,-0.161409,-2.15235,-0.47174,-0.451125,-0.196854
29,65,-1.22173,-0.814493,-0.174533,-0.174533,-1.20021,-0.797645,-0.144458,-0.161409,-2.15235,-0.47174,-0.451125,-0.196854
29,65,-1.22173,-0.814493,-0.174533,-0.174533,-1.20021,-0.797645,-0.144458,-0.161409,-2.15235,-0.47174,-0.451125,-0.196854
29,65,-1.22173,-0.814493,-0.174533,-0.174533,-1.20021,-0.797645,-0.144458,-0.161409,-2.15235,-0.47174,-0.451125,-0.196854
29,65,-1.22173,-0.814493,-0.174533,-0.174533,-1.20021,-0.797645,-0.144458,-0.161409,-2.15235,-0.47174,-0.451125,-0.196854
29,65,-1.22173,-0.814493,-0.174533,-0.174533,-1.20021,-0.797645,-0.144458,-0.161409,-2.15235,-0.47174,-0.451125,-0.196854
29,65,-1.22173,-0.814493,-0.174533,-0.174533,-1.20021,-0.797645,-0.144458,-0.161409,-2.15235,-0.47174,-0.451125,-0.196854
29,65,-1.22173,-0.814493,-0.174533,-0.174533,-1.20021,-0.797645,-0.144458,-0.161409,-2.15235,-0.47174,-0.451125,-0.196854
29,65,-1.22173,-0.814493,-0.174533,-0.174533,-1.20021,-0.797645,-0.144458,-0.161409,-2.15235,-0.47174,-0.451125,-0.196854
29,65,-1.22173,-0.814493,-0.174533,-0.174533,-1.20021,-0.797645,-0.144458,-0.161409,-2.15235,-0.47174,-0.451125,-0.196854
29,65,-1.22173,-0.814493,-0.174533,-0.174533,-1.20021,-0.797645,-0.144458,-0.161409,-2.15235,-0.47174,-0.451125,-0.196854
29,65,-1.22173,-0.814493,-0.174533,-0.174533,-1.20021,-0.797645,-0.144458,-0.161409,-2.15235,-0.47174,-0.451125,-0.196854
29,65,-1.22173,-0.814493,-0.174533,-0.174533,-1.20021,-0.797645,-0.144458,-0.161409,-2.15235,-0.47174,-0.451125,-0.196854
29,65,-1.22173,-0.814493,-0.174533,-0.174533,-1.20021,-0.797645,-0.144458,-0.161409,-2.15235,-0.47174,-0.451125,-0.196854
29,65,-1.22173,-0.814493,-0.174533,-0.174533,-1.20021,-0.797645,-0.144458,-0.161409,-2.15235,-0.47174,-0.451125,-0.196854
29,65,-1.22173,-0.814493,-0.174533,-0.174533,-1.20021,-0.797645,-0.144458,-0.161409,-2.15235,-0.47174,-0.451125,-0.196854
29,65,-1.22173,-0.814493,-0.174533,-0.174533,-1.20021,-0.797645,-0.144458,-0.161409,-2.15235,-0.47174,-0.451125,-0.196854
29,65,-1.22173,-0.814493,-0.174533,-0.174533,-1.20021,-0.797645,-0.144458,-0.161409,-2.15235,-0.47174,-0.451125,-0.196854
29,65,-1.22173,-0.814493,-0.174533,-0.174533,-1.20021,-0.797645,-0.144458,-0.161409,-2.15235,-0.47174,-0.451125,-0.196854
29,65,-1.22173,-0.814493,-0.174533,-0.174533,-1.20021,-0.797645,-0.144458,-0.161409,-2.15235,-0.47174,-0.451125,-0.196854
29,65,-1.22173,-0.814493,-0.174533,-0.174533,-1.20021,-0.797645,-0.144458,-0.161409,-2.15235,-0.47174,-0.451125,-0.196854
29,65,-1.22173,-0.814493,-0.174533,-0.174533,-1.20021,-0.797645,-0.144458,-0.161409,-2.15235,-0.47174,-0.451125,-0.196854
29,65,-1.22173,-0.814493,-0.174533,-0.174533,-1.20021,-0.797645,-0.144458,-0.161409,-2.15235,-0.47174,-0.451125,-0.196854
29,65,-1.22173,-0.814493,-0.174533,-0.174533,-1.20021,-0.797645,-0.144458,-0.161409,-2.15235,-0.47174,-0.451125,-0.196854
29,65,-1.22173,-0.814493,-0.174533,-0.174533,-1.20021,-0.797645,-0.144458,-0.161409,-2.15235,-0.47174,-0.451125,-0.196854
29,65,-1.22173,-0.814493,-0.174533,-0.174533,-1.20021,-0.797645,-0.144458,-0.161409,-2.15235,-0.47174,-0.451125,-0.196854
29,65,-1.22173,-0.814493,-0.174533,-0.174533,-1.20021,-0.797645,-0.144458,-0.161409,-2.15235,-0.47174,-0.451125,-0.196854
29,65,-1.22173,-0.814493,-0.174533,-0.174533,-1.20021,-0.797645,-0.144458,-0.161409,-2.15235,-0.47174,-0.451125,-0.196854
29,65,-1.22173,-0.814493,-0.174533,-0.174533,-1.20021,-0.797645,-0.144458,-0.161409,-2.15235,-0.47174,-0.451125,-0.196854
29,65,-1.22173,-0.814493,-0.174533,-0.174533,-1.20021,-0.797645,-0.144458,-0.161409,-2.15235,-0.47174,-0.451125,-0.196854
29,65,-1.22173,-0.814493,-0.174533,-0.174533,-1.20021,-0.797645,-0.144458,-0.161409,-2.15235,-0.47174,-0.451125,-0.196854
29,65,-1.22173,-0.814493,-0.174533,-0.174533,-1.20021,-0.797645,-0.144458,-0.161409,-2.15235,-0.47174,-0.451125,-0.196854
29,65,-1.22173,-0.814493,-0.174533,-0.174533,-1.20021,-0.797645,-0.144458,-0.161409,-2.15235,-0.47174,-0.451125,-0.196854
29,65,-1.22173,-0.814493,-0.174533,-0.174533,-1.20021,-0.797645,-0.144458,-0.161409,-2.15235,-0.47174,-0.451125,-0.196854
29,65,-1.22173,-0.814493,-0.174533,-0.174533,-1.20021,-0.797645,-0.144458,-0.161409,-2.15235,-0.47174,-0.451125,-0.196854
29,65,-1.22173,-0.814493,-0.174533,-0.174533,-1.20021,-0.797645,-0.144458,-0.161409,-2.15235,-0.47174,-0.451125,-0.196854
29,65,-1.22173,-0.814493,-0.174533,-0.174533,-1.20021,-0.797645,-0.144458,-0.161409,-2.15235,-0.47174,-0.451125,-0.196854
29,65,-1.22173,-0.814493,-0.174533,-0.174533,-1.20021,-0.797645,-0.144458,-0.161409,-2.15235,-0.47174,-0.451125,-0.196854
29,65,-1.22173,-0.814493,-0.174533,-0.174533,-1.20021,-0.797645,-0.144458,-0.161409,-2.15235,-0.47174,-0.451125,-0.196854
29,65,-1.22173,-0.814493,-0.174533,-0.174533,-1.20021,-0.797645,-0.144458,-0.161409,-2.15235,-0.47174,-0.451125,-0.196854
29,65,-1.22173,-0.814493,-0.174533,-0.174533,-1.20021,-0.797645,-0.144458,-0.161409,-2.15235,-0.47174,-0.451125,-0.196854
29,65,-1.22173,-0.814493,-0.174533,-0.174533,-1.20021,-0.797645,-0.144458,-0.161409,-2.15235,-0.47174,-0.451125,-0.196854
29,65,-1.22173,-0.814493,-0.174533,-0.174533,-1.20021,-0.797645,-0.144458,-0.161409,-2.15235,-0.47174,-0.451125,-0.196854
29,65,-1.22173,-0.814493,-0.174533,-0.174533,-1.20021,-0.797645,-0.144458,-0.161409,-2.15235,-0.47174,-0.451125,-0.196854
29,65,-1.22173,-0.814493,-0.174533,-0.174533,-1.20021,-0.797645,-0.144458,-0.161409,-2.15235,-0.47174,-0.451125,-0.196854
29,65,-1.22173,-0.814493,-0.174533,-0.174533,-1.20021,-0.797645,-0.144458,-0.161409,-2.15235,-0.47174,-0.451125,-0.196854
29,65,-1.22173,-0.814493,-0.174533,-0.174533,-1.20021,-0.797645,-0.144458,-0.161409,-2.15235,-0.47174,-0.451125,-0.196854
29,65,-1.22173,-0.814493,-0.174533,-0.174533,-1.20021,-0.797645,-0.144458,-0.161409,-2.15235,-0.47174,-0.451125,-0.196854
29,65,-1.22173,-0.814493,-0.174533,-0.174533,-1.20021,-0.797645,-0.144458,-0.161409,-2.15235,-0.47174,-0.451125,-0.196854
29,65,-1.22173,-0.814493,-0.174533,-0.174533,-1.20021,-0.797645,-0.144458,-0.161409,-2.15235,-0.47174,-0.451125,-0.196854
29,65,-1.22173,-0.814493,-0.174533,-0.174533,-1.20021,-0.797645,-0.144458,-0.161409,-2.15235,-0.47174,-0.451125,-0.196854
29,65,-1.22173,-0.814493,-0.174533,-0.174533,-1.20021,-0.797645,-0.144458,-0.161409,-2.15235,-0.47174,-0.451125,-0.196854
29,65,-1.22173,-0.814493,-0.174533,-0.174533,-1.20021,-0.797645,-0.144458,-0.161409,-2.15235,-0.47174,-0.451125,-0.196854
29,65,-1.22173,-0.814493,-0.174533,-0.174533,-1.20021,-0.797645,-0.144458,-0.161409,-2.15235,-0.47174,-0.451125,-0.196854
29,65,-1.22173,-0.814493,-0.174533,-0.174533,-1.20021,-0.797645,-0.144458,-0.161409,-2.15235,-0.47174,-0.451125,-0.196854
29,65,-1.22173,-0.814493,-0.174533,-0.174533,-1.20021,-0.797645,-0.144458,-0.161409,-2.15235,-0.47174,-0.451125,-0.196854
29,65,-1.22173,-0.814493,-0.174533,-0.174533,-1.20021,-0.797645,-0.144458,-0.161409,-2.15235,-0.47174,-0.451125,-0.196854
29,65,-1.22173,-0.814493,-0.174533,-0.174533,-1.20021,-0.797645,-0.144458,-0.161409,-2.15235,-0.47174,-0.451125,-0.196854
29,65,-1.22173,-0.814493,-0.174533,-0.174533,-1.20021,-0.797645,-0.144458,-0.161409,-2.15235,-0.47174,-0.451125,-0.196854
29,65,-1.22173,-0.814493,-0.174533,-0.174533,-1.20021,-0.797645,-0.144458,-0.161409,-2.15235,-0.47174,-0.451125,-0.196854
29,65,-1.22173,-0.814493,-0.174533,-0.174533,-1.20021,-0.797645,-0.144458,-0.161409,-2.15235,-0.47174,-0.451125,-0.196854
29,65,-1.22173,-0.814493,-0.174533,-0.174533,-1.20021,-0.797645,-0.144458,-0.161409,-2.15235,-0.47174,-0.451125,-0.196854
29,65,-1.22173,-0.814493,-0.174533,-0.174533,-1.20021,-0.797645,-0.144458,-0.161409,-2.15235,-0.47174,-0.451125,-0.196854
29,65,-1.22173,-0.814493,-0.174533,-0.174533,-1.20021,-0.797645,-0.144458,-0.161409,-2.15235,-0.47174,-0.451125,-0.196854
29,65,-1.22173,-0.814493,-0.174533,-0.174533,-1.20021,-0.797645,-0.144458,-0.161409,-2.15235,-0.47174,-0.451125,-0.196854
29,65,-1.22173,-0.814493,-0.174533,-0.174533,-1.20021,-0.797645,-0.144458,-0.161409,-2.15235,-0.47174,-0.451125,-0.196854
29,65,-1.22173,-0.814493,-0.174533,-0.174533,-1.20021,-0.797645,-0.144458,-0.161409,-2.15235,-0.47174,-0.451125,-0.196854
29,65,-1.22173,-0.814493,-0.174533,-0.174533,-1.20021,-0.797645,-0.144458,-0.161409,-2.15235,-0.47174,-0.451125,-0.196854
29,65,-1.22173,-0.814493,-0.174533,-0.174533,-1.20021,-0.797645,-0.144458,-0.161409,-2.15235,-0.47174,-0.451125,-0.196854
29,65,-1.22173,-0.814493,-0.174533,-0.174533,-1.20021,-0.797645,-0.144458,-0.161409,-2.15235,-0.47174,-0.451125,-0.196854
29,65,-1.22173,-0.814493,-0.174533,-0.174533,-1.20021,-0.797645,-0.144458,-0.161409,-2.15235,-0.47174,-0.451125,-0.196854
29,65,-1.22173,-0.814493,-0.174533,-0.174533,-1.20021,-0.797645,-0.144458,-0.161409,-2.15235,-0.47174,-0.451125,-0.196854
29,65,-1.22173,-0.814493,-0.174533,-0.174533,-1.20021,-0.797645,-0.144458,-0.161409,-2.15235,-0.47174,-0.451125,-0.196854
29,65,-1.22173,-0.814493,-0.174533,-0.174533,-1.20021,-0.797645,-0.144458,-0.161409,-2.15235,-0.47174,-0.451125,-0.196854
29,65,-1.22173,-0.814493,-0.174533,-0.174533,-1.20021,-0.797645,-0.144458,-0.161409,-2.15235,-0.47174,-0.451125,-0.196854
29,65,-1.22173,-0.814493,-0.174533,-0.174533,-1.20021,-0.797645,-0.144458,-0.161409,-2.15235,-0.47174,-0.451125,-0.196854
29,65,-1.22173,-0.814493,-0.174533,-0.174533,-1.20021,-0.797645,-0.144458,-0.161409,-2.15235,-0.47174,-0.451125,-0.196854
29,65,-1.22173,-0.814493,-0.174533,-0.174533,-1.20021,-0.797645,-0.144458,-0.161409,-2.15235,-0.47174,-0.451125,-0.196854
