stim_pw [us],stim_amp [mA],com_elbow_fe [rad],com_forearm_ps [rad],com_wrist_fe [rad],com_wrist_ru [rad],act_elbow_fe [rad],act_forearm_ps [rad],act_wrist_fe [rad],act_wrist_ru [rad],elbow_fe_trq [Nm],forearm_ps_trq [Nm],wrist_fe_trq [Nm],wrist_ru_trq [Nm]
35,65,-0.654498,-0.814493,-0.174533,-0.174533,-0.648281,-0.804203,-0.151556,-0.161012,-0.621774,-0.288102,-0.34465,-0.202781
35,65,-0.654498,-0.814493,-0.174533,-0.174533,-0.648281,-0.804203,-0.151556,-0.161012,-0.621774,-0.288102,-0.34465,-0.202781
35,65,-0.654498,-0.814493,-0.174533,-0.174533,-0.648281,-0.804203,-0.151556,-0.161012,-0.621774,-0.288102,-0.34465,-0.202781
35,65,-0.654498,-0.814493,-0.174533,-0.174533,-0.648281,-0.804203,-0.151556,-0.161012,-0.621774,-0.288102,-0.34465,-0.202781
35,65,-0.654498,-0.814493,-0.174533,-0.174533,-0.648281,-0.804203,-0.151556,-0.161012,-0.621774,-0.288102,-0.34465,-0.202781
35,65,-0.654498,-0.814493,-0.174533,-0.174533,-0.648281,-0.804203,-0.151556,-0.161012,-0.621774,-0.288102,-0.34465,-0.202781
35,65,-0.654498,-0.814493,-0.174533,-0.174533,-0.648281,-0.804203,-0.151556,-0.161012,-0.621774,-0.288102,-0.34465,-0.202781
35,65,-0.654498,-0.814493,-0.174533,-0.174533,-0.648281,-0.804203,-0.151556,-0.161012,-0.621774,-0.288102,-0.34465,-0.202781
35,65,-0.654498,-0.814493,-0.174533,-0.174533,-0.648281,-0.804203,-0.151556,-0.161012,-0.621774,-0.288102,-0.34465,-0.202781
35,65,-0.654498,-0.814493,-0.174533,-0.174533,-0.648281,-0.804203,-0.151556,-0.161012,-0.621774,-0.288102,-0.34465,-0.202781
35,65,-0.654498,-0.814493,-0.174533,-0.174533,-0.648281,-0.804203,-0.151556,-0.161012,-0.621774,-0.288102,-0.34465,-0.202781
35,65,-0.654498,-0.814493,-0.174533,-0.174533,-0.648281,-0.804203,-0.151556,-0.161012,-0.621774,-0.288102,-0.34465,-0.202781
35,65,-0.654498,-0.814493,-0.174533,-0.174533,-0.648281,-0.804203,-0.151556,-0.161012,-0.621774,-0.288102,-0.344651,-0.202781
35,65,-0.654498,-0.814493,-0.174533,-0.174533,-0.648281,-0.804203,-0.151556,-0.161012,-0.621774,-0.288102,-0.344651,-0.202781
35,65,-0.654498,-0.814493,-0.174533,-0.174533,-0.648281,-0.804203,-0.151556,-0.161012,-0.621774,-0.288102,-0.344652,-0.202782
35,65,-0.654498,-0.814493,-0.174533,-0.174533,-0.648281,-0.804203,-0.151619,-0.161053,-0.621774,-0.288102,-0.34374,-0.202185
35,65,-0.654498,-0.814493,-0.174533,-0.174533,-0.648281,-0.804203,-0.151619,-0.161053,-0.621774,-0.288102,-0.34374,-0.202185
35,65,-0.654498,-0.814493,-0.174533,-0.174533,-0.648281,-0.804203,-0.151619,-0.161053,-0.621774,-0.288102,-0.34374,-0.202185
35,65,-0.654498,-0.814493,-0.174533,-0.174533,-0.648281,-0.804203,-0.151619,-0.161053,-0.621774,-0.288102,-0.34374,-0.202185
35,65,-0.654498,-0.814493,-0.174533,-0.174533,-0.648281,-0.804203,-0.151619,-0.161053,-0.621774,-0.288102,-0.34374,-0.202185
35,65,-0.654498,-0.814493,-0.174533,-0.174533,-0.648281,-0.804203,-0.151619,-0.161053,-0.621774,-0.288102,-0.34374,-0.202185
35,65,-0.654498,-0.814493,-0.174533,-0.174533,-0.648281,-0.804203,-0.151619,-0.161053,-0.621774,-0.288102,-0.34374,-0.202185
35,65,-0.654498,-0.814493,-0.174533,-0.174533,-0.648281,-0.804203,-0.151619,-0.161053,-0.621774,-0.288102,-0.34374,-0.202185
35,65,-0.654498,-0.814493,-0.174533,-0.174533,-0.648281,-0.804203,-0.151619,-0.161053,-0.621774,-0.288102,-0.34374,-0.202185
35,65,-0.654498,-0.814493,-0.174533,-0.174533,-0.648281,-0.804203,-0.151619,-0.161053,-0.621774,-0.288102,-0.34374,-0.202185
35,65,-0.654498,-0.814493,-0.174533,-0.174533,-0.648281,-0.804203,-0.151619,-0.161053,-0.621774,-0.288102,-0.34374,-0.202185
35,65,-0.654498,-0.814493,-0.174533,-0.174533,-0.648281,-0.804203,-0.151619,-0.161053,-0.621774,-0.288102,-0.34374,-0.202185
35,65,-0.654498,-0.814493,-0.174533,-0.174533,-0.648281,-0.804203,-0.151619,-0.161053,-0.621774,-0.288102,-0.34374,-0.202185
35,65,-0.654498,-0.814493,-0.174533,-0.174533,-0.648281,-0.804203,-0.151619,-0.161053,-0.621774,-0.288102,-0.34374,-0.202185
35,65,-0.654498,-0.814493,-0.174533,-0.174533,-0.648281,-0.804203,-0.151619,-0.161053,-0.621774,-0.288102,-0.34374,-0.202185
35,65,-0.654498,-0.814493,-0.174533,-0.174533,-0.648281,-0.804203,-0.151619,-0.161053,-0.621774,-0.288102,-0.34374,-0.202185
35,65,-0.654498,-0.814493,-0.174533,-0.174533,-0.648281,-0.804203,-0.151619,-0.161053,-0.621774,-0.288102,-0.34374,-0.202185
35,65,-0.654498,-0.814493,-0.174533,-0.174533,-0.648281,-0.804203,-0.151619,-0.161053,-0.621774,-0.288102,-0.34374,-0.202185
35,65,-0.654498,-0.814493,-0.174533,-0.174533,-0.648281,-0.804203,-0.151619,-0.161053,-0.621774,-0.288102,-0.34374,-0.202185
35,65,-0.654498,-0.814493,-0.174533,-0.174533,-0.648281,-0.804203,-0.151619,-0.161053,-0.621774,-0.288102,-0.34374,-0.202185
35,65,-0.654498,-0.814493,-0.174533,-0.174533,-0.648281,-0.804203,-0.151619,-0.161053,-0.621774,-0.288102,-0.34374,-0.202185
35,65,-0.654498,-0.814493,-0.174533,-0.174533,-0.648281,-0.804203,-0.151619,-0.161053,-0.621774,-0.288102,-0.343739,-0.202186
35,65,-0.654498,-0.814493,-0.174533,-0.174533,-0.648281,-0.804203,-0.151619,-0.161053,-0.621774,-0.288102,-0.343739,-0.202186
35,65,-0.654498,-0.814493,-0.174533,-0.174533,-0.648281,-0.804203,-0.151619,-0.161053,-0.621774,-0.288102,-0.343738,-0.202186
35,65,-0.654498,-0.814493,-0.174533,-0.174533,-0.648281,-0.804203,-0.151619,-0.161053,-0.621774,-0.288102,-0.343738,-0.202186
35,65,-0.654498,-0.814493,-0.174533,-0.174533,-0.648281,-0.804203,-0.151619,-0.161053,-0.621774,-0.288102,-0.343738,-0.202186
35,65,-0.654498,-0.814493,-0.174533,-0.174533,-0.648281,-0.804203,-0.151619,-0.161053,-0.621774,-0.288102,-0.343737,-0.202186
35,65,-0.654498,-0.814493,-0.174533,-0.174533,-0.648281,-0.804203,-0.151619,-0.161053,-0.621774,-0.288102,-0.343737,-0.202186
35,65,-0.654498,-0.814493,-0.174533,-0.174533,-0.648281,-0.804203,-0.151619,-0.161053,-0.621774,-0.288102,-0.343737,-0.202186
35,65,-0.654498,-0.814493,-0.174533,-0.174533,-0.648281,-0.804203,-0.151619,-0.161053,-0.621774,-0.288102,-0.343736,-0.202187
35,65,-0.654498,-0.814493,-0.174533,-0.174533,-0.648281,-0.804203,-0.151619,-0.161053,-0.621774,-0.288102,-0.343708,-0.202196
35,65,-0.654498,-0.814493,-0.174533,-0.174533,-0.648281,-0.804203,-0.151619,-0.161053,-0.621774,-0.288102,-0.343708,-0.202196
35,65,-0.654498,-0.814493,-0.174533,-0.174533,-0.648281,-0.804203,-0.151619,-0.161053,-0.621774,-0.288102,-0.343708,-0.202196
35,65,-0.654498,-0.814493,-0.174533,-0.174533,-0.648281,-0.804203,-0.151619,-0.161053,-0.621774,-0.288102,-0.343708,-0.202196
35,65,-0.654498,-0.814493,-0.174533,-0.174533,-0.648281,-0.804203,-0.151619,-0.161053,-0.621774,-0.288102,-0.343708,-0.202196
35,65,-0.654498,-0.814493,-0.174533,-0.174533,-0.648281,-0.804203,-0.151619,-0.161053,-0.621774,-0.288102,-0.343708,-0.202196
35,65,-0.654498,-0.814493,-0.174533,-0.174533,-0.648281,-0.804203,-0.151619,-0.161053,-0.621774,-0.288102,-0.343708,-0.202196
35,65,-0.654498,-0.814493,-0.174533,-0.174533,-0.648281,-0.804203,-0.151619,-0.161053,-0.621774,-0.288102,-0.343708,-0.202196
35,65,-0.654498,-0.814493,-0.174533,-0.174533,-0.648281,-0.804203,-0.151619,-0.161053,-0.621774,-0.288102,-0.343708,-0.202196
35,65,-0.654498,-0.814493,-0.174533,-0.174533,-0.648281,-0.804203,-0.151619,-0.161053,-0.621774,-0.288102,-0.343708,-0.202196
35,65,-0.654498,-0.814493,-0.174533,-0.174533,-0.648281,-0.804203,-0.151682,-0.161095,-0.621774,-0.288102,-0.342759,-0.201576
35,65,-0.654498,-0.814493,-0.174533,-0.174533,-0.648281,-0.804203,-0.151682,-0.161095,-0.621774,-0.288102,-0.342759,-0.201576
35,65,-0.654498,-0.814493,-0.174533,-0.174533,-0.648281,-0.804203,-0.151682,-0.161095,-0.621774,-0.288102,-0.342759,-0.201576
35,65,-0.654498,-0.814493,-0.174533,-0.174533,-0.648281,-0.804203,-0.151682,-0.161095,-0.621774,-0.288102,-0.342759,-0.201576
35,65,-0.654498,-0.814493,-0.174533,-0.174533,-0.648281,-0.804203,-0.151682,-0.161095,-0.621774,-0.288102,-0.342759,-0.201576
35,65,-0.654498,-0.814493,-0.174533,-0.174533,-0.648281,-0.804203,-0.151682,-0.161095,-0.621774,-0.288102,-0.342759,-0.201576
35,65,-0.654498,-0.814493,-0.174533,-0.174533,-0.648281,-0.804203,-0.151682,-0.161095,-0.621774,-0.288102,-0.342759,-0.201576
35,65,-0.654498,-0.814493,-0.174533,-0.174533,-0.648281,-0.804203,-0.151682,-0.161095,-0.621774,-0.288102,-0.342759,-0.201576
35,65,-0.654498,-0.814493,-0.174533,-0.174533,-0.648281,-0.804203,-0.151682,-0.161095,-0.621774,-0.288102,-0.342759,-0.201576
35,65,-0.654498,-0.814493,-0.174533,-0.174533,-0.648281,-0.804203,-0.151682,-0.161095,-0.621774,-0.288102,-0.342759,-0.201576
35,65,-0.654498,-0.814493,-0.174533,-0.174533,-0.648281,-0.804203,-0.151682,-0.161095,-0.621774,-0.288102,-0.342759,-0.201576
35,65,-0.654498,-0.814493,-0.174533,-0.174533,-0.648281,-0.804203,-0.151682,-0.161095,-0.621774,-0.288102,-0.342759,-0.201576
35,65,-0.654498,-0.814493,-0.174533,-0.174533,-0.648281,-0.804203,-0.151623,-0.161115,-0.621774,-0.288102,-0.343648,-0.201275
35,65,-0.654498,-0.814493,-0.174533,-0.174533,-0.648281,-0.804203,-0.151623,-0.161115,-0.621774,-0.288102,-0.343648,-0.201275
35,65,-0.654498,-0.814493,-0.174533,-0.174533,-0.648281,-0.804203,-0.151623,-0.161115,-0.621774,-0.288102,-0.343648,-0.201275
35,65,-0.654498,-0.814493,-0.174533,-0.174533,-0.648281,-0.804203,-0.151623,-0.161115,-0.621774,-0.288102,-0.343648,-0.201275
35,65,-0.654498,-0.814493,-0.174533,-0.174533,-0.648281,-0.804203,-0.151623,-0.161115,-0.621774,-0.288102,-0.343648,-0.201275
35,65,-0.654498,-0.814493,-0.174533,-0.174533,-0.648281,-0.804203,-0.151623,-0.161115,-0.621774,-0.288102,-0.343648,-0.201275
35,65,-0.654498,-0.814493,-0.174533,-0.174533,-0.648281,-0.804203,-0.151623,-0.161115,-0.621774,-0.288102,-0.343648,-0.201275
35,65,-0.654498,-0.814493,-0.174533,-0.174533,-0.648281,-0.804203,-0.151623,-0.161115,-0.621774,-0.288102,-0.343648,-0.201275
35,65,-0.654498,-0.814493,-0.174533,-0.174533,-0.648281,-0.804203,-0.151623,-0.161115,-0.621774,-0.288102,-0.343648,-0.201275
35,65,-0.654498,-0.814493,-0.174533,-0.174533,-0.648281,-0.804203,-0.151623,-0.161115,-0.621774,-0.288102,-0.343648,-0.201275
35,65,-0.654498,-0.814493,-0.174533,-0.174533,-0.648281,-0.804203,-0.151623,-0.161115,-0.621774,-0.288102,-0.343648,-0.201275
35,65,-0.654498,-0.814493,-0.174533,-0.174533,-0.648281,-0.804203,-0.151623,-0.161115,-0.621774,-0.288102,-0.343648,-0.201275
35,65,-0.654498,-0.814493,-0.174533,-0.174533,-0.648281,-0.804203,-0.151623,-0.161115,-0.621774,-0.288102,-0.343648,-0.201275
35,65,-0.654498,-0.814493,-0.174533,-0.174533,-0.648281,-0.804203,-0.151623,-0.161115,-0.621774,-0.288102,-0.343648,-0.201275
35,65,-0.654498,-0.814493,-0.174533,-0.174533,-0.648281,-0.804203,-0.151623,-0.161115,-0.621774,-0.288102,-0.343648,-0.201275
35,65,-0.654498,-0.814493,-0.174533,-0.174533,-0.648281,-0.804203,-0.151623,-0.161115,-0.621774,-0.288102,-0.343648,-0.201275
35,65,-0.654498,-0.814493,-0.174533,-0.174533,-0.648281,-0.804203,-0.151623,-0.161115,-0.621774,-0.288102,-0.343648,-0.201275
35,65,-0.654498,-0.814493,-0.174533,-0.174533,-0.648281,-0.804203,-0.151623,-0.161115,-0.621774,-0.288102,-0.343648,-0.201275
35,65,-0.654498,-0.814493,-0.174533,-0.174533,-0.648281,-0.804203,-0.151623,-0.161115,-0.621774,-0.288102,-0.343648,-0.201275
35,65,-0.654498,-0.814493,-0.174533,-0.174533,-0.648281,-0.804203,-0.151623,-0.161115,-0.621774,-0.288102,-0.343648,-0.201275
35,65,-0.654498,-0.814493,-0.174533,-0.174533,-0.648281,-0.804203,-0.151623,-0.161115,-0.621774,-0.288102,-0.343648,-0.201275
35,65,-0.654498,-0.814493,-0.174533,-0.174533,-0.648281,-0.804203,-0.151623,-0.161115,-0.621774,-0.288102,-0.343648,-0.201275
35,65,-0.654498,-0.814493,-0.174533,-0.174533,-0.648281,-0.804203,-0.151623,-0.161115,-0.621774,-0.288102,-0.343648,-0.201275
35,65,-0.654498,-0.814493,-0.174533,-0.174533,-0.648281,-0.804203,-0.151623,-0.161115,-0.621774,-0.288102,-0.343648,-0.201275
35,65,-0.654498,-0.814493,-0.174533,-0.174533,-0.648281,-0.804203,-0.151623,-0.161115,-0.621774,-0.288102,-0.343648,-0.201275
35,65,-0.654498,-0.814493,-0.174533,-0.174533,-0.648281,-0.804203,-0.151623,-0.161115,-0.621774,-0.288102,-0.343648,-0.201275
35,65,-0.654498,-0.814493,-0.174533,-0.174533,-0.648281,-0.804203,-0.151623,-0.161115,-0.621774,-0.288102,-0.343648,-0.201275
35,65,-0.654498,-0.814493,-0.174533,-0.174533,-0.648281,-0.804203,-0.151623,-0.161115,-0.621774,-0.288102,-0.343648,-0.201275
35,65,-0.654498,-0.814493,-0.174533,-0.174533,-0.648281,-0.804203,-0.151623,-0.161115,-0.621774,-0.288102,-0.343648,-0.201275
35,65,-0.654498,-0.814493,-0.174533,-0.174533,-0.648281,-0.804203,-0.151686,-0.161156,-0.621774,-0.288102,-0.342698,-0.200655
35,65,-0.654498,-0.814493,-0.174533,-0.174533,-0.648281,-0.804203,-0.151686,-0.161156,-0.621774,-0.288102,-0.342698,-0.200655
35,65,-0.654498,-0.814493,-0.174533,-0.174533,-0.648281,-0.804203,-0.151686,-0.161156,-0.621774,-0.288102,-0.342698,-0.200655
35,65,-0.654498,-0.814493,-0.174533,-0.174533,-0.648281,-0.804203,-0.151686,-0.161156,-0.621774,-0.288102,-0.342698,-0.200655
35,65,-0.654498,-0.814493,-0.174533,-0.174533,-0.648281,-0.804203,-0.151686,-0.161156,-0.621774,-0.288102,-0.342698,-0.200655
35,65,-0.654498,-0.814493,-0.174533,-0.174533,-0.648281,-0.804203,-0.151686,-0.161156,-0.621774,-0.288102,-0.342698,-0.200655
35,65,-0.654498,-0.814493,-0.174533,-0.174533,-0.648281,-0.804203,-0.151686,-0.161156,-0.621774,-0.288102,-0.342698,-0.200655
35,65,-0.654498,-0.814493,-0.174533,-0.174533,-0.648281,-0.804203,-0.151686,-0.161156,-0.621774,-0.288102,-0.342698,-0.200655
35,65,-0.654498,-0.814493,-0.174533,-0.174533,-0.648281,-0.804203,-0.151627,-0.161176,-0.621774,-0.288102,-0.343587,-0.200354
35,65,-0.654498,-0.814493,-0.174533,-0.174533,-0.648281,-0.804203,-0.151627,-0.161176,-0.621774,-0.288102,-0.343587,-0.200354
35,65,-0.654498,-0.814493,-0.174533,-0.174533,-0.648281,-0.804203,-0.151627,-0.161176,-0.621774,-0.288102,-0.343587,-0.200354
35,65,-0.654498,-0.814493,-0.174533,-0.174533,-0.648281,-0.804203,-0.151627,-0.161176,-0.621774,-0.288102,-0.343587,-0.200354
35,65,-0.654498,-0.814493,-0.174533,-0.174533,-0.648281,-0.804203,-0.151627,-0.161176,-0.621774,-0.288102,-0.343587,-0.200354
35,65,-0.654498,-0.814493,-0.174533,-0.174533,-0.648281,-0.804203,-0.151627,-0.161176,-0.621774,-0.288102,-0.343587,-0.200354
35,65,-0.654498,-0.814493,-0.174533,-0.174533,-0.648281,-0.804203,-0.151627,-0.161176,-0.621774,-0.288102,-0.343587,-0.200354
35,65,-0.654498,-0.814493,-0.174533,-0.174533,-0.648281,-0.804254,-0.151627,-0.161176,-0.621774,-0.286678,-0.343587,-0.200354
35,65,-0.654498,-0.814493,-0.174533,-0.174533,-0.648281,-0.804254,-0.151627,-0.161176,-0.621774,-0.286678,-0.343587,-0.200354
35,65,-0.654498,-0.814493,-0.174533,-0.174533,-0.648281,-0.804254,-0.151627,-0.161176,-0.621774,-0.286678,-0.343587,-0.200354
35,65,-0.654498,-0.814493,-0.174533,-0.174533,-0.648281,-0.804254,-0.151627,-0.161176,-0.621774,-0.286678,-0.343587,-0.200354
35,65,-0.654498,-0.814493,-0.174533,-0.174533,-0.648281,-0.804254,-0.151627,-0.161176,-0.621774,-0.286678,-0.343587,-0.200354
35,65,-0.654498,-0.814493,-0.174533,-0.174533,-0.648281,-0.804254,-0.151627,-0.161176,-0.621774,-0.286678,-0.343587,-0.200354
35,65,-0.654498,-0.814493,-0.174533,-0.174533,-0.648281,-0.804254,-0.151627,-0.161176,-0.621774,-0.286678,-0.343587,-0.200354
35,65,-0.654498,-0.814493,-0.174533,-0.174533,-0.648281,-0.804254,-0.151627,-0.161176,-0.621774,-0.286678,-0.343587,-0.200354
35,65,-0.654498,-0.814493,-0.174533,-0.174533,-0.648281,-0.804254,-0.151568,-0.161196,-0.621774,-0.286678,-0.344477,-0.200053
35,65,-0.654498,-0.814493,-0.174533,-0.174533,-0.648281,-0.804254,-0.151568,-0.161196,-0.621774,-0.286678,-0.344477,-0.200053
35,65,-0.654498,-0.814493,-0.174533,-0.174533,-0.648281,-0.804254,-0.151568,-0.161196,-0.621774,-0.286678,-0.344477,-0.200053
35,65,-0.654498,-0.814493,-0.174533,-0.174533,-0.648281,-0.804254,-0.151568,-0.161196,-0.621774,-0.286678,-0.344477,-0.200053
35,65,-0.654498,-0.814493,-0.174533,-0.174533,-0.648281,-0.804254,-0.151566,-0.161136,-0.621774,-0.286678,-0.344502,-0.200949
35,65,-0.654498,-0.814493,-0.174533,-0.174533,-0.648281,-0.804254,-0.151507,-0.161156,-0.621774,-0.286678,-0.345392,-0.200649
35,65,-0.654498,-0.814493,-0.174533,-0.174533,-0.648281,-0.804254,-0.151507,-0.161156,-0.621774,-0.286678,-0.345392,-0.200649
35,65,-0.654498,-0.814493,-0.174533,-0.174533,-0.648281,-0.804254,-0.151507,-0.161156,-0.621774,-0.286678,-0.345392,-0.200649
35,65,-0.654498,-0.814493,-0.174533,-0.174533,-0.648281,-0.804254,-0.151507,-0.161156,-0.621774,-0.286678,-0.345392,-0.200649
35,65,-0.654498,-0.814493,-0.174533,-0.174533,-0.648281,-0.804254,-0.151507,-0.161156,-0.621774,-0.286678,-0.345392,-0.200649
35,65,-0.654498,-0.814493,-0.174533,-0.174533,-0.648281,-0.804254,-0.151507,-0.161156,-0.621774,-0.286678,-0.345392,-0.200649
35,65,-0.654498,-0.814493,-0.174533,-0.174533,-0.648281,-0.804254,-0.151448,-0.161176,-0.621774,-0.286678,-0.346318,-0.200335
35,65,-0.654498,-0.814493,-0.174533,-0.174533,-0.648281,-0.804254,-0.151448,-0.161176,-0.621774,-0.286678,-0.346318,-0.200335
35,65,-0.654498,-0.814493,-0.174533,-0.174533,-0.648281,-0.804254,-0.151448,-0.161176,-0.621774,-0.286678,-0.346318,-0.200335
35,65,-0.654498,-0.814493,-0.174533,-0.174533,-0.648281,-0.804254,-0.151448,-0.161176,-0.621774,-0.286678,-0.346318,-0.200335
35,65,-0.654498,-0.814493,-0.174533,-0.174533,-0.648281,-0.804254,-0.151388,-0.161196,-0.621774,-0.286678,-0.347247,-0.200021
35,65,-0.654498,-0.814493,-0.174533,-0.174533,-0.648281,-0.804254,-0.151388,-0.161196,-0.621774,-0.286678,-0.347247,-0.200021
35,65,-0.654498,-0.814493,-0.174533,-0.174533,-0.648281,-0.804254,-0.151388,-0.161196,-0.621774,-0.286678,-0.347247,-0.200021
35,65,-0.654498,-0.814493,-0.174533,-0.174533,-0.648281,-0.804254,-0.151329,-0.161216,-0.621774,-0.286678,-0.348189,-0.199703
35,65,-0.654498,-0.814493,-0.174533,-0.174533,-0.648281,-0.804254,-0.151329,-0.161216,-0.621774,-0.286678,-0.348189,-0.199703
35,65,-0.654498,-0.814493,-0.174533,-0.174533,-0.648281,-0.804254,-0.151329,-0.161216,-0.621774,-0.286678,-0.348189,-0.199703
35,65,-0.654498,-0.814493,-0.174533,-0.174533,-0.648281,-0.804254,-0.151329,-0.161216,-0.621774,-0.286678,-0.348189,-0.199703
35,65,-0.654498,-0.814493,-0.174533,-0.174533,-0.648281,-0.804254,-0.151329,-0.161216,-0.621774,-0.286678,-0.348189,-0.199703
35,65,-0.654498,-0.814493,-0.174533,-0.174533,-0.648281,-0.804254,-0.151329,-0.161216,-0.621774,-0.286678,-0.348189,-0.199703
35,65,-0.654498,-0.814493,-0.174533,-0.174533,-0.648281,-0.804254,-0.151268,-0.161177,-0.621774,-0.286678,-0.3491,-0.200299
35,65,-0.654498,-0.814493,-0.174533,-0.174533,-0.648281,-0.804254,-0.151268,-0.161177,-0.621774,-0.286678,-0.3491,-0.200299
35,65,-0.654498,-0.814493,-0.174533,-0.174533,-0.648281,-0.804305,-0.151268,-0.161177,-0.621774,-0.285255,-0.3491,-0.200299
35,65,-0.654498,-0.814493,-0.174533,-0.174533,-0.648281,-0.804305,-0.151272,-0.161238,-0.621774,-0.285255,-0.349059,-0.199372
35,65,-0.654498,-0.814493,-0.174533,-0.174533,-0.648281,-0.804305,-0.151272,-0.161238,-0.621774,-0.285255,-0.349059,-0.199372
35,65,-0.654498,-0.814493,-0.174533,-0.174533,-0.648281,-0.804305,-0.151272,-0.161238,-0.621774,-0.285255,-0.349059,-0.199372
35,65,-0.654498,-0.814493,-0.174533,-0.174533,-0.648281,-0.804305,-0.151272,-0.161238,-0.621774,-0.285255,-0.349059,-0.199372
35,65,-0.654498,-0.814493,-0.174533,-0.174533,-0.648281,-0.804305,-0.151213,-0.161258,-0.621774,-0.285255,-0.349957,-0.199068
35,65,-0.654498,-0.814493,-0.174533,-0.174533,-0.648281,-0.804305,-0.151213,-0.161258,-0.621774,-0.285255,-0.349957,-0.199068
35,65,-0.654498,-0.814493,-0.174533,-0.174533,-0.648281,-0.804305,-0.151213,-0.161258,-0.621774,-0.285255,-0.349957,-0.199068
35,65,-0.654498,-0.814493,-0.174533,-0.174533,-0.648209,-0.804305,-0.151153,-0.161278,-0.628932,-0.285255,-0.350841,-0.198769
35,65,-0.654498,-0.814493,-0.174533,-0.174533,-0.648209,-0.804305,-0.151153,-0.161278,-0.628932,-0.285255,-0.350841,-0.198769
35,65,-0.654498,-0.814493,-0.174533,-0.174533,-0.648209,-0.804305,-0.151153,-0.161278,-0.628932,-0.285255,-0.350841,-0.198769
35,65,-0.654498,-0.814493,-0.174533,-0.174533,-0.648209,-0.804305,-0.151094,-0.161298,-0.628932,-0.285255,-0.351765,-0.198456
35,65,-0.654498,-0.814493,-0.174533,-0.174533,-0.648209,-0.804305,-0.151092,-0.161239,-0.628932,-0.285255,-0.351791,-0.199352
35,65,-0.654498,-0.814493,-0.174533,-0.174533,-0.648138,-0.804305,-0.151092,-0.161239,-0.636091,-0.285255,-0.351791,-0.199352
35,65,-0.654498,-0.814493,-0.174533,-0.174533,-0.648138,-0.804305,-0.151033,-0.161259,-0.636091,-0.285255,-0.352676,-0.199053
35,65,-0.654498,-0.814493,-0.174533,-0.174533,-0.648138,-0.804305,-0.151033,-0.161259,-0.636091,-0.285255,-0.352676,-0.199053
35,65,-0.654498,-0.814493,-0.174533,-0.174533,-0.648066,-0.804305,-0.151033,-0.161259,-0.643249,-0.285255,-0.352676,-0.199053
35,65,-0.654498,-0.814493,-0.174533,-0.174533,-0.648066,-0.804305,-0.150974,-0.161279,-0.643249,-0.285255,-0.353579,-0.198747
35,65,-0.654498,-0.814493,-0.174533,-0.174533,-0.648066,-0.804305,-0.150974,-0.161279,-0.643249,-0.285255,-0.353579,-0.198747
35,65,-0.654498,-0.814493,-0.174533,-0.174533,-0.648066,-0.804305,-0.150974,-0.161279,-0.643249,-0.285255,-0.353579,-0.198747
35,65,-0.654498,-0.814493,-0.174533,-0.174533,-0.648066,-0.804305,-0.150915,-0.161299,-0.643249,-0.285255,-0.354477,-0.198443
35,65,-0.654498,-0.814493,-0.174533,-0.174533,-0.647994,-0.804305,-0.150855,-0.161319,-0.650408,-0.285255,-0.355383,-0.198137
35,65,-0.654498,-0.814493,-0.174533,-0.174533,-0.647994,-0.804305,-0.150855,-0.161319,-0.650408,-0.285255,-0.355383,-0.198137
35,65,-0.654498,-0.814493,-0.174533,-0.174533,-0.647994,-0.804305,-0.150855,-0.161319,-0.650408,-0.285255,-0.355383,-0.198137
35,65,-0.654498,-0.814493,-0.174533,-0.174533,-0.647994,-0.804305,-0.150855,-0.161319,-0.650408,-0.285255,-0.355383,-0.198137
35,65,-0.654498,-0.814493,-0.174533,-0.174533,-0.647923,-0.804305,-0.150796,-0.161339,-0.678892,-0.285255,-0.356282,-0.197833
35,65,-0.654498,-0.814493,-0.174533,-0.174533,-0.647923,-0.804305,-0.150796,-0.161339,-0.678892,-0.285255,-0.356282,-0.197833
35,65,-0.654498,-0.814493,-0.174533,-0.174533,-0.647923,-0.804305,-0.150796,-0.161339,-0.678892,-0.285255,-0.356282,-0.197833
35,65,-0.654498,-0.814493,-0.174533,-0.174533,-0.647923,-0.804305,-0.150737,-0.161359,-0.678892,-0.285255,-0.357161,-0.197535
35,65,-0.654498,-0.814493,-0.174533,-0.174533,-0.647923,-0.804305,-0.150737,-0.161359,-0.678892,-0.285255,-0.357161,-0.197535
35,65,-0.654498,-0.814493,-0.174533,-0.174533,-0.647923,-0.804356,-0.150737,-0.161359,-0.678892,-0.283831,-0.357161,-0.197535
35,65,-0.654498,-0.814493,-0.174533,-0.174533,-0.647923,-0.804356,-0.150677,-0.161379,-0.678892,-0.283831,-0.358052,-0.197234
35,65,-0.654498,-0.814493,-0.174533,-0.174533,-0.647923,-0.804356,-0.150618,-0.161399,-0.678892,-0.283831,-0.35895,-0.19693
35,65,-0.654498,-0.814493,-0.174533,-0.174533,-0.647923,-0.804356,-0.150618,-0.161399,-0.678892,-0.283831,-0.35895,-0.19693
35,65,-0.654498,-0.814493,-0.174533,-0.174533,-0.647923,-0.804356,-0.150618,-0.161399,-0.678892,-0.283831,-0.35895,-0.19693
35,65,-0.654498,-0.814493,-0.174533,-0.174533,-0.647923,-0.804356,-0.150618,-0.161399,-0.678892,-0.283831,-0.35895,-0.19693
35,65,-0.654498,-0.814493,-0.174533,-0.174533,-0.647923,-0.804407,-0.150559,-0.161419,-0.678892,-0.282408,-0.359819,-0.196636
35,65,-0.654498,-0.814493,-0.174533,-0.174533,-0.647923,-0.804407,-0.150559,-0.161419,-0.678892,-0.282408,-0.359819,-0.196636
35,65,-0.654498,-0.814493,-0.174533,-0.174533,-0.647923,-0.804407,-0.150559,-0.161419,-0.678892,-0.282408,-0.359819,-0.196636
35,65,-0.654498,-0.814493,-0.174533,-0.174533,-0.647923,-0.804407,-0.1505,-0.161439,-0.678892,-0.282408,-0.360714,-0.196333
35,65,-0.654498,-0.814493,-0.174533,-0.174533,-0.647923,-0.804407,-0.150498,-0.16138,-0.678892,-0.282408,-0.36074,-0.197229
35,65,-0.654498,-0.814493,-0.174533,-0.174533,-0.647923,-0.804458,-0.150439,-0.1614,-0.678892,-0.280442,-0.361633,-0.196926
35,65,-0.654498,-0.814493,-0.174533,-0.174533,-0.647923,-0.804458,-0.150439,-0.1614,-0.677981,-0.280442,-0.361633,-0.196926
35,65,-0.654498,-0.814493,-0.174533,-0.174533,-0.647851,-0.804458,-0.150439,-0.1614,-0.67657,-0.280442,-0.361633,-0.196926
35,65,-0.654498,-0.814493,-0.174533,-0.174533,-0.647851,-0.804458,-0.150439,-0.1614,-0.67657,-0.280442,-0.361633,-0.196926
35,65,-0.654498,-0.814493,-0.174533,-0.174533,-0.647851,-0.804458,-0.150439,-0.1614,-0.67657,-0.280442,-0.361633,-0.196926
35,65,-0.654498,-0.814493,-0.174533,-0.174533,-0.647851,-0.804508,-0.150439,-0.1614,-0.67657,-0.278686,-0.361633,-0.196926
35,65,-0.654498,-0.814493,-0.174533,-0.174533,-0.647851,-0.804508,-0.150379,-0.16142,-0.67657,-0.278686,-0.362462,-0.196646
35,65,-0.654498,-0.814493,-0.174533,-0.174533,-0.647851,-0.804508,-0.150379,-0.16142,-0.67657,-0.278686,-0.362462,-0.196646
35,65,-0.654498,-0.814493,-0.174533,-0.174533,-0.647851,-0.804508,-0.150379,-0.16142,-0.67657,-0.278686,-0.362462,-0.196646
35,65,-0.654498,-0.814493,-0.174533,-0.174533,-0.647851,-0.804508,-0.150379,-0.16142,-0.67657,-0.278686,-0.362462,-0.196646
35,65,-0.654498,-0.814493,-0.174533,-0.174533,-0.647851,-0.804508,-0.15032,-0.16144,-0.67657,-0.278686,-0.363352,-0.196344
35,65,-0.654498,-0.814493,-0.174533,-0.174533,-0.647851,-0.804508,-0.15032,-0.16144,-0.67657,-0.278686,-0.363352,-0.196344
35,65,-0.654498,-0.814493,-0.174533,-0.174533,-0.647851,-0.804508,-0.15032,-0.16144,-0.67657,-0.278686,-0.363352,-0.196344
35,65,-0.654498,-0.814493,-0.174533,-0.174533,-0.647851,-0.804508,-0.150261,-0.16146,-0.67657,-0.278686,-0.364235,-0.196046
35,65,-0.654498,-0.814493,-0.174533,-0.174533,-0.647851,-0.804508,-0.150261,-0.16146,-0.67657,-0.278686,-0.364235,-0.196046
35,65,-0.654498,-0.814493,-0.174533,-0.174533,-0.647851,-0.804559,-0.150261,-0.16146,-0.67657,-0.276522,-0.364235,-0.196046
35,65,-0.654498,-0.814493,-0.174533,-0.174533,-0.647851,-0.804559,-0.150261,-0.16146,-0.67657,-0.276522,-0.364235,-0.196046
35,65,-0.654498,-0.814493,-0.174533,-0.174533,-0.647851,-0.804559,-0.150201,-0.16148,-0.67657,-0.276522,-0.365114,-0.195748
35,65,-0.654498,-0.814493,-0.174533,-0.174533,-0.647851,-0.804559,-0.150201,-0.16148,-0.67657,-0.276522,-0.365114,-0.195748
35,65,-0.654498,-0.814493,-0.174533,-0.174533,-0.647851,-0.804559,-0.150201,-0.16148,-0.67657,-0.276522,-0.365114,-0.195748
35,65,-0.654498,-0.814493,-0.174533,-0.174533,-0.647851,-0.804559,-0.150201,-0.16148,-0.67657,-0.276522,-0.365114,-0.195748
35,65,-0.654498,-0.814493,-0.174533,-0.174533,-0.647851,-0.804559,-0.150201,-0.16148,-0.67657,-0.276522,-0.365114,-0.195748
35,65,-0.654498,-0.814493,-0.174533,-0.174533,-0.64778,-0.804559,-0.150201,-0.16148,-0.679461,-0.276522,-0.365114,-0.195748
35,65,-0.654498,-0.814493,-0.174533,-0.174533,-0.64778,-0.804559,-0.150201,-0.16148,-0.679461,-0.276522,-0.365114,-0.195748
35,65,-0.654498,-0.814493,-0.174533,-0.174533,-0.64778,-0.804559,-0.150201,-0.16148,-0.679461,-0.276522,-0.365114,-0.195748
35,65,-0.654498,-0.814493,-0.174533,-0.174533,-0.64778,-0.804559,-0.150201,-0.16148,-0.679461,-0.276522,-0.365114,-0.195748
35,65,-0.654498,-0.814493,-0.174533,-0.174533,-0.64778,-0.804559,-0.150201,-0.16148,-0.679461,-0.276522,-0.365114,-0.195748
35,65,-0.654498,-0.814493,-0.174533,-0.174533,-0.64778,-0.804559,-0.150142,-0.1615,-0.679461,-0.276522,-0.365976,-0.195456
35,65,-0.654498,-0.814493,-0.174533,-0.174533,-0.64778,-0.804559,-0.150141,-0.16144,-0.679461,-0.276522,-0.366001,-0.196352
35,65,-0.654498,-0.814493,-0.174533,-0.174533,-0.64778,-0.804559,-0.150141,-0.16144,-0.679461,-0.276522,-0.366001,-0.196352
35,65,-0.654498,-0.814493,-0.174533,-0.174533,-0.64778,-0.804559,-0.150141,-0.16144,-0.679461,-0.276522,-0.366001,-0.196352
35,65,-0.654498,-0.814493,-0.174533,-0.174533,-0.64778,-0.804559,-0.150141,-0.16144,-0.679461,-0.276522,-0.366001,-0.196352
35,65,-0.654498,-0.814493,-0.174533,-0.174533,-0.64778,-0.804559,-0.150141,-0.16144,-0.679461,-0.276522,-0.366001,-0.196352
35,65,-0.654498,-0.814493,-0.174533,-0.174533,-0.64778,-0.804559,-0.150204,-0.161482,-0.679461,-0.276522,-0.365052,-0.195732
35,65,-0.654498,-0.814493,-0.174533,-0.174533,-0.64778,-0.804559,-0.150204,-0.161482,-0.679461,-0.276522,-0.365052,-0.195732
35,65,-0.654498,-0.814493,-0.174533,-0.174533,-0.64778,-0.804559,-0.150204,-0.161482,-0.679461,-0.276522,-0.365052,-0.195732
35,65,-0.654498,-0.814493,-0.174533,-0.174533,-0.64778,-0.804559,-0.150144,-0.161502,-0.679461,-0.276522,-0.365918,-0.195439
35,65,-0.654498,-0.814493,-0.174533,-0.174533,-0.64778,-0.804559,-0.150144,-0.161502,-0.679461,-0.276522,-0.365918,-0.195439
35,65,-0.654498,-0.814493,-0.174533,-0.174533,-0.64778,-0.804559,-0.150144,-0.161502,-0.679461,-0.276522,-0.365918,-0.195439
35,65,-0.654498,-0.814493,-0.174533,-0.174533,-0.64778,-0.804559,-0.150144,-0.161502,-0.679461,-0.276522,-0.365918,-0.195439
35,65,-0.654498,-0.814493,-0.174533,-0.174533,-0.64778,-0.804559,-0.150144,-0.161502,-0.679461,-0.276578,-0.365918,-0.195439
35,65,-0.654498,-0.814493,-0.174533,-0.174533,-0.64778,-0.804559,-0.150144,-0.161502,-0.679461,-0.276636,-0.365918,-0.195439
35,65,-0.654498,-0.814493,-0.174533,-0.174533,-0.64778,-0.804559,-0.150144,-0.161502,-0.679461,-0.276683,-0.365918,-0.195439
35,65,-0.654498,-0.814493,-0.174533,-0.174533,-0.64778,-0.804559,-0.150144,-0.161502,-0.679461,-0.276739,-0.365918,-0.195439
35,65,-0.654498,-0.814493,-0.174533,-0.174533,-0.64778,-0.804559,-0.150144,-0.161502,-0.679461,-0.276785,-0.365918,-0.195439
35,65,-0.654498,-0.814493,-0.174533,-0.174533,-0.647708,-0.804559,-0.150144,-0.161502,-0.684576,-0.276824,-0.365918,-0.195439
35,65,-0.654498,-0.814493,-0.174533,-0.174533,-0.647708,-0.804559,-0.150208,-0.161543,-0.684576,-0.27687,-0.364969,-0.19482
35,65,-0.654498,-0.814493,-0.174533,-0.174533,-0.647708,-0.804559,-0.150148,-0.161563,-0.684576,-0.276908,-0.365838,-0.194526
35,65,-0.654498,-0.814493,-0.174533,-0.174533,-0.647708,-0.804559,-0.150148,-0.161563,-0.684576,-0.276944,-0.365838,-0.194526
35,65,-0.654498,-0.814493,-0.174533,-0.174533,-0.647708,-0.804559,-0.150148,-0.161563,-0.684576,-0.276978,-0.365838,-0.194526
35,65,-0.654498,-0.814493,-0.174533,-0.174533,-0.647708,-0.804559,-0.150148,-0.161563,-0.684576,-0.27701,-0.365838,-0.194526
35,65,-0.654498,-0.814493,-0.174533,-0.174533,-0.647708,-0.804559,-0.150212,-0.161604,-0.684576,-0.27704,-0.364889,-0.193906
35,65,-0.654498,-0.814493,-0.174533,-0.174533,-0.647708,-0.804559,-0.150212,-0.161604,-0.684576,-0.277066,-0.364889,-0.193906
35,65,-0.654498,-0.814493,-0.174533,-0.174533,-0.647708,-0.804559,-0.150212,-0.161604,-0.684576,-0.277097,-0.364889,-0.193906
35,65,-0.654498,-0.814493,-0.174533,-0.174533,-0.647708,-0.804559,-0.150212,-0.161604,-0.684576,-0.277119,-0.364889,-0.193906
35,65,-0.654498,-0.814493,-0.174533,-0.174533,-0.647708,-0.804559,-0.150212,-0.161604,-0.684576,-0.277147,-0.364889,-0.193906
35,65,-0.654498,-0.814493,-0.174533,-0.174533,-0.647708,-0.804559,-0.150275,-0.161646,-0.684576,-0.277171,-0.363941,-0.193286
35,65,-0.654498,-0.814493,-0.174533,-0.174533,-0.647708,-0.804559,-0.150275,-0.161646,-0.684576,-0.277193,-0.363941,-0.193286
35,65,-0.654498,-0.814493,-0.174533,-0.174533,-0.647708,-0.804559,-0.150275,-0.161646,-0.684576,-0.277215,-0.363941,-0.193286
35,65,-0.654498,-0.814493,-0.174533,-0.174533,-0.647708,-0.804559,-0.150275,-0.161646,-0.684576,-0.277235,-0.363941,-0.193286
35,65,-0.654498,-0.814493,-0.174533,-0.174533,-0.647708,-0.804559,-0.150338,-0.161687,-0.684576,-0.277255,-0.362899,-0.192606
35,65,-0.654498,-0.814493,-0.174533,-0.174533,-0.647708,-0.804559,-0.150338,-0.161687,-0.684576,-0.277273,-0.362899,-0.192606
35,65,-0.654498,-0.814493,-0.174533,-0.174533,-0.647708,-0.804559,-0.150338,-0.161687,-0.684576,-0.277291,-0.362899,-0.192606
35,65,-0.654498,-0.814493,-0.174533,-0.174533,-0.647708,-0.804559,-0.150338,-0.161687,-0.684576,-0.277309,-0.362899,-0.192606
35,65,-0.654498,-0.814493,-0.174533,-0.174533,-0.647708,-0.804559,-0.150401,-0.161728,-0.684576,-0.277325,-0.361903,-0.191956
35,65,-0.654498,-0.814493,-0.174533,-0.174533,-0.647708,-0.804559,-0.150401,-0.161728,-0.684576,-0.277341,-0.361903,-0.191956
35,65,-0.654498,-0.814493,-0.174533,-0.174533,-0.647708,-0.804559,-0.150401,-0.161728,-0.684576,-0.277356,-0.361903,-0.191956
35,65,-0.654498,-0.814493,-0.174533,-0.174533,-0.647708,-0.804559,-0.150342,-0.161748,-0.684576,-0.277371,-0.36277,-0.191662
35,65,-0.654498,-0.814493,-0.174533,-0.174533,-0.647708,-0.804559,-0.150405,-0.16179,-0.684576,-0.277385,-0.361812,-0.191036
35,65,-0.654498,-0.814493,-0.174533,-0.174533,-0.647708,-0.804559,-0.150405,-0.16179,-0.684576,-0.277399,-0.361812,-0.191036
35,65,-0.654498,-0.814493,-0.174533,-0.174533,-0.647708,-0.804559,-0.150405,-0.16179,-0.684576,-0.277412,-0.361812,-0.191036
35,65,-0.654498,-0.814493,-0.174533,-0.174533,-0.647708,-0.804559,-0.150405,-0.16179,-0.684576,-0.277425,-0.361812,-0.191036
35,65,-0.654498,-0.814493,-0.174533,-0.174533,-0.647708,-0.804559,-0.150469,-0.161831,-0.684576,-0.277437,-0.360847,-0.190406
35,65,-0.654498,-0.814493,-0.174533,-0.174533,-0.647708,-0.804559,-0.150469,-0.161831,-0.684576,-0.277447,-0.360847,-0.190406
35,65,-0.654498,-0.814493,-0.174533,-0.174533,-0.647708,-0.804559,-0.150469,-0.161831,-0.684576,-0.27746,-0.360847,-0.190406
35,65,-0.654498,-0.814493,-0.174533,-0.174533,-0.647708,-0.804559,-0.150532,-0.161872,-0.684576,-0.277471,-0.359883,-0.189777
35,65,-0.654498,-0.814493,-0.174533,-0.174533,-0.647708,-0.804559,-0.150532,-0.161872,-0.684576,-0.277482,-0.359883,-0.189777
35,65,-0.654498,-0.814493,-0.174533,-0.174533,-0.647708,-0.80461,-0.150532,-0.161872,-0.684576,-0.276219,-0.359883,-0.189777
35,65,-0.654498,-0.814493,-0.174533,-0.174533,-0.647708,-0.80461,-0.150595,-0.161914,-0.684576,-0.276219,-0.358931,-0.189155
35,65,-0.654498,-0.814493,-0.174533,-0.174533,-0.647708,-0.80461,-0.150595,-0.161914,-0.684576,-0.276219,-0.358931,-0.189155
35,65,-0.654498,-0.814493,-0.174533,-0.174533,-0.647708,-0.80461,-0.150595,-0.161914,-0.684576,-0.276219,-0.358931,-0.189155
35,65,-0.654498,-0.814493,-0.174533,-0.174533,-0.647708,-0.80461,-0.150659,-0.161955,-0.684576,-0.276219,-0.357966,-0.188525
35,65,-0.654498,-0.814493,-0.174533,-0.174533,-0.647708,-0.80461,-0.150659,-0.161955,-0.684576,-0.276219,-0.357966,-0.188525
35,65,-0.654498,-0.814493,-0.174533,-0.174533,-0.647708,-0.80461,-0.150722,-0.161996,-0.684576,-0.276219,-0.356999,-0.187894
35,65,-0.654498,-0.814493,-0.174533,-0.174533,-0.647708,-0.80461,-0.150722,-0.161996,-0.684576,-0.276219,-0.356999,-0.187894
35,65,-0.654498,-0.814493,-0.174533,-0.174533,-0.647708,-0.80461,-0.150722,-0.161996,-0.684576,-0.276219,-0.356999,-0.187894
35,65,-0.654498,-0.814493,-0.174533,-0.174533,-0.647708,-0.80461,-0.150722,-0.161996,-0.684576,-0.276219,-0.356999,-0.187894
35,65,-0.654498,-0.814493,-0.174533,-0.174533,-0.647708,-0.80461,-0.150785,-0.162038,-0.684576,-0.276219,-0.356053,-0.187276
35,65,-0.654498,-0.814493,-0.174533,-0.174533,-0.647708,-0.80461,-0.150849,-0.162079,-0.684576,-0.276219,-0.355079,-0.18664
35,65,-0.654498,-0.814493,-0.174533,-0.174533,-0.647708,-0.80461,-0.150849,-0.162079,-0.684576,-0.276219,-0.355079,-0.18664
35,65,-0.654498,-0.814493,-0.174533,-0.174533,-0.647708,-0.80461,-0.150849,-0.162079,-0.684576,-0.276219,-0.355079,-0.18664
35,65,-0.654498,-0.814493,-0.174533,-0.174533,-0.647708,-0.80461,-0.150849,-0.162079,-0.684576,-0.276219,-0.355079,-0.18664
35,65,-0.654498,-0.814493,-0.174533,-0.174533,-0.647708,-0.80461,-0.150849,-0.162079,-0.684576,-0.276219,-0.355079,-0.18664
35,65,-0.654498,-0.814493,-0.174533,-0.174533,-0.647708,-0.80461,-0.150853,-0.16214,-0.684576,-0.276219,-0.355045,-0.185748
35,65,-0.654498,-0.814493,-0.174533,-0.174533,-0.647708,-0.80461,-0.150853,-0.16214,-0.684576,-0.276219,-0.355045,-0.185748
35,65,-0.654498,-0.814493,-0.174533,-0.174533,-0.647708,-0.80461,-0.150853,-0.16214,-0.684576,-0.276219,-0.355045,-0.185748
35,65,-0.654498,-0.814493,-0.174533,-0.174533,-0.647708,-0.80461,-0.150853,-0.16214,-0.684576,-0.276219,-0.355045,-0.185748
35,65,-0.654498,-0.814493,-0.174533,-0.174533,-0.647708,-0.80461,-0.150853,-0.16214,-0.684576,-0.276219,-0.355045,-0.185748
35,65,-0.654498,-0.814493,-0.174533,-0.174533,-0.647708,-0.80461,-0.150916,-0.162182,-0.684576,-0.276219,-0.354123,-0.185146
35,65,-0.654498,-0.814493,-0.174533,-0.174533,-0.647708,-0.80461,-0.150916,-0.162182,-0.684576,-0.276219,-0.354123,-0.185146
35,65,-0.654498,-0.814493,-0.174533,-0.174533,-0.647708,-0.80461,-0.150916,-0.162182,-0.684576,-0.276219,-0.354123,-0.185146
35,65,-0.654498,-0.814493,-0.174533,-0.174533,-0.647708,-0.80461,-0.150916,-0.162182,-0.684576,-0.276219,-0.354123,-0.185146
35,65,-0.654498,-0.814493,-0.174533,-0.174533,-0.647708,-0.80461,-0.150916,-0.162182,-0.684576,-0.276219,-0.354123,-0.185146
35,65,-0.654498,-0.814493,-0.174533,-0.174533,-0.647708,-0.80461,-0.150916,-0.162182,-0.684576,-0.276219,-0.354123,-0.185146
35,65,-0.654498,-0.814493,-0.174533,-0.174533,-0.647708,-0.80461,-0.150979,-0.162223,-0.684576,-0.276219,-0.3532,-0.184544
35,65,-0.654498,-0.814493,-0.174533,-0.174533,-0.647708,-0.80461,-0.150979,-0.162223,-0.684576,-0.276219,-0.3532,-0.184544
35,65,-0.654498,-0.814493,-0.174533,-0.174533,-0.647708,-0.80461,-0.150979,-0.162223,-0.684576,-0.276219,-0.3532,-0.184544
35,65,-0.654498,-0.814493,-0.174533,-0.174533,-0.647708,-0.80461,-0.150979,-0.162223,-0.684576,-0.276219,-0.3532,-0.184544
35,65,-0.654498,-0.814493,-0.174533,-0.174533,-0.647708,-0.80461,-0.150979,-0.162223,-0.684576,-0.276219,-0.3532,-0.184544
35,65,-0.654498,-0.814493,-0.174533,-0.174533,-0.647708,-0.80461,-0.150979,-0.162223,-0.68455,-0.276219,-0.3532,-0.184544
35,65,-0.654498,-0.814493,-0.174533,-0.174533,-0.647708,-0.80461,-0.150979,-0.162223,-0.684466,-0.276219,-0.3532,-0.184544
35,65,-0.654498,-0.814493,-0.174533,-0.174533,-0.647708,-0.80461,-0.150979,-0.162223,-0.684385,-0.276219,-0.3532,-0.184544
35,65,-0.654498,-0.814493,-0.174533,-0.174533,-0.647708,-0.80461,-0.150979,-0.162223,-0.684317,-0.276219,-0.3532,-0.184544
35,65,-0.654498,-0.814493,-0.174533,-0.174533,-0.647708,-0.80461,-0.15092,-0.162243,-0.68424,-0.276219,-0.354085,-0.184245
35,65,-0.654498,-0.814493,-0.174533,-0.174533,-0.647708,-0.80461,-0.15092,-0.162243,-0.684156,-0.276219,-0.354085,-0.184245
35,65,-0.654498,-0.814493,-0.174533,-0.174533,-0.647708,-0.80461,-0.15092,-0.162243,-0.684093,-0.276219,-0.354085,-0.184245
35,65,-0.654498,-0.814493,-0.174533,-0.174533,-0.647708,-0.80461,-0.15092,-0.162243,-0.684014,-0.276219,-0.354085,-0.184245
35,65,-0.654498,-0.814493,-0.174533,-0.174533,-0.647708,-0.80461,-0.15092,-0.162243,-0.683946,-0.276219,-0.354085,-0.184245
35,65,-0.654498,-0.814493,-0.174533,-0.174533,-0.647708,-0.80461,-0.15092,-0.162243,-0.68388,-0.276219,-0.354085,-0.184245
35,65,-0.654498,-0.814493,-0.174533,-0.174533,-0.647708,-0.80461,-0.15092,-0.162243,-0.683815,-0.276219,-0.354085,-0.184245
35,65,-0.654498,-0.814493,-0.174533,-0.174533,-0.647708,-0.80461,-0.15092,-0.162243,-0.683753,-0.276219,-0.354085,-0.184245
35,65,-0.654498,-0.814493,-0.174533,-0.174533,-0.647708,-0.80461,-0.15092,-0.162243,-0.683691,-0.276219,-0.354085,-0.184245
35,65,-0.654498,-0.814493,-0.174533,-0.174533,-0.647708,-0.804661,-0.15092,-0.162243,-0.683632,-0.27529,-0.354087,-0.184246
35,65,-0.654498,-0.814493,-0.174533,-0.174533,-0.647708,-0.804661,-0.15092,-0.162243,-0.683574,-0.27529,-0.354094,-0.184251
35,65,-0.654498,-0.814493,-0.174533,-0.174533,-0.647708,-0.804661,-0.15092,-0.162243,-0.683517,-0.27529,-0.354101,-0.184255
35,65,-0.654498,-0.814493,-0.174533,-0.174533,-0.647708,-0.804661,-0.15092,-0.162243,-0.683462,-0.27529,-0.354107,-0.184259
35,65,-0.654498,-0.814493,-0.174533,-0.174533,-0.647708,-0.804661,-0.15092,-0.162243,-0.683408,-0.27529,-0.354112,-0.184263
35,65,-0.654498,-0.814493,-0.174533,-0.174533,-0.647708,-0.804661,-0.15092,-0.162243,-0.683355,-0.27529,-0.354117,-0.184266
35,65,-0.654498,-0.814493,-0.174533,-0.174533,-0.647708,-0.804661,-0.15092,-0.162243,-0.683304,-0.27529,-0.354122,-0.184269
35,65,-0.654498,-0.814493,-0.174533,-0.174533,-0.647708,-0.804661,-0.150861,-0.162263,-0.679042,-0.27529,-0.355014,-0.183972
35,65,-0.654498,-0.814493,-0.174533,-0.174533,-0.647708,-0.804661,-0.150861,-0.162263,-0.679042,-0.27529,-0.355017,-0.183974
35,65,-0.654498,-0.814493,-0.174533,-0.174533,-0.647708,-0.804661,-0.150861,-0.162263,-0.679042,-0.27529,-0.355021,-0.183977
35,65,-0.654498,-0.814493,-0.174533,-0.174533,-0.647708,-0.804661,-0.150861,-0.162263,-0.679042,-0.27529,-0.355025,-0.183979
35,65,-0.654498,-0.814493,-0.174533,-0.174533,-0.647708,-0.804661,-0.150861,-0.162263,-0.679042,-0.27529,-0.355028,-0.183981
35,65,-0.654498,-0.814493,-0.174533,-0.174533,-0.647708,-0.804661,-0.150861,-0.162263,-0.679042,-0.27529,-0.355031,-0.183983
35,65,-0.654498,-0.814493,-0.174533,-0.174533,-0.647708,-0.804661,-0.150861,-0.162263,-0.679042,-0.27529,-0.355033,-0.183984
35,65,-0.654498,-0.814493,-0.174533,-0.174533,-0.647708,-0.804661,-0.150861,-0.162263,-0.679042,-0.27529,-0.355036,-0.183986
35,65,-0.654498,-0.814493,-0.174533,-0.174533,-0.647708,-0.804661,-0.150861,-0.162263,-0.679042,-0.27529,-0.355038,-0.183988
35,65,-0.654498,-0.814493,-0.174533,-0.174533,-0.647708,-0.804661,-0.150861,-0.162263,-0.679042,-0.27529,-0.35504,-0.183989
35,65,-0.654498,-0.814493,-0.174533,-0.174533,-0.647708,-0.804661,-0.150861,-0.162263,-0.679042,-0.27529,-0.355043,-0.183991
35,65,-0.654498,-0.814493,-0.174533,-0.174533,-0.647708,-0.804661,-0.150861,-0.162263,-0.679042,-0.27529,-0.355045,-0.183992
35,65,-0.654498,-0.814493,-0.174533,-0.174533,-0.647708,-0.804661,-0.150861,-0.162263,-0.679042,-0.27529,-0.355046,-0.183993
35,65,-0.654498,-0.814493,-0.174533,-0.174533,-0.647708,-0.804661,-0.150801,-0.162283,-0.679042,-0.27529,-0.355941,-0.183693
35,65,-0.654498,-0.814493,-0.174533,-0.174533,-0.647708,-0.804661,-0.150801,-0.162283,-0.679042,-0.27529,-0.355942,-0.183694
35,65,-0.654498,-0.814493,-0.174533,-0.174533,-0.647708,-0.804661,-0.150801,-0.162283,-0.679042,-0.27529,-0.355944,-0.183695
35,65,-0.654498,-0.814493,-0.174533,-0.174533,-0.647708,-0.804661,-0.150801,-0.162283,-0.679042,-0.27529,-0.355946,-0.183696
35,65,-0.654498,-0.814493,-0.174533,-0.174533,-0.647708,-0.804661,-0.150801,-0.162283,-0.679042,-0.27529,-0.355947,-0.183697
35,65,-0.654498,-0.814493,-0.174533,-0.174533,-0.647708,-0.804661,-0.150801,-0.162283,-0.679042,-0.27529,-0.355949,-0.183698
35,65,-0.654498,-0.814493,-0.174533,-0.174533,-0.647708,-0.804661,-0.150801,-0.162283,-0.679042,-0.27529,-0.35595,-0.183699
35,65,-0.654498,-0.814493,-0.174533,-0.174533,-0.647708,-0.804661,-0.150801,-0.162283,-0.679042,-0.27529,-0.355951,-0.1837
35,65,-0.654498,-0.814493,-0.174533,-0.174533,-0.647708,-0.804661,-0.150801,-0.162283,-0.679042,-0.27529,-0.355952,-0.1837
35,65,-0.654498,-0.814493,-0.174533,-0.174533,-0.647708,-0.804661,-0.150801,-0.162283,-0.679042,-0.27529,-0.355954,-0.183701
35,65,-0.654498,-0.814493,-0.174533,-0.174533,-0.647708,-0.804661,-0.150801,-0.162283,-0.679042,-0.27529,-0.355955,-0.183702
35,65,-0.654498,-0.814493,-0.174533,-0.174533,-0.647708,-0.804661,-0.150801,-0.162283,-0.679042,-0.27529,-0.355956,-0.183703
35,65,-0.654498,-0.814493,-0.174533,-0.174533,-0.647708,-0.804661,-0.150801,-0.162283,-0.679042,-0.27529,-0.355957,-0.183703
35,65,-0.654498,-0.814493,-0.174533,-0.174533,-0.647708,-0.804661,-0.150742,-0.162303,-0.679042,-0.27529,-0.356854,-0.183401
35,65,-0.654498,-0.814493,-0.174533,-0.174533,-0.647708,-0.804661,-0.150742,-0.162303,-0.679042,-0.27529,-0.356855,-0.183402
35,65,-0.654498,-0.814493,-0.174533,-0.174533,-0.647708,-0.804661,-0.150742,-0.162303,-0.679042,-0.27529,-0.356856,-0.183402
35,65,-0.654498,-0.814493,-0.174533,-0.174533,-0.647708,-0.804661,-0.150742,-0.162303,-0.679042,-0.27529,-0.356857,-0.183403
35,65,-0.654498,-0.814493,-0.174533,-0.174533,-0.647708,-0.804661,-0.150742,-0.162303,-0.679042,-0.27529,-0.356858,-0.183403
35,65,-0.654498,-0.814493,-0.174533,-0.174533,-0.647708,-0.804661,-0.150742,-0.162303,-0.679042,-0.27529,-0.356859,-0.183404
35,65,-0.654498,-0.814493,-0.174533,-0.174533,-0.647708,-0.804661,-0.150742,-0.162303,-0.679042,-0.27529,-0.356859,-0.183404
35,65,-0.654498,-0.814493,-0.174533,-0.174533,-0.647708,-0.804661,-0.150742,-0.162303,-0.679042,-0.27529,-0.35686,-0.183405
35,65,-0.654498,-0.814493,-0.174533,-0.174533,-0.647708,-0.804661,-0.150742,-0.162303,-0.679042,-0.27529,-0.356861,-0.183405
35,65,-0.654498,-0.814493,-0.174533,-0.174533,-0.647708,-0.804661,-0.150742,-0.162303,-0.679042,-0.27529,-0.356862,-0.183406
35,65,-0.654498,-0.814493,-0.174533,-0.174533,-0.647708,-0.804661,-0.150742,-0.162303,-0.679042,-0.27529,-0.356862,-0.183406
35,65,-0.654498,-0.814493,-0.174533,-0.174533,-0.647708,-0.804661,-0.150742,-0.162303,-0.679042,-0.27529,-0.356863,-0.183407
35,65,-0.654498,-0.814493,-0.174533,-0.174533,-0.647708,-0.804661,-0.150742,-0.162303,-0.679042,-0.27529,-0.356864,-0.183407
35,65,-0.654498,-0.814493,-0.174533,-0.174533,-0.647708,-0.804661,-0.150742,-0.162303,-0.679042,-0.27529,-0.356864,-0.183408
35,65,-0.654498,-0.814493,-0.174533,-0.174533,-0.647708,-0.804661,-0.150683,-0.162323,-0.679042,-0.27529,-0.357759,-0.183106
35,65,-0.654498,-0.814493,-0.174533,-0.174533,-0.647708,-0.804661,-0.150683,-0.162323,-0.679042,-0.27529,-0.35776,-0.183106
35,65,-0.654498,-0.814493,-0.174533,-0.174533,-0.647708,-0.804661,-0.150683,-0.162323,-0.679042,-0.27529,-0.357761,-0.183107
35,65,-0.654498,-0.814493,-0.174533,-0.174533,-0.647708,-0.804661,-0.150683,-0.162323,-0.679042,-0.27529,-0.357761,-0.183107
35,65,-0.654498,-0.814493,-0.174533,-0.174533,-0.647708,-0.804661,-0.150683,-0.162323,-0.679042,-0.27529,-0.357762,-0.183107
35,65,-0.654498,-0.814493,-0.174533,-0.174533,-0.647708,-0.804661,-0.150683,-0.162323,-0.679042,-0.27529,-0.357762,-0.183108
35,65,-0.654498,-0.814493,-0.174533,-0.174533,-0.647708,-0.804661,-0.150683,-0.162323,-0.679042,-0.27529,-0.357763,-0.183108
35,65,-0.654498,-0.814493,-0.174533,-0.174533,-0.647708,-0.804661,-0.150683,-0.162323,-0.679042,-0.27529,-0.357763,-0.183108
35,65,-0.654498,-0.814493,-0.174533,-0.174533,-0.647708,-0.804661,-0.150683,-0.162323,-0.679042,-0.27529,-0.357764,-0.183109
35,65,-0.654498,-0.814493,-0.174533,-0.174533,-0.647708,-0.804661,-0.150746,-0.162365,-0.679042,-0.27529,-0.356848,-0.182511
35,65,-0.654498,-0.814493,-0.174533,-0.174533,-0.647708,-0.804661,-0.150746,-0.162365,-0.679042,-0.27529,-0.356848,-0.182511
35,65,-0.654498,-0.814493,-0.174533,-0.174533,-0.647708,-0.804661,-0.150746,-0.162365,-0.679042,-0.27529,-0.356848,-0.182511
35,65,-0.654498,-0.814493,-0.174533,-0.174533,-0.647708,-0.804661,-0.150746,-0.162365,-0.679042,-0.27529,-0.356848,-0.182511
35,65,-0.654498,-0.814493,-0.174533,-0.174533,-0.647708,-0.804661,-0.150746,-0.162365,-0.679042,-0.27529,-0.356848,-0.182511
35,65,-0.654498,-0.814493,-0.174533,-0.174533,-0.647708,-0.804661,-0.150746,-0.162365,-0.679042,-0.27529,-0.356848,-0.182511
35,65,-0.654498,-0.814493,-0.174533,-0.174533,-0.647708,-0.804661,-0.150746,-0.162365,-0.679042,-0.27529,-0.356848,-0.182511
35,65,-0.654498,-0.814493,-0.174533,-0.174533,-0.647708,-0.804661,-0.150746,-0.162365,-0.679042,-0.27529,-0.356848,-0.182511
35,65,-0.654498,-0.814493,-0.174533,-0.174533,-0.647708,-0.804661,-0.150746,-0.162365,-0.679042,-0.27529,-0.356848,-0.182511
35,65,-0.654498,-0.814493,-0.174533,-0.174533,-0.647708,-0.804661,-0.150746,-0.162365,-0.679042,-0.27529,-0.356848,-0.182511
35,65,-0.654498,-0.814493,-0.174533,-0.174533,-0.647708,-0.804661,-0.150746,-0.162365,-0.679042,-0.27529,-0.356848,-0.182511
35,65,-0.654498,-0.814493,-0.174533,-0.174533,-0.647708,-0.804661,-0.150746,-0.162365,-0.679042,-0.27529,-0.356848,-0.182511
35,65,-0.654498,-0.814493,-0.174533,-0.174533,-0.647708,-0.804661,-0.150746,-0.162365,-0.679042,-0.27529,-0.356848,-0.182511
35,65,-0.654498,-0.814493,-0.174533,-0.174533,-0.647708,-0.804661,-0.150746,-0.162365,-0.679042,-0.27529,-0.356848,-0.182511
35,65,-0.654498,-0.814493,-0.174533,-0.174533,-0.647708,-0.804661,-0.150746,-0.162365,-0.679042,-0.27529,-0.356848,-0.182511
35,65,-0.654498,-0.814493,-0.174533,-0.174533,-0.647708,-0.804661,-0.150746,-0.162365,-0.679042,-0.27529,-0.356848,-0.182511
35,65,-0.654498,-0.814493,-0.174533,-0.174533,-0.647708,-0.804661,-0.150746,-0.162365,-0.679042,-0.27529,-0.356848,-0.182511
35,65,-0.654498,-0.814493,-0.174533,-0.174533,-0.647708,-0.804661,-0.150746,-0.162365,-0.679042,-0.27529,-0.356848,-0.182511
35,65,-0.654498,-0.814493,-0.174533,-0.174533,-0.647708,-0.804661,-0.150746,-0.162365,-0.679042,-0.27529,-0.356848,-0.182511
35,65,-0.654498,-0.814493,-0.174533,-0.174533,-0.647708,-0.804712,-0.150746,-0.162365,-0.679042,-0.273867,-0.356848,-0.182511
35,65,-0.654498,-0.814493,-0.174533,-0.174533,-0.647708,-0.804712,-0.150746,-0.162365,-0.679042,-0.273867,-0.356848,-0.182511
35,65,-0.654498,-0.814493,-0.174533,-0.174533,-0.647708,-0.804712,-0.150746,-0.162365,-0.679042,-0.273867,-0.356848,-0.182511
35,65,-0.654498,-0.814493,-0.174533,-0.174533,-0.647708,-0.804712,-0.150746,-0.162365,-0.679042,-0.273867,-0.356848,-0.182511
35,65,-0.654498,-0.814493,-0.174533,-0.174533,-0.647708,-0.804712,-0.150746,-0.162365,-0.679042,-0.273867,-0.356848,-0.182511
35,65,-0.654498,-0.814493,-0.174533,-0.174533,-0.647708,-0.804712,-0.150746,-0.162365,-0.679042,-0.273867,-0.356848,-0.182511
35,65,-0.654498,-0.814493,-0.174533,-0.174533,-0.647708,-0.804712,-0.150746,-0.162365,-0.679042,-0.273867,-0.356848,-0.182511
35,65,-0.654498,-0.814493,-0.174533,-0.174533,-0.647708,-0.804712,-0.150746,-0.162365,-0.679042,-0.273867,-0.356848,-0.182511
35,65,-0.654498,-0.814493,-0.174533,-0.174533,-0.647708,-0.804712,-0.150746,-0.162365,-0.679042,-0.273867,-0.356848,-0.182511
35,65,-0.654498,-0.814493,-0.174533,-0.174533,-0.647708,-0.804712,-0.150746,-0.162365,-0.679042,-0.273867,-0.356848,-0.182511
35,65,-0.654498,-0.814493,-0.174533,-0.174533,-0.647708,-0.804712,-0.150746,-0.162365,-0.679042,-0.273867,-0.356848,-0.182511
35,65,-0.654498,-0.814493,-0.174533,-0.174533,-0.647708,-0.804712,-0.150687,-0.162385,-0.679042,-0.273867,-0.357726,-0.182215
35,65,-0.654498,-0.814493,-0.174533,-0.174533,-0.647708,-0.804712,-0.150687,-0.162385,-0.679042,-0.273867,-0.357726,-0.182215
35,65,-0.654498,-0.814493,-0.174533,-0.174533,-0.647708,-0.804712,-0.150687,-0.162385,-0.679042,-0.273867,-0.357726,-0.182215
35,65,-0.654498,-0.814493,-0.174533,-0.174533,-0.647708,-0.804712,-0.150687,-0.162385,-0.679042,-0.273867,-0.357726,-0.182215
35,65,-0.654498,-0.814493,-0.174533,-0.174533,-0.647708,-0.804712,-0.150687,-0.162385,-0.679042,-0.273867,-0.357726,-0.182215
35,65,-0.654498,-0.814493,-0.174533,-0.174533,-0.647708,-0.804712,-0.150687,-0.162385,-0.679042,-0.273867,-0.357726,-0.182215
35,65,-0.654498,-0.814493,-0.174533,-0.174533,-0.647708,-0.804712,-0.150687,-0.162385,-0.679042,-0.273867,-0.357726,-0.182215
35,65,-0.654498,-0.814493,-0.174533,-0.174533,-0.647708,-0.804712,-0.150687,-0.162385,-0.679042,-0.273867,-0.357726,-0.182215
35,65,-0.654498,-0.814493,-0.174533,-0.174533,-0.647708,-0.804712,-0.150687,-0.162385,-0.679042,-0.273867,-0.357726,-0.182215
35,65,-0.654498,-0.814493,-0.174533,-0.174533,-0.647708,-0.804712,-0.150687,-0.162385,-0.679042,-0.273867,-0.357726,-0.182215
35,65,-0.654498,-0.814493,-0.174533,-0.174533,-0.647708,-0.804712,-0.150687,-0.162385,-0.679042,-0.273867,-0.357726,-0.182215
35,65,-0.654498,-0.814493,-0.174533,-0.174533,-0.647708,-0.804712,-0.150687,-0.162385,-0.679042,-0.273867,-0.357726,-0.182215
35,65,-0.654498,-0.814493,-0.174533,-0.174533,-0.647708,-0.804712,-0.150687,-0.162385,-0.679042,-0.273867,-0.357726,-0.182215
35,65,-0.654498,-0.814493,-0.174533,-0.174533,-0.647708,-0.804712,-0.150687,-0.162385,-0.679042,-0.273867,-0.357726,-0.182215
35,65,-0.654498,-0.814493,-0.174533,-0.174533,-0.647708,-0.804712,-0.150687,-0.162385,-0.679042,-0.273867,-0.357726,-0.182215
35,65,-0.654498,-0.814493,-0.174533,-0.174533,-0.647708,-0.804712,-0.150687,-0.162385,-0.679042,-0.273867,-0.357726,-0.182215
35,65,-0.654498,-0.814493,-0.174533,-0.174533,-0.647708,-0.804712,-0.150687,-0.162385,-0.679042,-0.273867,-0.357726,-0.182215
35,65,-0.654498,-0.814493,-0.174533,-0.174533,-0.647708,-0.804712,-0.150687,-0.162385,-0.679042,-0.273867,-0.357726,-0.182215
35,65,-0.654498,-0.814493,-0.174533,-0.174533,-0.647708,-0.804712,-0.150687,-0.162385,-0.679042,-0.273867,-0.357726,-0.182215
35,65,-0.654498,-0.814493,-0.174533,-0.174533,-0.647708,-0.804712,-0.150687,-0.162385,-0.679042,-0.273867,-0.357726,-0.182215
35,65,-0.654498,-0.814493,-0.174533,-0.174533,-0.647708,-0.804712,-0.150687,-0.162385,-0.679042,-0.273867,-0.357726,-0.182215
35,65,-0.654498,-0.814493,-0.174533,-0.174533,-0.647708,-0.804712,-0.150687,-0.162385,-0.679042,-0.273867,-0.357726,-0.182215
35,65,-0.654498,-0.814493,-0.174533,-0.174533,-0.647708,-0.804712,-0.150687,-0.162385,-0.679042,-0.273867,-0.357726,-0.182215
35,65,-0.654498,-0.814493,-0.174533,-0.174533,-0.647708,-0.804712,-0.150627,-0.162405,-0.679042,-0.273867,-0.358586,-0.181924
35,65,-0.654498,-0.814493,-0.174533,-0.174533,-0.647708,-0.804712,-0.150627,-0.162405,-0.679042,-0.273867,-0.358586,-0.181924
35,65,-0.654498,-0.814493,-0.174533,-0.174533,-0.647708,-0.804712,-0.150627,-0.162405,-0.679042,-0.273867,-0.358586,-0.181924
35,65,-0.654498,-0.814493,-0.174533,-0.174533,-0.647708,-0.804712,-0.150627,-0.162405,-0.679042,-0.273867,-0.358586,-0.181924
35,65,-0.654498,-0.814493,-0.174533,-0.174533,-0.647708,-0.804712,-0.150627,-0.162405,-0.679042,-0.273867,-0.358586,-0.181924
35,65,-0.654498,-0.814493,-0.174533,-0.174533,-0.647708,-0.804712,-0.150627,-0.162405,-0.679042,-0.273867,-0.358586,-0.181924
35,65,-0.654498,-0.814493,-0.174533,-0.174533,-0.647708,-0.804712,-0.150627,-0.162405,-0.679042,-0.273867,-0.358586,-0.181924
35,65,-0.654498,-0.814493,-0.174533,-0.174533,-0.647708,-0.804712,-0.150627,-0.162405,-0.679042,-0.273867,-0.358586,-0.181924
35,65,-0.654498,-0.814493,-0.174533,-0.174533,-0.647708,-0.804712,-0.150627,-0.162405,-0.679042,-0.273867,-0.358586,-0.181924
35,65,-0.654498,-0.814493,-0.174533,-0.174533,-0.647708,-0.804712,-0.150627,-0.162405,-0.679042,-0.273867,-0.358586,-0.181924
35,65,-0.654498,-0.814493,-0.174533,-0.174533,-0.647708,-0.804712,-0.150627,-0.162405,-0.679042,-0.273867,-0.358586,-0.181924
35,65,-0.654498,-0.814493,-0.174533,-0.174533,-0.647708,-0.804712,-0.150627,-0.162405,-0.679042,-0.273867,-0.358586,-0.181924
35,65,-0.654498,-0.814493,-0.174533,-0.174533,-0.647708,-0.804712,-0.150627,-0.162405,-0.679042,-0.273867,-0.358586,-0.181924
35,65,-0.654498,-0.814493,-0.174533,-0.174533,-0.647708,-0.804712,-0.150627,-0.162405,-0.679042,-0.273867,-0.358586,-0.181924
35,65,-0.654498,-0.814493,-0.174533,-0.174533,-0.647708,-0.804712,-0.150627,-0.162405,-0.679042,-0.273867,-0.358586,-0.181924
35,65,-0.654498,-0.814493,-0.174533,-0.174533,-0.647708,-0.804712,-0.150627,-0.162405,-0.679042,-0.273867,-0.358586,-0.181924
35,65,-0.654498,-0.814493,-0.174533,-0.174533,-0.647708,-0.804712,-0.150627,-0.162405,-0.679042,-0.273867,-0.358586,-0.181924
35,65,-0.654498,-0.814493,-0.174533,-0.174533,-0.647708,-0.804712,-0.150627,-0.162405,-0.679042,-0.273867,-0.358586,-0.181924
35,65,-0.654498,-0.814493,-0.174533,-0.174533,-0.647708,-0.804712,-0.150627,-0.162405,-0.679042,-0.273867,-0.358586,-0.181924
35,65,-0.654498,-0.814493,-0.174533,-0.174533,-0.647708,-0.804712,-0.150625,-0.162345,-0.679042,-0.273867,-0.358612,-0.18282
35,65,-0.654498,-0.814493,-0.174533,-0.174533,-0.647708,-0.804712,-0.150566,-0.162365,-0.679042,-0.273867,-0.359502,-0.182519
35,65,-0.654498,-0.814493,-0.174533,-0.174533,-0.647708,-0.804712,-0.150566,-0.162365,-0.679042,-0.273867,-0.359502,-0.182519
35,65,-0.654498,-0.814493,-0.174533,-0.174533,-0.647708,-0.804712,-0.150566,-0.162365,-0.679042,-0.273867,-0.359502,-0.182519
35,65,-0.654498,-0.814493,-0.174533,-0.174533,-0.647708,-0.804712,-0.150566,-0.162365,-0.679042,-0.273867,-0.359502,-0.182519
35,65,-0.654498,-0.814493,-0.174533,-0.174533,-0.647708,-0.804712,-0.150566,-0.162365,-0.679042,-0.273867,-0.359502,-0.182519
35,65,-0.654498,-0.814493,-0.174533,-0.174533,-0.647708,-0.804763,-0.150566,-0.162365,-0.679042,-0.272443,-0.359502,-0.182519
35,65,-0.654498,-0.814493,-0.174533,-0.174533,-0.647708,-0.804763,-0.150566,-0.162365,-0.679042,-0.272443,-0.359502,-0.182519
35,65,-0.654498,-0.814493,-0.174533,-0.174533,-0.647708,-0.804763,-0.150566,-0.162365,-0.679042,-0.272443,-0.359502,-0.182519
35,65,-0.654498,-0.814493,-0.174533,-0.174533,-0.647708,-0.804763,-0.150566,-0.162365,-0.679042,-0.272443,-0.359502,-0.182519
35,65,-0.654498,-0.814493,-0.174533,-0.174533,-0.647708,-0.804763,-0.150566,-0.162365,-0.679042,-0.272443,-0.359502,-0.182519
35,65,-0.654498,-0.814493,-0.174533,-0.174533,-0.647708,-0.804763,-0.150507,-0.162385,-0.679042,-0.272443,-0.360392,-0.182218
35,65,-0.654498,-0.814493,-0.174533,-0.174533,-0.647708,-0.804763,-0.150507,-0.162385,-0.679042,-0.272443,-0.360392,-0.182218
35,65,-0.654498,-0.814493,-0.174533,-0.174533,-0.647708,-0.804763,-0.150507,-0.162385,-0.679042,-0.272443,-0.360392,-0.182218
35,65,-0.654498,-0.814493,-0.174533,-0.174533,-0.647708,-0.804763,-0.150507,-0.162385,-0.679042,-0.272443,-0.360392,-0.182218
35,65,-0.654498,-0.814493,-0.174533,-0.174533,-0.647708,-0.804763,-0.150507,-0.162385,-0.679042,-0.272443,-0.360392,-0.182218
35,65,-0.654498,-0.814493,-0.174533,-0.174533,-0.647708,-0.804763,-0.150507,-0.162385,-0.679042,-0.272443,-0.360392,-0.182218
35,65,-0.654498,-0.814493,-0.174533,-0.174533,-0.647708,-0.804763,-0.150507,-0.162385,-0.679042,-0.272443,-0.360392,-0.182218
35,65,-0.654498,-0.814493,-0.174533,-0.174533,-0.647708,-0.804763,-0.150507,-0.162385,-0.679042,-0.272443,-0.360392,-0.182218
35,65,-0.654498,-0.814493,-0.174533,-0.174533,-0.647708,-0.804763,-0.150507,-0.162385,-0.679042,-0.272443,-0.360392,-0.182218
35,65,-0.654498,-0.814493,-0.174533,-0.174533,-0.647708,-0.804763,-0.150507,-0.162385,-0.679042,-0.272443,-0.360392,-0.182218
35,65,-0.654498,-0.814493,-0.174533,-0.174533,-0.647708,-0.804763,-0.150447,-0.162405,-0.679042,-0.272443,-0.36132,-0.181905
35,65,-0.654498,-0.814493,-0.174533,-0.174533,-0.647708,-0.804763,-0.150447,-0.162405,-0.679042,-0.272443,-0.36132,-0.181905
35,65,-0.654498,-0.814493,-0.174533,-0.174533,-0.647708,-0.804763,-0.150447,-0.162405,-0.679042,-0.272443,-0.36132,-0.181905
35,65,-0.654498,-0.814493,-0.174533,-0.174533,-0.647708,-0.804763,-0.150447,-0.162405,-0.679042,-0.272443,-0.36132,-0.181905
35,65,-0.654498,-0.814493,-0.174533,-0.174533,-0.647708,-0.804763,-0.150447,-0.162405,-0.679042,-0.272443,-0.36132,-0.181905
35,65,-0.654498,-0.814493,-0.174533,-0.174533,-0.647708,-0.804763,-0.150511,-0.162446,-0.679042,-0.272443,-0.36037,-0.181285
35,65,-0.654498,-0.814493,-0.174533,-0.174533,-0.647708,-0.804763,-0.150511,-0.162446,-0.679042,-0.272443,-0.36037,-0.181285
35,65,-0.654498,-0.814493,-0.174533,-0.174533,-0.647708,-0.804763,-0.150451,-0.162466,-0.679042,-0.272443,-0.361272,-0.18098
35,65,-0.654498,-0.814493,-0.174533,-0.174533,-0.647708,-0.804763,-0.150451,-0.162466,-0.679042,-0.272443,-0.361272,-0.18098
35,65,-0.654498,-0.814493,-0.174533,-0.174533,-0.647708,-0.804763,-0.150451,-0.162466,-0.679042,-0.272443,-0.361272,-0.18098
35,65,-0.654498,-0.814493,-0.174533,-0.174533,-0.647708,-0.804763,-0.150451,-0.162466,-0.679042,-0.272443,-0.361272,-0.18098
35,65,-0.654498,-0.814493,-0.174533,-0.174533,-0.647708,-0.804763,-0.150451,-0.162466,-0.679042,-0.272443,-0.361272,-0.18098
35,65,-0.654498,-0.814493,-0.174533,-0.174533,-0.647708,-0.804763,-0.150451,-0.162466,-0.679042,-0.272443,-0.361272,-0.18098
35,65,-0.654498,-0.814493,-0.174533,-0.174533,-0.647708,-0.804763,-0.150451,-0.162466,-0.679042,-0.272443,-0.361272,-0.18098
35,65,-0.654498,-0.814493,-0.174533,-0.174533,-0.647708,-0.804763,-0.150451,-0.162466,-0.679042,-0.272443,-0.361272,-0.18098
35,65,-0.654498,-0.814493,-0.174533,-0.174533,-0.647708,-0.804763,-0.150451,-0.162466,-0.679042,-0.272443,-0.361272,-0.18098
35,65,-0.654498,-0.814493,-0.174533,-0.174533,-0.647708,-0.804763,-0.150392,-0.162487,-0.679042,-0.272443,-0.362179,-0.180674
35,65,-0.654498,-0.814493,-0.174533,-0.174533,-0.647708,-0.804763,-0.150392,-0.162487,-0.679042,-0.272443,-0.362179,-0.180674
35,65,-0.654498,-0.814493,-0.174533,-0.174533,-0.647708,-0.804763,-0.150392,-0.162487,-0.679042,-0.272443,-0.362179,-0.180674
35,65,-0.654498,-0.814493,-0.174533,-0.174533,-0.647708,-0.804763,-0.150392,-0.162487,-0.679042,-0.272443,-0.362179,-0.180674
35,65,-0.654498,-0.814493,-0.174533,-0.174533,-0.647708,-0.804763,-0.15039,-0.162427,-0.679042,-0.272443,-0.362205,-0.181569
35,65,-0.654498,-0.814493,-0.174533,-0.174533,-0.647708,-0.804763,-0.15039,-0.162427,-0.679042,-0.272443,-0.362205,-0.181569
35,65,-0.654498,-0.814493,-0.174533,-0.174533,-0.647708,-0.804763,-0.15039,-0.162427,-0.679042,-0.272443,-0.362205,-0.181569
35,65,-0.654498,-0.814493,-0.174533,-0.174533,-0.647708,-0.804763,-0.15039,-0.162427,-0.679042,-0.272443,-0.362205,-0.181569
35,65,-0.654498,-0.814493,-0.174533,-0.174533,-0.647708,-0.804763,-0.15039,-0.162427,-0.679042,-0.272443,-0.362205,-0.181569
35,65,-0.654498,-0.814493,-0.174533,-0.174533,-0.647708,-0.804763,-0.15039,-0.162427,-0.679042,-0.272443,-0.362205,-0.181569
35,65,-0.654498,-0.814493,-0.174533,-0.174533,-0.647708,-0.804763,-0.150331,-0.162447,-0.679042,-0.272443,-0.363094,-0.181269
35,65,-0.654498,-0.814493,-0.174533,-0.174533,-0.647708,-0.804763,-0.150331,-0.162447,-0.679042,-0.272443,-0.363094,-0.181269
35,65,-0.654498,-0.814493,-0.174533,-0.174533,-0.647708,-0.804763,-0.150331,-0.162447,-0.679042,-0.272443,-0.363094,-0.181269
35,65,-0.654498,-0.814493,-0.174533,-0.174533,-0.647708,-0.804763,-0.150331,-0.162447,-0.679042,-0.272443,-0.363094,-0.181269
35,65,-0.654498,-0.814493,-0.174533,-0.174533,-0.647708,-0.804763,-0.150331,-0.162447,-0.679042,-0.272443,-0.363094,-0.181269
35,65,-0.654498,-0.814493,-0.174533,-0.174533,-0.647708,-0.804763,-0.150331,-0.162447,-0.679042,-0.272443,-0.363094,-0.181269
35,65,-0.654498,-0.814493,-0.174533,-0.174533,-0.647708,-0.804763,-0.150331,-0.162447,-0.679042,-0.272443,-0.363094,-0.181269
35,65,-0.654498,-0.814493,-0.174533,-0.174533,-0.647708,-0.804763,-0.150331,-0.162447,-0.679042,-0.272443,-0.363094,-0.181269
35,65,-0.654498,-0.814493,-0.174533,-0.174533,-0.647708,-0.804763,-0.150331,-0.162447,-0.679042,-0.272443,-0.363094,-0.181269
35,65,-0.654498,-0.814493,-0.174533,-0.174533,-0.647708,-0.804763,-0.150331,-0.162447,-0.679042,-0.272443,-0.363094,-0.181269
35,65,-0.654498,-0.814493,-0.174533,-0.174533,-0.647708,-0.804763,-0.150331,-0.162447,-0.679042,-0.272443,-0.363094,-0.181269
35,65,-0.654498,-0.814493,-0.174533,-0.174533,-0.647708,-0.804763,-0.150331,-0.162447,-0.679042,-0.272443,-0.363094,-0.181269
35,65,-0.654498,-0.814493,-0.174533,-0.174533,-0.647708,-0.804763,-0.150331,-0.162447,-0.679042,-0.272443,-0.363094,-0.181269
35,65,-0.654498,-0.814493,-0.174533,-0.174533,-0.647708,-0.804763,-0.150331,-0.162447,-0.679042,-0.272443,-0.363094,-0.181269
35,65,-0.654498,-0.814493,-0.174533,-0.174533,-0.647708,-0.804763,-0.150331,-0.162447,-0.679042,-0.272443,-0.363094,-0.181269
35,65,-0.654498,-0.814493,-0.174533,-0.174533,-0.647708,-0.804763,-0.150331,-0.162447,-0.679042,-0.272443,-0.363094,-0.181269
35,65,-0.654498,-0.814493,-0.174533,-0.174533,-0.647708,-0.804763,-0.150331,-0.162447,-0.679042,-0.272443,-0.363094,-0.181269
35,65,-0.654498,-0.814493,-0.174533,-0.174533,-0.647708,-0.804763,-0.150331,-0.162447,-0.679042,-0.272443,-0.363094,-0.181269
35,65,-0.654498,-0.814493,-0.174533,-0.174533,-0.647708,-0.804763,-0.150331,-0.162447,-0.679042,-0.272443,-0.363094,-0.181269
35,65,-0.654498,-0.814493,-0.174533,-0.174533,-0.647708,-0.804763,-0.150331,-0.162447,-0.679042,-0.272443,-0.363094,-0.181269
35,65,-0.654498,-0.814493,-0.174533,-0.174533,-0.647708,-0.804763,-0.150331,-0.162447,-0.679042,-0.272443,-0.363094,-0.181269
35,65,-0.654498,-0.814493,-0.174533,-0.174533,-0.647708,-0.804763,-0.150331,-0.162447,-0.679042,-0.272443,-0.363094,-0.181269
35,65,-0.654498,-0.814493,-0.174533,-0.174533,-0.647708,-0.804763,-0.150331,-0.162447,-0.679042,-0.272443,-0.363094,-0.181269
35,65,-0.654498,-0.814493,-0.174533,-0.174533,-0.647708,-0.804763,-0.150331,-0.162447,-0.679042,-0.272443,-0.363094,-0.181269
35,65,-0.654498,-0.814493,-0.174533,-0.174533,-0.647708,-0.804763,-0.150331,-0.162447,-0.679042,-0.272443,-0.363094,-0.181269
35,65,-0.654498,-0.814493,-0.174533,-0.174533,-0.647708,-0.804763,-0.150331,-0.162447,-0.679042,-0.272443,-0.363094,-0.181269
35,65,-0.654498,-0.814493,-0.174533,-0.174533,-0.647708,-0.804763,-0.150331,-0.162447,-0.679042,-0.272443,-0.363094,-0.181269
35,65,-0.654498,-0.814493,-0.174533,-0.174533,-0.647708,-0.804763,-0.150331,-0.162447,-0.679042,-0.272443,-0.363094,-0.181269
35,65,-0.654498,-0.814493,-0.174533,-0.174533,-0.647708,-0.804763,-0.150331,-0.162447,-0.679042,-0.272443,-0.363094,-0.181269
35,65,-0.654498,-0.814493,-0.174533,-0.174533,-0.647708,-0.804763,-0.150331,-0.162447,-0.679042,-0.272443,-0.363094,-0.181269
35,65,-0.654498,-0.814493,-0.174533,-0.174533,-0.647708,-0.804763,-0.150331,-0.162447,-0.679042,-0.272443,-0.363094,-0.181269
35,65,-0.654498,-0.814493,-0.174533,-0.174533,-0.647708,-0.804763,-0.150331,-0.162447,-0.679042,-0.272443,-0.363094,-0.181269
35,65,-0.654498,-0.814493,-0.174533,-0.174533,-0.647708,-0.804763,-0.150331,-0.162447,-0.679042,-0.272443,-0.363094,-0.181269
35,65,-0.654498,-0.814493,-0.174533,-0.174533,-0.647708,-0.804814,-0.150331,-0.162447,-0.679042,-0.271019,-0.363094,-0.181269
35,65,-0.654498,-0.814493,-0.174533,-0.174533,-0.647708,-0.804814,-0.150331,-0.162447,-0.679042,-0.271019,-0.363094,-0.181269
35,65,-0.654498,-0.814493,-0.174533,-0.174533,-0.647708,-0.804814,-0.150331,-0.162447,-0.679042,-0.271019,-0.363094,-0.181269
35,65,-0.654498,-0.814493,-0.174533,-0.174533,-0.647708,-0.804814,-0.150331,-0.162447,-0.679042,-0.271019,-0.363092,-0.181269
35,65,-0.654498,-0.814493,-0.174533,-0.174533,-0.647708,-0.804814,-0.150331,-0.162447,-0.679042,-0.271019,-0.363091,-0.18127
35,65,-0.654498,-0.814493,-0.174533,-0.174533,-0.647708,-0.804814,-0.150331,-0.162447,-0.679042,-0.271019,-0.363089,-0.18127
35,65,-0.654498,-0.814493,-0.174533,-0.174533,-0.647708,-0.804814,-0.150331,-0.162447,-0.679042,-0.271019,-0.363088,-0.181271
35,65,-0.654498,-0.814493,-0.174533,-0.174533,-0.647708,-0.804814,-0.150331,-0.162447,-0.679042,-0.271019,-0.363086,-0.181271
35,65,-0.654498,-0.814493,-0.174533,-0.174533,-0.647708,-0.804814,-0.150331,-0.162447,-0.679042,-0.271019,-0.363085,-0.181272
35,65,-0.654498,-0.814493,-0.174533,-0.174533,-0.647708,-0.804814,-0.150331,-0.162447,-0.679042,-0.271019,-0.363083,-0.181272
35,65,-0.654498,-0.814493,-0.174533,-0.174533,-0.647708,-0.804814,-0.150331,-0.162447,-0.679042,-0.271019,-0.363082,-0.181273
35,65,-0.654498,-0.814493,-0.174533,-0.174533,-0.647708,-0.804814,-0.150331,-0.162447,-0.679042,-0.271019,-0.363081,-0.181273
35,65,-0.654498,-0.814493,-0.174533,-0.174533,-0.647708,-0.804814,-0.150331,-0.162447,-0.679042,-0.271019,-0.36308,-0.181273
35,65,-0.654498,-0.814493,-0.174533,-0.174533,-0.647708,-0.804814,-0.150331,-0.162447,-0.679042,-0.271019,-0.363079,-0.181274
35,65,-0.654498,-0.814493,-0.174533,-0.174533,-0.647708,-0.804814,-0.150331,-0.162447,-0.679042,-0.271019,-0.363078,-0.181274
35,65,-0.654498,-0.814493,-0.174533,-0.174533,-0.647708,-0.804814,-0.150331,-0.162447,-0.679042,-0.271019,-0.363077,-0.181275
35,65,-0.654498,-0.814493,-0.174533,-0.174533,-0.647708,-0.804814,-0.150394,-0.162488,-0.679042,-0.271019,-0.362126,-0.180655
35,65,-0.654498,-0.814493,-0.174533,-0.174533,-0.647708,-0.804814,-0.150394,-0.162488,-0.679042,-0.271019,-0.362125,-0.180655
35,65,-0.654498,-0.814493,-0.174533,-0.174533,-0.647708,-0.804814,-0.150394,-0.162488,-0.679042,-0.271019,-0.362124,-0.180656
35,65,-0.654498,-0.814493,-0.174533,-0.174533,-0.647708,-0.804814,-0.150394,-0.162488,-0.679042,-0.271019,-0.362123,-0.180656
35,65,-0.654498,-0.814493,-0.174533,-0.174533,-0.647708,-0.804814,-0.150394,-0.162488,-0.679042,-0.271019,-0.362122,-0.180656
35,65,-0.654498,-0.814493,-0.174533,-0.174533,-0.647708,-0.804814,-0.150394,-0.162488,-0.679042,-0.271019,-0.362121,-0.180656
35,65,-0.654498,-0.814493,-0.174533,-0.174533,-0.647708,-0.804814,-0.150394,-0.162488,-0.679042,-0.271019,-0.36212,-0.180657
35,65,-0.654498,-0.814493,-0.174533,-0.174533,-0.647708,-0.804814,-0.150335,-0.162508,-0.679042,-0.271019,-0.362997,-0.180361
35,65,-0.654498,-0.814493,-0.174533,-0.174533,-0.647708,-0.804814,-0.150335,-0.162508,-0.679042,-0.271019,-0.362997,-0.180361
35,65,-0.654498,-0.814493,-0.174533,-0.174533,-0.647708,-0.804814,-0.150335,-0.162508,-0.679042,-0.271019,-0.362997,-0.180361
35,65,-0.654498,-0.814493,-0.174533,-0.174533,-0.647708,-0.804814,-0.150335,-0.162508,-0.679042,-0.271019,-0.362997,-0.180361
35,65,-0.654498,-0.814493,-0.174533,-0.174533,-0.647708,-0.804814,-0.150335,-0.162508,-0.679042,-0.271019,-0.362997,-0.180361
35,65,-0.654498,-0.814493,-0.174533,-0.174533,-0.647708,-0.804814,-0.150335,-0.162508,-0.679042,-0.271019,-0.362997,-0.180361
35,65,-0.654498,-0.814493,-0.174533,-0.174533,-0.647708,-0.804814,-0.150335,-0.162508,-0.679042,-0.271019,-0.362997,-0.180361
35,65,-0.654498,-0.814493,-0.174533,-0.174533,-0.647708,-0.804814,-0.150335,-0.162508,-0.679042,-0.271019,-0.362997,-0.180361
35,65,-0.654498,-0.814493,-0.174533,-0.174533,-0.647708,-0.804814,-0.150335,-0.162508,-0.679042,-0.271019,-0.362997,-0.180361
35,65,-0.654498,-0.814493,-0.174533,-0.174533,-0.647708,-0.804814,-0.150335,-0.162508,-0.679042,-0.271019,-0.362997,-0.180361
35,65,-0.654498,-0.814493,-0.174533,-0.174533,-0.647708,-0.804814,-0.150335,-0.162508,-0.679042,-0.271019,-0.362997,-0.180361
35,65,-0.654498,-0.814493,-0.174533,-0.174533,-0.647708,-0.804814,-0.150335,-0.162508,-0.679042,-0.271019,-0.362997,-0.180361
35,65,-0.654498,-0.814493,-0.174533,-0.174533,-0.647708,-0.804814,-0.150335,-0.162508,-0.679042,-0.271019,-0.362997,-0.180361
35,65,-0.654498,-0.814493,-0.174533,-0.174533,-0.647708,-0.804814,-0.150335,-0.162508,-0.679042,-0.271019,-0.362997,-0.180361
35,65,-0.654498,-0.814493,-0.174533,-0.174533,-0.647708,-0.804814,-0.150335,-0.162508,-0.679042,-0.271019,-0.362997,-0.180361
35,65,-0.654498,-0.814493,-0.174533,-0.174533,-0.647708,-0.804814,-0.150335,-0.162508,-0.679042,-0.271019,-0.362997,-0.180361
35,65,-0.654498,-0.814493,-0.174533,-0.174533,-0.647708,-0.804814,-0.150335,-0.162508,-0.679042,-0.271019,-0.362997,-0.180361
35,65,-0.654498,-0.814493,-0.174533,-0.174533,-0.647708,-0.804814,-0.150335,-0.162508,-0.679042,-0.271019,-0.362997,-0.180361
35,65,-0.654498,-0.814493,-0.174533,-0.174533,-0.647708,-0.804814,-0.150335,-0.162508,-0.679042,-0.271019,-0.362997,-0.180361
35,65,-0.654498,-0.814493,-0.174533,-0.174533,-0.647708,-0.804814,-0.150335,-0.162508,-0.679042,-0.271019,-0.362997,-0.180361
35,65,-0.654498,-0.814493,-0.174533,-0.174533,-0.647708,-0.804814,-0.150335,-0.162508,-0.679042,-0.271019,-0.362997,-0.180361
35,65,-0.654498,-0.814493,-0.174533,-0.174533,-0.647708,-0.804814,-0.150335,-0.162508,-0.679042,-0.271019,-0.362997,-0.180361
35,65,-0.654498,-0.814493,-0.174533,-0.174533,-0.647708,-0.804814,-0.150335,-0.162508,-0.679042,-0.271019,-0.362997,-0.180361
35,65,-0.654498,-0.814493,-0.174533,-0.174533,-0.647708,-0.804814,-0.150276,-0.162528,-0.679042,-0.271019,-0.363858,-0.18007
35,65,-0.654498,-0.814493,-0.174533,-0.174533,-0.647708,-0.804814,-0.150276,-0.162528,-0.679042,-0.271019,-0.363858,-0.18007
35,65,-0.654498,-0.814493,-0.174533,-0.174533,-0.647708,-0.804814,-0.150276,-0.162528,-0.679042,-0.271019,-0.363858,-0.18007
35,65,-0.654498,-0.814493,-0.174533,-0.174533,-0.647708,-0.804814,-0.150276,-0.162528,-0.679042,-0.271019,-0.363858,-0.18007
35,65,-0.654498,-0.814493,-0.174533,-0.174533,-0.647708,-0.804814,-0.150276,-0.162528,-0.679042,-0.271019,-0.363858,-0.18007
35,65,-0.654498,-0.814493,-0.174533,-0.174533,-0.647708,-0.804814,-0.150276,-0.162528,-0.679042,-0.271019,-0.363858,-0.18007
35,65,-0.654498,-0.814493,-0.174533,-0.174533,-0.647708,-0.804814,-0.150276,-0.162528,-0.679042,-0.271019,-0.363858,-0.18007
35,65,-0.654498,-0.814493,-0.174533,-0.174533,-0.647708,-0.804814,-0.150276,-0.162528,-0.679042,-0.271019,-0.363858,-0.18007
35,65,-0.654498,-0.814493,-0.174533,-0.174533,-0.647708,-0.804814,-0.150276,-0.162528,-0.679042,-0.271019,-0.363858,-0.18007
35,65,-0.654498,-0.814493,-0.174533,-0.174533,-0.647708,-0.804814,-0.150276,-0.162528,-0.679042,-0.271019,-0.363858,-0.18007
35,65,-0.654498,-0.814493,-0.174533,-0.174533,-0.647708,-0.804814,-0.150276,-0.162528,-0.679042,-0.271019,-0.363858,-0.18007
35,65,-0.654498,-0.814493,-0.174533,-0.174533,-0.647708,-0.804814,-0.150276,-0.162528,-0.679042,-0.271019,-0.363858,-0.18007
35,65,-0.654498,-0.814493,-0.174533,-0.174533,-0.647708,-0.804814,-0.150276,-0.162528,-0.679042,-0.271019,-0.363858,-0.18007
35,65,-0.654498,-0.814493,-0.174533,-0.174533,-0.647708,-0.804814,-0.150276,-0.162528,-0.679042,-0.271019,-0.363858,-0.18007
35,65,-0.654498,-0.814493,-0.174533,-0.174533,-0.647708,-0.804814,-0.150276,-0.162528,-0.679042,-0.271019,-0.363858,-0.18007
35,65,-0.654498,-0.814493,-0.174533,-0.174533,-0.647708,-0.804814,-0.150276,-0.162528,-0.679042,-0.271019,-0.363858,-0.18007
35,65,-0.654498,-0.814493,-0.174533,-0.174533,-0.647708,-0.804814,-0.150276,-0.162528,-0.679042,-0.271019,-0.363858,-0.18007
35,65,-0.654498,-0.814493,-0.174533,-0.174533,-0.647708,-0.804814,-0.150216,-0.162548,-0.679042,-0.271019,-0.364748,-0.179769
35,65,-0.654498,-0.814493,-0.174533,-0.174533,-0.647708,-0.804814,-0.150216,-0.162548,-0.679042,-0.271019,-0.364748,-0.179769
35,65,-0.654498,-0.814493,-0.174533,-0.174533,-0.647708,-0.804814,-0.150216,-0.162548,-0.679042,-0.271019,-0.364748,-0.179769
35,65,-0.654498,-0.814493,-0.174533,-0.174533,-0.647708,-0.804814,-0.150216,-0.162548,-0.679042,-0.271019,-0.364748,-0.179769
35,65,-0.654498,-0.814493,-0.174533,-0.174533,-0.647708,-0.804814,-0.150216,-0.162548,-0.679042,-0.271019,-0.364748,-0.179769
35,65,-0.654498,-0.814493,-0.174533,-0.174533,-0.647708,-0.804814,-0.150216,-0.162548,-0.679042,-0.271019,-0.364748,-0.179769
35,65,-0.654498,-0.814493,-0.174533,-0.174533,-0.647708,-0.804814,-0.150216,-0.162548,-0.679042,-0.271019,-0.364748,-0.179769
35,65,-0.654498,-0.814493,-0.174533,-0.174533,-0.647708,-0.804814,-0.150216,-0.162548,-0.679042,-0.271019,-0.364748,-0.179769
35,65,-0.654498,-0.814493,-0.174533,-0.174533,-0.647708,-0.804814,-0.150216,-0.162548,-0.679042,-0.271019,-0.364748,-0.179769
35,65,-0.654498,-0.814493,-0.174533,-0.174533,-0.647708,-0.804814,-0.150216,-0.162548,-0.679042,-0.271019,-0.364748,-0.179769
35,65,-0.654498,-0.814493,-0.174533,-0.174533,-0.647708,-0.804814,-0.150216,-0.162548,-0.679042,-0.271019,-0.364748,-0.179769
35,65,-0.654498,-0.814493,-0.174533,-0.174533,-0.647708,-0.804814,-0.150216,-0.162548,-0.679042,-0.271019,-0.364748,-0.179769
35,65,-0.654498,-0.814493,-0.174533,-0.174533,-0.647708,-0.804814,-0.150216,-0.162548,-0.679042,-0.271019,-0.364748,-0.179769
35,65,-0.654498,-0.814493,-0.174533,-0.174533,-0.647708,-0.804814,-0.150216,-0.162548,-0.679042,-0.271019,-0.364748,-0.179769
35,65,-0.654498,-0.814493,-0.174533,-0.174533,-0.647708,-0.804814,-0.150216,-0.162548,-0.679042,-0.271019,-0.364748,-0.179769
35,65,-0.654498,-0.814493,-0.174533,-0.174533,-0.647708,-0.804814,-0.150216,-0.162548,-0.679042,-0.271019,-0.364748,-0.179769
35,65,-0.654498,-0.814493,-0.174533,-0.174533,-0.647708,-0.804814,-0.150216,-0.162548,-0.679042,-0.271019,-0.364748,-0.179769
35,65,-0.654498,-0.814493,-0.174533,-0.174533,-0.647708,-0.804814,-0.150216,-0.162548,-0.679042,-0.271019,-0.364748,-0.179769
35,65,-0.654498,-0.814493,-0.174533,-0.174533,-0.647708,-0.804814,-0.150216,-0.162548,-0.679042,-0.271019,-0.364748,-0.179769
35,65,-0.654498,-0.814493,-0.174533,-0.174533,-0.647708,-0.804814,-0.150216,-0.162548,-0.679042,-0.271019,-0.364748,-0.179769
35,65,-0.654498,-0.814493,-0.174533,-0.174533,-0.647708,-0.804814,-0.150216,-0.162548,-0.679042,-0.271019,-0.364748,-0.179769
35,65,-0.654498,-0.814493,-0.174533,-0.174533,-0.647708,-0.804814,-0.150216,-0.162548,-0.679042,-0.271019,-0.364748,-0.179769
35,65,-0.654498,-0.814493,-0.174533,-0.174533,-0.647708,-0.804814,-0.150216,-0.162548,-0.679042,-0.271019,-0.364748,-0.179769
35,65,-0.654498,-0.814493,-0.174533,-0.174533,-0.647708,-0.804814,-0.150216,-0.162548,-0.679042,-0.271019,-0.364748,-0.179769
35,65,-0.654498,-0.814493,-0.174533,-0.174533,-0.647708,-0.804814,-0.150216,-0.162548,-0.679042,-0.271019,-0.364748,-0.179769
35,65,-0.654498,-0.814493,-0.174533,-0.174533,-0.647708,-0.804814,-0.150216,-0.162548,-0.679042,-0.271019,-0.364748,-0.179769
35,65,-0.654498,-0.814493,-0.174533,-0.174533,-0.647708,-0.804814,-0.150216,-0.162548,-0.679042,-0.271019,-0.364748,-0.179769
35,65,-0.654498,-0.814493,-0.174533,-0.174533,-0.647708,-0.804814,-0.150216,-0.162548,-0.679042,-0.271019,-0.364748,-0.179769
35,65,-0.654498,-0.814493,-0.174533,-0.174533,-0.647708,-0.804814,-0.150216,-0.162548,-0.679042,-0.271019,-0.364748,-0.179769
35,65,-0.654498,-0.814493,-0.174533,-0.174533,-0.647708,-0.804814,-0.150216,-0.162548,-0.679042,-0.271019,-0.364748,-0.179769
35,65,-0.654498,-0.814493,-0.174533,-0.174533,-0.647708,-0.804814,-0.150216,-0.162548,-0.679042,-0.271019,-0.364748,-0.179769
35,65,-0.654498,-0.814493,-0.174533,-0.174533,-0.647708,-0.804814,-0.150216,-0.162548,-0.679042,-0.271019,-0.364748,-0.179769
35,65,-0.654498,-0.814493,-0.174533,-0.174533,-0.647708,-0.804814,-0.150216,-0.162548,-0.679042,-0.271019,-0.364748,-0.179769
35,65,-0.654498,-0.814493,-0.174533,-0.174533,-0.647708,-0.804814,-0.150216,-0.162548,-0.679042,-0.271019,-0.364748,-0.179769
35,65,-0.654498,-0.814493,-0.174533,-0.174533,-0.647708,-0.804814,-0.150216,-0.162548,-0.679042,-0.271019,-0.364748,-0.179769
35,65,-0.654498,-0.814493,-0.174533,-0.174533,-0.647708,-0.804814,-0.15028,-0.16259,-0.679042,-0.271019,-0.363798,-0.179149
35,65,-0.654498,-0.814493,-0.174533,-0.174533,-0.647708,-0.804814,-0.15028,-0.16259,-0.679042,-0.271019,-0.363798,-0.179149
35,65,-0.654498,-0.814493,-0.174533,-0.174533,-0.647708,-0.804814,-0.15028,-0.16259,-0.679042,-0.271019,-0.363798,-0.179149
35,65,-0.654498,-0.814493,-0.174533,-0.174533,-0.647708,-0.804814,-0.15028,-0.16259,-0.679042,-0.271019,-0.363798,-0.179149
35,65,-0.654498,-0.814493,-0.174533,-0.174533,-0.647708,-0.804814,-0.15028,-0.16259,-0.679042,-0.271019,-0.363798,-0.179149
35,65,-0.654498,-0.814493,-0.174533,-0.174533,-0.647708,-0.804814,-0.15028,-0.16259,-0.679042,-0.271019,-0.363798,-0.179149
35,65,-0.654498,-0.814493,-0.174533,-0.174533,-0.647708,-0.804814,-0.15028,-0.16259,-0.679042,-0.271019,-0.363798,-0.179149
35,65,-0.654498,-0.814493,-0.174533,-0.174533,-0.647708,-0.804814,-0.15028,-0.16259,-0.679042,-0.271019,-0.363798,-0.179149
35,65,-0.654498,-0.814493,-0.174533,-0.174533,-0.647708,-0.804814,-0.15028,-0.16259,-0.679042,-0.271019,-0.363798,-0.179149
35,65,-0.654498,-0.814493,-0.174533,-0.174533,-0.647708,-0.804814,-0.15028,-0.16259,-0.679042,-0.271019,-0.363798,-0.179149
35,65,-0.654498,-0.814493,-0.174533,-0.174533,-0.647708,-0.804814,-0.15028,-0.16259,-0.679042,-0.271019,-0.363798,-0.179149
35,65,-0.654498,-0.814493,-0.174533,-0.174533,-0.647708,-0.804814,-0.15022,-0.16261,-0.679042,-0.271019,-0.364689,-0.178848
35,65,-0.654498,-0.814493,-0.174533,-0.174533,-0.647708,-0.804814,-0.15022,-0.16261,-0.679042,-0.271019,-0.364689,-0.178848
35,65,-0.654498,-0.814493,-0.174533,-0.174533,-0.647708,-0.804814,-0.15022,-0.16261,-0.679042,-0.271019,-0.364689,-0.178848
35,65,-0.654498,-0.814493,-0.174533,-0.174533,-0.647708,-0.804814,-0.15022,-0.16261,-0.679042,-0.271019,-0.364689,-0.178848
35,65,-0.654498,-0.814493,-0.174533,-0.174533,-0.647708,-0.804814,-0.15022,-0.16261,-0.679042,-0.271019,-0.364689,-0.178848
35,65,-0.654498,-0.814493,-0.174533,-0.174533,-0.647708,-0.804814,-0.15022,-0.16261,-0.679042,-0.271019,-0.364689,-0.178848
35,65,-0.654498,-0.814493,-0.174533,-0.174533,-0.647708,-0.804814,-0.15022,-0.16261,-0.679042,-0.271019,-0.364689,-0.178848
35,65,-0.654498,-0.814493,-0.174533,-0.174533,-0.647708,-0.804814,-0.15022,-0.16261,-0.679042,-0.271019,-0.364689,-0.178848
35,65,-0.654498,-0.814493,-0.174533,-0.174533,-0.647708,-0.804814,-0.15022,-0.16261,-0.679042,-0.271019,-0.364689,-0.178848
35,65,-0.654498,-0.814493,-0.174533,-0.174533,-0.647708,-0.804814,-0.15022,-0.16261,-0.679042,-0.271019,-0.364689,-0.178848
35,65,-0.654498,-0.814493,-0.174533,-0.174533,-0.647708,-0.804814,-0.15022,-0.16261,-0.679042,-0.271019,-0.364689,-0.178848
35,65,-0.654498,-0.814493,-0.174533,-0.174533,-0.647708,-0.804814,-0.15022,-0.16261,-0.679042,-0.271019,-0.364689,-0.178848
35,65,-0.654498,-0.814493,-0.174533,-0.174533,-0.647708,-0.804814,-0.15022,-0.16261,-0.679042,-0.271019,-0.364689,-0.178848
35,65,-0.654498,-0.814493,-0.174533,-0.174533,-0.647708,-0.804814,-0.15022,-0.16261,-0.679042,-0.271019,-0.364689,-0.178848
35,65,-0.654498,-0.814493,-0.174533,-0.174533,-0.647708,-0.804814,-0.15022,-0.16261,-0.679042,-0.271019,-0.364689,-0.178848
35,65,-0.654498,-0.814493,-0.174533,-0.174533,-0.647708,-0.804814,-0.15022,-0.16261,-0.679042,-0.271019,-0.364689,-0.178848
35,65,-0.654498,-0.814493,-0.174533,-0.174533,-0.647708,-0.804814,-0.15022,-0.16261,-0.679042,-0.271019,-0.364689,-0.178848
35,65,-0.654498,-0.814493,-0.174533,-0.174533,-0.647708,-0.804814,-0.15022,-0.16261,-0.679042,-0.271019,-0.364689,-0.178848
35,65,-0.654498,-0.814493,-0.174533,-0.174533,-0.647708,-0.804814,-0.15022,-0.16261,-0.679042,-0.271019,-0.364689,-0.178848
35,65,-0.654498,-0.814493,-0.174533,-0.174533,-0.647708,-0.804814,-0.15022,-0.16261,-0.679042,-0.271019,-0.364689,-0.178848
35,65,-0.654498,-0.814493,-0.174533,-0.174533,-0.647708,-0.804814,-0.15022,-0.16261,-0.679042,-0.271019,-0.364689,-0.178848
35,65,-0.654498,-0.814493,-0.174533,-0.174533,-0.647708,-0.804814,-0.15022,-0.16261,-0.679042,-0.271019,-0.364689,-0.178848
35,65,-0.654498,-0.814493,-0.174533,-0.174533,-0.647708,-0.804814,-0.15022,-0.16261,-0.679042,-0.271019,-0.364689,-0.178848
35,65,-0.654498,-0.814493,-0.174533,-0.174533,-0.647708,-0.804814,-0.15022,-0.16261,-0.679042,-0.271019,-0.364689,-0.178848
35,65,-0.654498,-0.814493,-0.174533,-0.174533,-0.647708,-0.804814,-0.15022,-0.16261,-0.679042,-0.271019,-0.364689,-0.178848
35,65,-0.654498,-0.814493,-0.174533,-0.174533,-0.647708,-0.804814,-0.15022,-0.16261,-0.679042,-0.271019,-0.364689,-0.178848
35,65,-0.654498,-0.814493,-0.174533,-0.174533,-0.647708,-0.804814,-0.150284,-0.162651,-0.679042,-0.271019,-0.363739,-0.178228
35,65,-0.654498,-0.814493,-0.174533,-0.174533,-0.647708,-0.804814,-0.150284,-0.162651,-0.679042,-0.271019,-0.363739,-0.178228
35,65,-0.654498,-0.814493,-0.174533,-0.174533,-0.647708,-0.804814,-0.150284,-0.162651,-0.679042,-0.271019,-0.363739,-0.178228
35,65,-0.654498,-0.814493,-0.174533,-0.174533,-0.647708,-0.804814,-0.150284,-0.162651,-0.679042,-0.271019,-0.363739,-0.178228
35,65,-0.654498,-0.814493,-0.174533,-0.174533,-0.647708,-0.804814,-0.150284,-0.162651,-0.679042,-0.271019,-0.363739,-0.178228
35,65,-0.654498,-0.814493,-0.174533,-0.174533,-0.647708,-0.804814,-0.150284,-0.162651,-0.679042,-0.271019,-0.363739,-0.178228
35,65,-0.654498,-0.814493,-0.174533,-0.174533,-0.647708,-0.804814,-0.150284,-0.162651,-0.679042,-0.271019,-0.363739,-0.178228
35,65,-0.654498,-0.814493,-0.174533,-0.174533,-0.647708,-0.804864,-0.150284,-0.162651,-0.679042,-0.269596,-0.363739,-0.178228
35,65,-0.654498,-0.814493,-0.174533,-0.174533,-0.647708,-0.804864,-0.150284,-0.162651,-0.679042,-0.269596,-0.363739,-0.178228
35,65,-0.654498,-0.814493,-0.174533,-0.174533,-0.647708,-0.804864,-0.150284,-0.162651,-0.679042,-0.269596,-0.363739,-0.178228
35,65,-0.654498,-0.814493,-0.174533,-0.174533,-0.647708,-0.804864,-0.150284,-0.162651,-0.679042,-0.269596,-0.363739,-0.178228
35,65,-0.654498,-0.814493,-0.174533,-0.174533,-0.647708,-0.804864,-0.150284,-0.162651,-0.679042,-0.269596,-0.363739,-0.178228
35,65,-0.654498,-0.814493,-0.174533,-0.174533,-0.647708,-0.804864,-0.150284,-0.162651,-0.679042,-0.269596,-0.363739,-0.178228
35,65,-0.654498,-0.814493,-0.174533,-0.174533,-0.647708,-0.804864,-0.150284,-0.162651,-0.679042,-0.269596,-0.363739,-0.178228
35,65,-0.654498,-0.814493,-0.174533,-0.174533,-0.647708,-0.804864,-0.150284,-0.162651,-0.679042,-0.269596,-0.363739,-0.178228
35,65,-0.654498,-0.814493,-0.174533,-0.174533,-0.647708,-0.804864,-0.150284,-0.162651,-0.679042,-0.269596,-0.363739,-0.178228
35,65,-0.654498,-0.814493,-0.174533,-0.174533,-0.647708,-0.804864,-0.150284,-0.162651,-0.679042,-0.269596,-0.363739,-0.178228
35,65,-0.654498,-0.814493,-0.174533,-0.174533,-0.647708,-0.804864,-0.150284,-0.162651,-0.679042,-0.269596,-0.363739,-0.178228
35,65,-0.654498,-0.814493,-0.174533,-0.174533,-0.647708,-0.804864,-0.150284,-0.162651,-0.679042,-0.269596,-0.363739,-0.178228
35,65,-0.654498,-0.814493,-0.174533,-0.174533,-0.647708,-0.804864,-0.150284,-0.162651,-0.679042,-0.269596,-0.363739,-0.178228
35,65,-0.654498,-0.814493,-0.174533,-0.174533,-0.647708,-0.804864,-0.150284,-0.162651,-0.679042,-0.269596,-0.363739,-0.178228
35,65,-0.654498,-0.814493,-0.174533,-0.174533,-0.647708,-0.804864,-0.150284,-0.162651,-0.679042,-0.269596,-0.363739,-0.178228
35,65,-0.654498,-0.814493,-0.174533,-0.174533,-0.647708,-0.804864,-0.150284,-0.162651,-0.679042,-0.269596,-0.363739,-0.178228
35,65,-0.654498,-0.814493,-0.174533,-0.174533,-0.647708,-0.804864,-0.150284,-0.162651,-0.679042,-0.269596,-0.363739,-0.178228
35,65,-0.654498,-0.814493,-0.174533,-0.174533,-0.647708,-0.804864,-0.150284,-0.162651,-0.679042,-0.269596,-0.363739,-0.178228
35,65,-0.654498,-0.814493,-0.174533,-0.174533,-0.647708,-0.804864,-0.150284,-0.162651,-0.679042,-0.269596,-0.363739,-0.178228
35,65,-0.654498,-0.814493,-0.174533,-0.174533,-0.647708,-0.804864,-0.150284,-0.162651,-0.679042,-0.269596,-0.363739,-0.178228
35,65,-0.654498,-0.814493,-0.174533,-0.174533,-0.647708,-0.804864,-0.150284,-0.162651,-0.679042,-0.269596,-0.363739,-0.178228
35,65,-0.654498,-0.814493,-0.174533,-0.174533,-0.647708,-0.804864,-0.150284,-0.162651,-0.679042,-0.269596,-0.363739,-0.178228
35,65,-0.654498,-0.814493,-0.174533,-0.174533,-0.647708,-0.804864,-0.150284,-0.162651,-0.679042,-0.269596,-0.363739,-0.178228
35,65,-0.654498,-0.814493,-0.174533,-0.174533,-0.647708,-0.804864,-0.150284,-0.162651,-0.679042,-0.269596,-0.363739,-0.178228
35,65,-0.654498,-0.814493,-0.174533,-0.174533,-0.647708,-0.804864,-0.150284,-0.162651,-0.679042,-0.269596,-0.363739,-0.178228
35,65,-0.654498,-0.814493,-0.174533,-0.174533,-0.647708,-0.804864,-0.150284,-0.162651,-0.679042,-0.269596,-0.363739,-0.178228
35,65,-0.654498,-0.814493,-0.174533,-0.174533,-0.647708,-0.804864,-0.150284,-0.162651,-0.679042,-0.269596,-0.363739,-0.178228
35,65,-0.654498,-0.814493,-0.174533,-0.174533,-0.647708,-0.804864,-0.150284,-0.162651,-0.679042,-0.269596,-0.363739,-0.178228
35,65,-0.654498,-0.814493,-0.174533,-0.174533,-0.647708,-0.804864,-0.150284,-0.162651,-0.679042,-0.269596,-0.363739,-0.178228
35,65,-0.654498,-0.814493,-0.174533,-0.174533,-0.647708,-0.804864,-0.150284,-0.162651,-0.679042,-0.269596,-0.363739,-0.178228
35,65,-0.654498,-0.814493,-0.174533,-0.174533,-0.647708,-0.804864,-0.150284,-0.162651,-0.679042,-0.269596,-0.363739,-0.178228
35,65,-0.654498,-0.814493,-0.174533,-0.174533,-0.647708,-0.804864,-0.150284,-0.162651,-0.679042,-0.269596,-0.363739,-0.178228
35,65,-0.654498,-0.814493,-0.174533,-0.174533,-0.647708,-0.804864,-0.150284,-0.162651,-0.679042,-0.269596,-0.363739,-0.178228
35,65,-0.654498,-0.814493,-0.174533,-0.174533,-0.647708,-0.804864,-0.150284,-0.162651,-0.679042,-0.269596,-0.363739,-0.178228
35,65,-0.654498,-0.814493,-0.174533,-0.174533,-0.647708,-0.804864,-0.150284,-0.162651,-0.679042,-0.269596,-0.363739,-0.178228
35,65,-0.654498,-0.814493,-0.174533,-0.174533,-0.647708,-0.804864,-0.150284,-0.162651,-0.679042,-0.269596,-0.363739,-0.178228
35,65,-0.654498,-0.814493,-0.174533,-0.174533,-0.647708,-0.804864,-0.150284,-0.162651,-0.679042,-0.269596,-0.363739,-0.178228
35,65,-0.654498,-0.814493,-0.174533,-0.174533,-0.647708,-0.804864,-0.150284,-0.162651,-0.679042,-0.269596,-0.363739,-0.178228
35,65,-0.654498,-0.814493,-0.174533,-0.174533,-0.647708,-0.804864,-0.150284,-0.162651,-0.679042,-0.269596,-0.363739,-0.178228
35,65,-0.654498,-0.814493,-0.174533,-0.174533,-0.647708,-0.804864,-0.150284,-0.162651,-0.679042,-0.269596,-0.363739,-0.178228
35,65,-0.654498,-0.814493,-0.174533,-0.174533,-0.647708,-0.804864,-0.150284,-0.162651,-0.679042,-0.269596,-0.363739,-0.178228
35,65,-0.654498,-0.814493,-0.174533,-0.174533,-0.647708,-0.804864,-0.150284,-0.162651,-0.679042,-0.269596,-0.363739,-0.178228
35,65,-0.654498,-0.814493,-0.174533,-0.174533,-0.647708,-0.804864,-0.150284,-0.162651,-0.679042,-0.269596,-0.363739,-0.178228
35,65,-0.654498,-0.814493,-0.174533,-0.174533,-0.647708,-0.804864,-0.150347,-0.162692,-0.679042,-0.269596,-0.362788,-0.177608
35,65,-0.654498,-0.814493,-0.174533,-0.174533,-0.647708,-0.804864,-0.150347,-0.162692,-0.679042,-0.269596,-0.362788,-0.177608
35,65,-0.654498,-0.814493,-0.174533,-0.174533,-0.647708,-0.804864,-0.150347,-0.162692,-0.679042,-0.269596,-0.362788,-0.177608
35,65,-0.654498,-0.814493,-0.174533,-0.174533,-0.647708,-0.804864,-0.150347,-0.162692,-0.679042,-0.269596,-0.362788,-0.177608
35,65,-0.654498,-0.814493,-0.174533,-0.174533,-0.647708,-0.804864,-0.150347,-0.162692,-0.679042,-0.269596,-0.362788,-0.177608
35,65,-0.654498,-0.814493,-0.174533,-0.174533,-0.647708,-0.804864,-0.150347,-0.162692,-0.679042,-0.269596,-0.362788,-0.177608
35,65,-0.654498,-0.814493,-0.174533,-0.174533,-0.647708,-0.804864,-0.150347,-0.162692,-0.679042,-0.269596,-0.362788,-0.177608
35,65,-0.654498,-0.814493,-0.174533,-0.174533,-0.647708,-0.804864,-0.150347,-0.162692,-0.679042,-0.269596,-0.362788,-0.177608
35,65,-0.654498,-0.814493,-0.174533,-0.174533,-0.647708,-0.804864,-0.150347,-0.162692,-0.679042,-0.269596,-0.362788,-0.177608
35,65,-0.654498,-0.814493,-0.174533,-0.174533,-0.647708,-0.804864,-0.150347,-0.162692,-0.679042,-0.269596,-0.362788,-0.177608
35,65,-0.654498,-0.814493,-0.174533,-0.174533,-0.647708,-0.804864,-0.150347,-0.162692,-0.679042,-0.269596,-0.362788,-0.177608
35,65,-0.654498,-0.814493,-0.174533,-0.174533,-0.647708,-0.804864,-0.150347,-0.162692,-0.679042,-0.269596,-0.362788,-0.177608
35,65,-0.654498,-0.814493,-0.174533,-0.174533,-0.647708,-0.804864,-0.150347,-0.162692,-0.679042,-0.269596,-0.362788,-0.177608
35,65,-0.654498,-0.814493,-0.174533,-0.174533,-0.647708,-0.804864,-0.150347,-0.162692,-0.679042,-0.269596,-0.362788,-0.177608
35,65,-0.654498,-0.814493,-0.174533,-0.174533,-0.647708,-0.804864,-0.150347,-0.162692,-0.679042,-0.269596,-0.362788,-0.177608
35,65,-0.654498,-0.814493,-0.174533,-0.174533,-0.647708,-0.804864,-0.150347,-0.162692,-0.679042,-0.269596,-0.362788,-0.177608
35,65,-0.654498,-0.814493,-0.174533,-0.174533,-0.647708,-0.804864,-0.150347,-0.162692,-0.679042,-0.269596,-0.362788,-0.177608
35,65,-0.654498,-0.814493,-0.174533,-0.174533,-0.647708,-0.804864,-0.150347,-0.162692,-0.679042,-0.269596,-0.362788,-0.177608
35,65,-0.654498,-0.814493,-0.174533,-0.174533,-0.647708,-0.804864,-0.150347,-0.162692,-0.679042,-0.269596,-0.362788,-0.177608
35,65,-0.654498,-0.814493,-0.174533,-0.174533,-0.647708,-0.804864,-0.150347,-0.162692,-0.679042,-0.269596,-0.362788,-0.177608
35,65,-0.654498,-0.814493,-0.174533,-0.174533,-0.647708,-0.804864,-0.150347,-0.162692,-0.679042,-0.269596,-0.362788,-0.177608
35,65,-0.654498,-0.814493,-0.174533,-0.174533,-0.647708,-0.804864,-0.150347,-0.162692,-0.679042,-0.269596,-0.362788,-0.177608
35,65,-0.654498,-0.814493,-0.174533,-0.174533,-0.647708,-0.804864,-0.150347,-0.162692,-0.679042,-0.269596,-0.362788,-0.177608
35,65,-0.654498,-0.814493,-0.174533,-0.174533,-0.647708,-0.804864,-0.150347,-0.162692,-0.679042,-0.269596,-0.362788,-0.177608
35,65,-0.654498,-0.814493,-0.174533,-0.174533,-0.647708,-0.804864,-0.150347,-0.162692,-0.679042,-0.269596,-0.362788,-0.177608
35,65,-0.654498,-0.814493,-0.174533,-0.174533,-0.647708,-0.804864,-0.150347,-0.162692,-0.679042,-0.269596,-0.362788,-0.177608
35,65,-0.654498,-0.814493,-0.174533,-0.174533,-0.647708,-0.804864,-0.150347,-0.162692,-0.679042,-0.269596,-0.362788,-0.177608
35,65,-0.654498,-0.814493,-0.174533,-0.174533,-0.647708,-0.804864,-0.150347,-0.162692,-0.679042,-0.269596,-0.362788,-0.177608
35,65,-0.654498,-0.814493,-0.174533,-0.174533,-0.647708,-0.804864,-0.150347,-0.162692,-0.679042,-0.269596,-0.362788,-0.177608
35,65,-0.654498,-0.814493,-0.174533,-0.174533,-0.647708,-0.804864,-0.150347,-0.162692,-0.679042,-0.269596,-0.362788,-0.177608
35,65,-0.654498,-0.814493,-0.174533,-0.174533,-0.647708,-0.804864,-0.150347,-0.162692,-0.679042,-0.269596,-0.362788,-0.177608
35,65,-0.654498,-0.814493,-0.174533,-0.174533,-0.647708,-0.804864,-0.150347,-0.162692,-0.679042,-0.269596,-0.362788,-0.177608
35,65,-0.654498,-0.814493,-0.174533,-0.174533,-0.647708,-0.804864,-0.150347,-0.162692,-0.679042,-0.269596,-0.362788,-0.177608
35,65,-0.654498,-0.814493,-0.174533,-0.174533,-0.647708,-0.804864,-0.150347,-0.162692,-0.679042,-0.269596,-0.362788,-0.177608
35,65,-0.654498,-0.814493,-0.174533,-0.174533,-0.647708,-0.804864,-0.150347,-0.162692,-0.679042,-0.269596,-0.362788,-0.177608
35,65,-0.654498,-0.814493,-0.174533,-0.174533,-0.647708,-0.804864,-0.150288,-0.162712,-0.679042,-0.269596,-0.363679,-0.177308
35,65,-0.654498,-0.814493,-0.174533,-0.174533,-0.647708,-0.804864,-0.150288,-0.162712,-0.679042,-0.269596,-0.363679,-0.177308
35,65,-0.654498,-0.814493,-0.174533,-0.174533,-0.647708,-0.804864,-0.150288,-0.162712,-0.679042,-0.269596,-0.363679,-0.177308
35,65,-0.654498,-0.814493,-0.174533,-0.174533,-0.647708,-0.804864,-0.150288,-0.162712,-0.679042,-0.269596,-0.363679,-0.177308
35,65,-0.654498,-0.814493,-0.174533,-0.174533,-0.647708,-0.804864,-0.150288,-0.162712,-0.679042,-0.269596,-0.363679,-0.177308
35,65,-0.654498,-0.814493,-0.174533,-0.174533,-0.647708,-0.804864,-0.150288,-0.162712,-0.679042,-0.269596,-0.363679,-0.177308
35,65,-0.654498,-0.814493,-0.174533,-0.174533,-0.647708,-0.804864,-0.150288,-0.162712,-0.679042,-0.269596,-0.363679,-0.177308
35,65,-0.654498,-0.814493,-0.174533,-0.174533,-0.647708,-0.804864,-0.150288,-0.162712,-0.679042,-0.269596,-0.363679,-0.177308
35,65,-0.654498,-0.814493,-0.174533,-0.174533,-0.647708,-0.804864,-0.150288,-0.162712,-0.679042,-0.269596,-0.363679,-0.177308
35,65,-0.654498,-0.814493,-0.174533,-0.174533,-0.647708,-0.804864,-0.150288,-0.162712,-0.679042,-0.269596,-0.363679,-0.177308
35,65,-0.654498,-0.814493,-0.174533,-0.174533,-0.647708,-0.804864,-0.150288,-0.162712,-0.679042,-0.269596,-0.363679,-0.177308
35,65,-0.654498,-0.814493,-0.174533,-0.174533,-0.647708,-0.804864,-0.150288,-0.162712,-0.679042,-0.269596,-0.363679,-0.177308
35,65,-0.654498,-0.814493,-0.174533,-0.174533,-0.647708,-0.804864,-0.150288,-0.162712,-0.679042,-0.269596,-0.363679,-0.177308
35,65,-0.654498,-0.814493,-0.174533,-0.174533,-0.647708,-0.804864,-0.150288,-0.162712,-0.679042,-0.269596,-0.363679,-0.177308
35,65,-0.654498,-0.814493,-0.174533,-0.174533,-0.647708,-0.804864,-0.150288,-0.162712,-0.679042,-0.269596,-0.363679,-0.177308
35,65,-0.654498,-0.814493,-0.174533,-0.174533,-0.647708,-0.804864,-0.150288,-0.162712,-0.679042,-0.269596,-0.363679,-0.177308
35,65,-0.654498,-0.814493,-0.174533,-0.174533,-0.647708,-0.804864,-0.150288,-0.162712,-0.679042,-0.269596,-0.363679,-0.177308
35,65,-0.654498,-0.814493,-0.174533,-0.174533,-0.647708,-0.804864,-0.150288,-0.162712,-0.679042,-0.269596,-0.363679,-0.177308
35,65,-0.654498,-0.814493,-0.174533,-0.174533,-0.647708,-0.804864,-0.150288,-0.162712,-0.679042,-0.269596,-0.363679,-0.177308
35,65,-0.654498,-0.814493,-0.174533,-0.174533,-0.647708,-0.804864,-0.150288,-0.162712,-0.679042,-0.269596,-0.363679,-0.177308
35,65,-0.654498,-0.814493,-0.174533,-0.174533,-0.647708,-0.804864,-0.150288,-0.162712,-0.679042,-0.269596,-0.363679,-0.177308
35,65,-0.654498,-0.814493,-0.174533,-0.174533,-0.647708,-0.804864,-0.150288,-0.162712,-0.679042,-0.269596,-0.363679,-0.177308
35,65,-0.654498,-0.814493,-0.174533,-0.174533,-0.647708,-0.804864,-0.150288,-0.162712,-0.679042,-0.269596,-0.363679,-0.177308
35,65,-0.654498,-0.814493,-0.174533,-0.174533,-0.647708,-0.804864,-0.150288,-0.162712,-0.679042,-0.269596,-0.363679,-0.177308
35,65,-0.654498,-0.814493,-0.174533,-0.174533,-0.647708,-0.804864,-0.150288,-0.162712,-0.679042,-0.269596,-0.363679,-0.177308
35,65,-0.654498,-0.814493,-0.174533,-0.174533,-0.647708,-0.804864,-0.150288,-0.162712,-0.679042,-0.269596,-0.363679,-0.177308
35,65,-0.654498,-0.814493,-0.174533,-0.174533,-0.647708,-0.804864,-0.150288,-0.162712,-0.679042,-0.269596,-0.363679,-0.177308
35,65,-0.654498,-0.814493,-0.174533,-0.174533,-0.647708,-0.804864,-0.150288,-0.162712,-0.679042,-0.269596,-0.363679,-0.177308
35,65,-0.654498,-0.814493,-0.174533,-0.174533,-0.647708,-0.804864,-0.150288,-0.162712,-0.679042,-0.269596,-0.363679,-0.177308
35,65,-0.654498,-0.814493,-0.174533,-0.174533,-0.647708,-0.804864,-0.150288,-0.162712,-0.679042,-0.269596,-0.363679,-0.177308
35,65,-0.654498,-0.814493,-0.174533,-0.174533,-0.647708,-0.804864,-0.150288,-0.162712,-0.679042,-0.269596,-0.363679,-0.177308
35,65,-0.654498,-0.814493,-0.174533,-0.174533,-0.647708,-0.804864,-0.150288,-0.162712,-0.679042,-0.269596,-0.363679,-0.177308
35,65,-0.654498,-0.814493,-0.174533,-0.174533,-0.647708,-0.804864,-0.150288,-0.162712,-0.679042,-0.269596,-0.363679,-0.177308
35,65,-0.654498,-0.814493,-0.174533,-0.174533,-0.647708,-0.804864,-0.150288,-0.162712,-0.679042,-0.269596,-0.363679,-0.177308
35,65,-0.654498,-0.814493,-0.174533,-0.174533,-0.647708,-0.804864,-0.150288,-0.162712,-0.679042,-0.269596,-0.363679,-0.177308
35,65,-0.654498,-0.814493,-0.174533,-0.174533,-0.647708,-0.804864,-0.150288,-0.162712,-0.679042,-0.269596,-0.363679,-0.177308
35,65,-0.654498,-0.814493,-0.174533,-0.174533,-0.647708,-0.804864,-0.150288,-0.162712,-0.679042,-0.269596,-0.363679,-0.177308
35,65,-0.654498,-0.814493,-0.174533,-0.174533,-0.647708,-0.804864,-0.150288,-0.162712,-0.679042,-0.269596,-0.363679,-0.177308
35,65,-0.654498,-0.814493,-0.174533,-0.174533,-0.647708,-0.804864,-0.150288,-0.162712,-0.679042,-0.269596,-0.363679,-0.177308
35,65,-0.654498,-0.814493,-0.174533,-0.174533,-0.647708,-0.804864,-0.150288,-0.162712,-0.679042,-0.269596,-0.363679,-0.177308
35,65,-0.654498,-0.814493,-0.174533,-0.174533,-0.647708,-0.804864,-0.150288,-0.162712,-0.679042,-0.269596,-0.363679,-0.177308
35,65,-0.654498,-0.814493,-0.174533,-0.174533,-0.647708,-0.804864,-0.150288,-0.162712,-0.679042,-0.269596,-0.363679,-0.177308
35,65,-0.654498,-0.814493,-0.174533,-0.174533,-0.647708,-0.804864,-0.150288,-0.162712,-0.679042,-0.269596,-0.363679,-0.177308
35,65,-0.654498,-0.814493,-0.174533,-0.174533,-0.647708,-0.804864,-0.150288,-0.162712,-0.679042,-0.269596,-0.363679,-0.177308
35,65,-0.654498,-0.814493,-0.174533,-0.174533,-0.647708,-0.804864,-0.150288,-0.162712,-0.679042,-0.269596,-0.363679,-0.177308
35,65,-0.654498,-0.814493,-0.174533,-0.174533,-0.647708,-0.804864,-0.150288,-0.162712,-0.679042,-0.269596,-0.363679,-0.177308
35,65,-0.654498,-0.814493,-0.174533,-0.174533,-0.647708,-0.804864,-0.150288,-0.162712,-0.679042,-0.269596,-0.363679,-0.177308
35,65,-0.654498,-0.814493,-0.174533,-0.174533,-0.647708,-0.804864,-0.150288,-0.162712,-0.679042,-0.269596,-0.363679,-0.177308
35,65,-0.654498,-0.814493,-0.174533,-0.174533,-0.647708,-0.804864,-0.150288,-0.162712,-0.679042,-0.269596,-0.363679,-0.177308
35,65,-0.654498,-0.814493,-0.174533,-0.174533,-0.647708,-0.804864,-0.150288,-0.162712,-0.679042,-0.269596,-0.363679,-0.177308
35,65,-0.654498,-0.814493,-0.174533,-0.174533,-0.647708,-0.804864,-0.150288,-0.162712,-0.679042,-0.269596,-0.363679,-0.177308
35,65,-0.654498,-0.814493,-0.174533,-0.174533,-0.647708,-0.804864,-0.150288,-0.162712,-0.679042,-0.269596,-0.363679,-0.177308
35,65,-0.654498,-0.814493,-0.174533,-0.174533,-0.647708,-0.804864,-0.150288,-0.162712,-0.679042,-0.269596,-0.363679,-0.177308
35,65,-0.654498,-0.814493,-0.174533,-0.174533,-0.647708,-0.804864,-0.150351,-0.162754,-0.679042,-0.269596,-0.362728,-0.176688
35,65,-0.654498,-0.814493,-0.174533,-0.174533,-0.647708,-0.804864,-0.150351,-0.162754,-0.679042,-0.269596,-0.362728,-0.176688
35,65,-0.654498,-0.814493,-0.174533,-0.174533,-0.647708,-0.804864,-0.150351,-0.162754,-0.679042,-0.269596,-0.362728,-0.176688
35,65,-0.654498,-0.814493,-0.174533,-0.174533,-0.647708,-0.804864,-0.150351,-0.162754,-0.679042,-0.269596,-0.362728,-0.176688
35,65,-0.654498,-0.814493,-0.174533,-0.174533,-0.647708,-0.804864,-0.150351,-0.162754,-0.679042,-0.269596,-0.362728,-0.176688
35,65,-0.654498,-0.814493,-0.174533,-0.174533,-0.647708,-0.804864,-0.150351,-0.162754,-0.679042,-0.269596,-0.362728,-0.176688
35,65,-0.654498,-0.814493,-0.174533,-0.174533,-0.647708,-0.804864,-0.150351,-0.162754,-0.679042,-0.269596,-0.362728,-0.176688
35,65,-0.654498,-0.814493,-0.174533,-0.174533,-0.647708,-0.804864,-0.150351,-0.162754,-0.679042,-0.269596,-0.362728,-0.176688
35,65,-0.654498,-0.814493,-0.174533,-0.174533,-0.647708,-0.804864,-0.150351,-0.162754,-0.679042,-0.269596,-0.362728,-0.176688
35,65,-0.654498,-0.814493,-0.174533,-0.174533,-0.647708,-0.804864,-0.150351,-0.162754,-0.679042,-0.269596,-0.362728,-0.176688
35,65,-0.654498,-0.814493,-0.174533,-0.174533,-0.647708,-0.804864,-0.150351,-0.162754,-0.679042,-0.269596,-0.362728,-0.176688
35,65,-0.654498,-0.814493,-0.174533,-0.174533,-0.647708,-0.804864,-0.150351,-0.162754,-0.679042,-0.269596,-0.362728,-0.176688
35,65,-0.654498,-0.814493,-0.174533,-0.174533,-0.647708,-0.804864,-0.150351,-0.162754,-0.679042,-0.269596,-0.362728,-0.176688
35,65,-0.654498,-0.814493,-0.174533,-0.174533,-0.647708,-0.804864,-0.150351,-0.162754,-0.679042,-0.269596,-0.362728,-0.176688
35,65,-0.654498,-0.814493,-0.174533,-0.174533,-0.647708,-0.804864,-0.150351,-0.162754,-0.679042,-0.269596,-0.362728,-0.176688
35,65,-0.654498,-0.814493,-0.174533,-0.174533,-0.647708,-0.804864,-0.150351,-0.162754,-0.679042,-0.269596,-0.362728,-0.176688
35,65,-0.654498,-0.814493,-0.174533,-0.174533,-0.647708,-0.804864,-0.150351,-0.162754,-0.679042,-0.269596,-0.362728,-0.176688
35,65,-0.654498,-0.814493,-0.174533,-0.174533,-0.647708,-0.804864,-0.150351,-0.162754,-0.679042,-0.269596,-0.362728,-0.176688
35,65,-0.654498,-0.814493,-0.174533,-0.174533,-0.647708,-0.804864,-0.150351,-0.162754,-0.679042,-0.269596,-0.362728,-0.176688
35,65,-0.654498,-0.814493,-0.174533,-0.174533,-0.647708,-0.804864,-0.150351,-0.162754,-0.679042,-0.269596,-0.362728,-0.176688
35,65,-0.654498,-0.814493,-0.174533,-0.174533,-0.647708,-0.804864,-0.150351,-0.162754,-0.679042,-0.269596,-0.362728,-0.176688
35,65,-0.654498,-0.814493,-0.174533,-0.174533,-0.647708,-0.804864,-0.150351,-0.162754,-0.679042,-0.269596,-0.362728,-0.176688
35,65,-0.654498,-0.814493,-0.174533,-0.174533,-0.647708,-0.804864,-0.150351,-0.162754,-0.679042,-0.269596,-0.362728,-0.176688
35,65,-0.654498,-0.814493,-0.174533,-0.174533,-0.647708,-0.804864,-0.150351,-0.162754,-0.679042,-0.269596,-0.362728,-0.176688
35,65,-0.654498,-0.814493,-0.174533,-0.174533,-0.647708,-0.804864,-0.150351,-0.162754,-0.679042,-0.269596,-0.362728,-0.176688
35,65,-0.654498,-0.814493,-0.174533,-0.174533,-0.647708,-0.804864,-0.150351,-0.162754,-0.679042,-0.269596,-0.362728,-0.176688
35,65,-0.654498,-0.814493,-0.174533,-0.174533,-0.647708,-0.804864,-0.150351,-0.162754,-0.679042,-0.269596,-0.362728,-0.176688
35,65,-0.654498,-0.814493,-0.174533,-0.174533,-0.647708,-0.804864,-0.150351,-0.162754,-0.679042,-0.269596,-0.362728,-0.176688
35,65,-0.654498,-0.814493,-0.174533,-0.174533,-0.647708,-0.804864,-0.150351,-0.162754,-0.679042,-0.269596,-0.362728,-0.176688
35,65,-0.654498,-0.814493,-0.174533,-0.174533,-0.647708,-0.804864,-0.150351,-0.162754,-0.679042,-0.269596,-0.362728,-0.176688
35,65,-0.654498,-0.814493,-0.174533,-0.174533,-0.647708,-0.804864,-0.150351,-0.162754,-0.679042,-0.269596,-0.362728,-0.176688
35,65,-0.654498,-0.814493,-0.174533,-0.174533,-0.647708,-0.804864,-0.150351,-0.162754,-0.679042,-0.269596,-0.362728,-0.176688
35,65,-0.654498,-0.814493,-0.174533,-0.174533,-0.647708,-0.804864,-0.150351,-0.162754,-0.679042,-0.269596,-0.362728,-0.176688
35,65,-0.654498,-0.814493,-0.174533,-0.174533,-0.647708,-0.804864,-0.150351,-0.162754,-0.679042,-0.269596,-0.362728,-0.176688
35,65,-0.654498,-0.814493,-0.174533,-0.174533,-0.647708,-0.804864,-0.150351,-0.162754,-0.679042,-0.269596,-0.362728,-0.176688
35,65,-0.654498,-0.814493,-0.174533,-0.174533,-0.647708,-0.804864,-0.150351,-0.162754,-0.679042,-0.269596,-0.362728,-0.176688
35,65,-0.654498,-0.814493,-0.174533,-0.174533,-0.647708,-0.804864,-0.150351,-0.162754,-0.679042,-0.269596,-0.362728,-0.176688
35,65,-0.654498,-0.814493,-0.174533,-0.174533,-0.647708,-0.804864,-0.150351,-0.162754,-0.679042,-0.269596,-0.362728,-0.176688
35,65,-0.654498,-0.814493,-0.174533,-0.174533,-0.647708,-0.804864,-0.150351,-0.162754,-0.679042,-0.269596,-0.362728,-0.176688
35,65,-0.654498,-0.814493,-0.174533,-0.174533,-0.647708,-0.804864,-0.150351,-0.162754,-0.679042,-0.269596,-0.362728,-0.176688
35,65,-0.654498,-0.814493,-0.174533,-0.174533,-0.647708,-0.804864,-0.150351,-0.162754,-0.679042,-0.269596,-0.362728,-0.176688
35,65,-0.654498,-0.814493,-0.174533,-0.174533,-0.647708,-0.804864,-0.150351,-0.162754,-0.679042,-0.269596,-0.362728,-0.176688
35,65,-0.654498,-0.814493,-0.174533,-0.174533,-0.647708,-0.804864,-0.150351,-0.162754,-0.679042,-0.269596,-0.362728,-0.176688
35,65,-0.654498,-0.814493,-0.174533,-0.174533,-0.647708,-0.804864,-0.150351,-0.162754,-0.679042,-0.269596,-0.362728,-0.176688
35,65,-0.654498,-0.814493,-0.174533,-0.174533,-0.647708,-0.804864,-0.150351,-0.162754,-0.679042,-0.269596,-0.362728,-0.176688
35,65,-0.654498,-0.814493,-0.174533,-0.174533,-0.647708,-0.804864,-0.150351,-0.162754,-0.679042,-0.269596,-0.362728,-0.176688
35,65,-0.654498,-0.814493,-0.174533,-0.174533,-0.647708,-0.804864,-0.150351,-0.162754,-0.679042,-0.269596,-0.362728,-0.176688
35,65,-0.654498,-0.814493,-0.174533,-0.174533,-0.647708,-0.804864,-0.150351,-0.162754,-0.679042,-0.269596,-0.362728,-0.176688
35,65,-0.654498,-0.814493,-0.174533,-0.174533,-0.647708,-0.804864,-0.150351,-0.162754,-0.679042,-0.269596,-0.362728,-0.176688
35,65,-0.654498,-0.814493,-0.174533,-0.174533,-0.647708,-0.804864,-0.150351,-0.162754,-0.679042,-0.269596,-0.362728,-0.176688
35,65,-0.654498,-0.814493,-0.174533,-0.174533,-0.647708,-0.804864,-0.150351,-0.162754,-0.679042,-0.269596,-0.362728,-0.176688
35,65,-0.654498,-0.814493,-0.174533,-0.174533,-0.647708,-0.804864,-0.150351,-0.162754,-0.679042,-0.269596,-0.362728,-0.176688
35,65,-0.654498,-0.814493,-0.174533,-0.174533,-0.647708,-0.804864,-0.150351,-0.162754,-0.679042,-0.269596,-0.362728,-0.176688
35,65,-0.654498,-0.814493,-0.174533,-0.174533,-0.647708,-0.804864,-0.150351,-0.162754,-0.679042,-0.269596,-0.362728,-0.176688
35,65,-0.654498,-0.814493,-0.174533,-0.174533,-0.647708,-0.804864,-0.150351,-0.162754,-0.679042,-0.269596,-0.362728,-0.176688
35,65,-0.654498,-0.814493,-0.174533,-0.174533,-0.647708,-0.804864,-0.150351,-0.162754,-0.679042,-0.269596,-0.362728,-0.176688
35,65,-0.654498,-0.814493,-0.174533,-0.174533,-0.647708,-0.804915,-0.150351,-0.162754,-0.679042,-0.268172,-0.362728,-0.176688
35,65,-0.654498,-0.814493,-0.174533,-0.174533,-0.647708,-0.804915,-0.150351,-0.162754,-0.679042,-0.268172,-0.362728,-0.176688
35,65,-0.654498,-0.814493,-0.174533,-0.174533,-0.647708,-0.804915,-0.150351,-0.162754,-0.679042,-0.268172,-0.362728,-0.176688
35,65,-0.654498,-0.814493,-0.174533,-0.174533,-0.647708,-0.804915,-0.150351,-0.162754,-0.679042,-0.268172,-0.362728,-0.176688
35,65,-0.654498,-0.814493,-0.174533,-0.174533,-0.647708,-0.804915,-0.150351,-0.162754,-0.679042,-0.268172,-0.362728,-0.176688
35,65,-0.654498,-0.814493,-0.174533,-0.174533,-0.647708,-0.804915,-0.150351,-0.162754,-0.679042,-0.268172,-0.362728,-0.176688
35,65,-0.654498,-0.814493,-0.174533,-0.174533,-0.647708,-0.804915,-0.150351,-0.162754,-0.679042,-0.268172,-0.362728,-0.176688
35,65,-0.654498,-0.814493,-0.174533,-0.174533,-0.647708,-0.804915,-0.150351,-0.162754,-0.679042,-0.268172,-0.362728,-0.176688
35,65,-0.654498,-0.814493,-0.174533,-0.174533,-0.647708,-0.804915,-0.150351,-0.162754,-0.679042,-0.268172,-0.362728,-0.176688
35,65,-0.654498,-0.814493,-0.174533,-0.174533,-0.647708,-0.804915,-0.150351,-0.162754,-0.679042,-0.268172,-0.362728,-0.176688
35,65,-0.654498,-0.814493,-0.174533,-0.174533,-0.647708,-0.804915,-0.150351,-0.162754,-0.679042,-0.268172,-0.362728,-0.176688
35,65,-0.654498,-0.814493,-0.174533,-0.174533,-0.647708,-0.804915,-0.150351,-0.162754,-0.679042,-0.268172,-0.362728,-0.176688
35,65,-0.654498,-0.814493,-0.174533,-0.174533,-0.647708,-0.804915,-0.150351,-0.162754,-0.679042,-0.268172,-0.362728,-0.176688
35,65,-0.654498,-0.814493,-0.174533,-0.174533,-0.647708,-0.804915,-0.150351,-0.162754,-0.679042,-0.268172,-0.362728,-0.176688
35,65,-0.654498,-0.814493,-0.174533,-0.174533,-0.647708,-0.804915,-0.150351,-0.162754,-0.679042,-0.268172,-0.362728,-0.176688
35,65,-0.654498,-0.814493,-0.174533,-0.174533,-0.647708,-0.804915,-0.150351,-0.162754,-0.679042,-0.268172,-0.362728,-0.176688
35,65,-0.654498,-0.814493,-0.174533,-0.174533,-0.647708,-0.804915,-0.150351,-0.162754,-0.679042,-0.268172,-0.362728,-0.176688
35,65,-0.654498,-0.814493,-0.174533,-0.174533,-0.647708,-0.804915,-0.150351,-0.162754,-0.679042,-0.268172,-0.362728,-0.176688
35,65,-0.654498,-0.814493,-0.174533,-0.174533,-0.647708,-0.804915,-0.150351,-0.162754,-0.679042,-0.268172,-0.362728,-0.176688
35,65,-0.654498,-0.814493,-0.174533,-0.174533,-0.647708,-0.804915,-0.150351,-0.162754,-0.679042,-0.268172,-0.362728,-0.176688
35,65,-0.654498,-0.814493,-0.174533,-0.174533,-0.647708,-0.804915,-0.150351,-0.162754,-0.679042,-0.268172,-0.362728,-0.176688
35,65,-0.654498,-0.814493,-0.174533,-0.174533,-0.647708,-0.804915,-0.150351,-0.162754,-0.679042,-0.268172,-0.362728,-0.176688
35,65,-0.654498,-0.814493,-0.174533,-0.174533,-0.647708,-0.804915,-0.150351,-0.162754,-0.679042,-0.268172,-0.362728,-0.176688
35,65,-0.654498,-0.814493,-0.174533,-0.174533,-0.647708,-0.804915,-0.150351,-0.162754,-0.679042,-0.268172,-0.362728,-0.176688
35,65,-0.654498,-0.814493,-0.174533,-0.174533,-0.647708,-0.804915,-0.150351,-0.162754,-0.679042,-0.268172,-0.362728,-0.176688
35,65,-0.654498,-0.814493,-0.174533,-0.174533,-0.647708,-0.804915,-0.150351,-0.162754,-0.679042,-0.268172,-0.362728,-0.176688
35,65,-0.654498,-0.814493,-0.174533,-0.174533,-0.647708,-0.804915,-0.150351,-0.162754,-0.679042,-0.268172,-0.362728,-0.176688
35,65,-0.654498,-0.814493,-0.174533,-0.174533,-0.647708,-0.804915,-0.150351,-0.162754,-0.679042,-0.268172,-0.362728,-0.176688
35,65,-0.654498,-0.814493,-0.174533,-0.174533,-0.647708,-0.804915,-0.150351,-0.162754,-0.679042,-0.268172,-0.362728,-0.176688
35,65,-0.654498,-0.814493,-0.174533,-0.174533,-0.647708,-0.804915,-0.150351,-0.162754,-0.679042,-0.268172,-0.362728,-0.176688
35,65,-0.654498,-0.814493,-0.174533,-0.174533,-0.647708,-0.804915,-0.150351,-0.162754,-0.679042,-0.268172,-0.362728,-0.176688
35,65,-0.654498,-0.814493,-0.174533,-0.174533,-0.647708,-0.804915,-0.150351,-0.162754,-0.679042,-0.268172,-0.362728,-0.176688
35,65,-0.654498,-0.814493,-0.174533,-0.174533,-0.647708,-0.804915,-0.150351,-0.162754,-0.679042,-0.268172,-0.362728,-0.176688
35,65,-0.654498,-0.814493,-0.174533,-0.174533,-0.647708,-0.804915,-0.150351,-0.162754,-0.679042,-0.268172,-0.362728,-0.176688
35,65,-0.654498,-0.814493,-0.174533,-0.174533,-0.647708,-0.804915,-0.150351,-0.162754,-0.679042,-0.268172,-0.362728,-0.176688
35,65,-0.654498,-0.814493,-0.174533,-0.174533,-0.647708,-0.804915,-0.150351,-0.162754,-0.679042,-0.268172,-0.362728,-0.176688
35,65,-0.654498,-0.814493,-0.174533,-0.174533,-0.647708,-0.804915,-0.150351,-0.162754,-0.679042,-0.268172,-0.362728,-0.176688
35,65,-0.654498,-0.814493,-0.174533,-0.174533,-0.647708,-0.804915,-0.150351,-0.162754,-0.679042,-0.268172,-0.362728,-0.176688
35,65,-0.654498,-0.814493,-0.174533,-0.174533,-0.647708,-0.804915,-0.150351,-0.162754,-0.679042,-0.268172,-0.362728,-0.176688
35,65,-0.654498,-0.814493,-0.174533,-0.174533,-0.647708,-0.804915,-0.150351,-0.162754,-0.679042,-0.268172,-0.362728,-0.176688
35,65,-0.654498,-0.814493,-0.174533,-0.174533,-0.647708,-0.804915,-0.150351,-0.162754,-0.679042,-0.268172,-0.362728,-0.176688
35,65,-0.654498,-0.814493,-0.174533,-0.174533,-0.647708,-0.804915,-0.150351,-0.162754,-0.679042,-0.268172,-0.362728,-0.176688
35,65,-0.654498,-0.814493,-0.174533,-0.174533,-0.647708,-0.804915,-0.150351,-0.162754,-0.679042,-0.268172,-0.362728,-0.176688
35,65,-0.654498,-0.814493,-0.174533,-0.174533,-0.647708,-0.804915,-0.150351,-0.162754,-0.679042,-0.268172,-0.362728,-0.176688
35,65,-0.654498,-0.814493,-0.174533,-0.174533,-0.647708,-0.804915,-0.150351,-0.162754,-0.679042,-0.268172,-0.362728,-0.176688
35,65,-0.654498,-0.814493,-0.174533,-0.174533,-0.647708,-0.804915,-0.150351,-0.162754,-0.679042,-0.268172,-0.362728,-0.176688
35,65,-0.654498,-0.814493,-0.174533,-0.174533,-0.647708,-0.804915,-0.150351,-0.162754,-0.679042,-0.268172,-0.362728,-0.176688
35,65,-0.654498,-0.814493,-0.174533,-0.174533,-0.647708,-0.804915,-0.150351,-0.162754,-0.679042,-0.268172,-0.362728,-0.176688
35,65,-0.654498,-0.814493,-0.174533,-0.174533,-0.647708,-0.804915,-0.150351,-0.162754,-0.679042,-0.268172,-0.362728,-0.176688
35,65,-0.654498,-0.814493,-0.174533,-0.174533,-0.647708,-0.804915,-0.150351,-0.162754,-0.679042,-0.268172,-0.362728,-0.176688
35,65,-0.654498,-0.814493,-0.174533,-0.174533,-0.647708,-0.804915,-0.150351,-0.162754,-0.679042,-0.268172,-0.362728,-0.176688
35,65,-0.654498,-0.814493,-0.174533,-0.174533,-0.647708,-0.804915,-0.150351,-0.162754,-0.679042,-0.268172,-0.362728,-0.176688
35,65,-0.654498,-0.814493,-0.174533,-0.174533,-0.647708,-0.804915,-0.150351,-0.162754,-0.679042,-0.268172,-0.362728,-0.176688
35,65,-0.654498,-0.814493,-0.174533,-0.174533,-0.647708,-0.804915,-0.150351,-0.162754,-0.679042,-0.268172,-0.362728,-0.176688
35,65,-0.654498,-0.814493,-0.174533,-0.174533,-0.647708,-0.804915,-0.150351,-0.162754,-0.679042,-0.268172,-0.362728,-0.176688
35,65,-0.654498,-0.814493,-0.174533,-0.174533,-0.647708,-0.804915,-0.150351,-0.162754,-0.679042,-0.268172,-0.362728,-0.176688
35,65,-0.654498,-0.814493,-0.174533,-0.174533,-0.647708,-0.804915,-0.150351,-0.162754,-0.679042,-0.268172,-0.362728,-0.176688
35,65,-0.654498,-0.814493,-0.174533,-0.174533,-0.647708,-0.804915,-0.150351,-0.162754,-0.679042,-0.268172,-0.362728,-0.176688
35,65,-0.654498,-0.814493,-0.174533,-0.174533,-0.647708,-0.804915,-0.150351,-0.162754,-0.679042,-0.268172,-0.362728,-0.176688
35,65,-0.654498,-0.814493,-0.174533,-0.174533,-0.647708,-0.804915,-0.150351,-0.162754,-0.679042,-0.268172,-0.362728,-0.176688
35,65,-0.654498,-0.814493,-0.174533,-0.174533,-0.647708,-0.804915,-0.150351,-0.162754,-0.679042,-0.268172,-0.362728,-0.176688
35,65,-0.654498,-0.814493,-0.174533,-0.174533,-0.647708,-0.804915,-0.150351,-0.162754,-0.679042,-0.268172,-0.362728,-0.176688
35,65,-0.654498,-0.814493,-0.174533,-0.174533,-0.647708,-0.804915,-0.150351,-0.162754,-0.679042,-0.268172,-0.362728,-0.176688
35,65,-0.654498,-0.814493,-0.174533,-0.174533,-0.647708,-0.804915,-0.150351,-0.162754,-0.679042,-0.268172,-0.362728,-0.176688
35,65,-0.654498,-0.814493,-0.174533,-0.174533,-0.647708,-0.804915,-0.150351,-0.162754,-0.679042,-0.268172,-0.362728,-0.176688
35,65,-0.654498,-0.814493,-0.174533,-0.174533,-0.647708,-0.804915,-0.150351,-0.162754,-0.679042,-0.268172,-0.362728,-0.176688
35,65,-0.654498,-0.814493,-0.174533,-0.174533,-0.647708,-0.804915,-0.150351,-0.162754,-0.679042,-0.268172,-0.362728,-0.176688
35,65,-0.654498,-0.814493,-0.174533,-0.174533,-0.647708,-0.804915,-0.150351,-0.162754,-0.679042,-0.268172,-0.362728,-0.176688
35,65,-0.654498,-0.814493,-0.174533,-0.174533,-0.647708,-0.804915,-0.150351,-0.162754,-0.679042,-0.268172,-0.362728,-0.176688
35,65,-0.654498,-0.814493,-0.174533,-0.174533,-0.647708,-0.804915,-0.150351,-0.162754,-0.679042,-0.268172,-0.362728,-0.176688
35,65,-0.654498,-0.814493,-0.174533,-0.174533,-0.647708,-0.804915,-0.150351,-0.162754,-0.679042,-0.268172,-0.362728,-0.176688
35,65,-0.654498,-0.814493,-0.174533,-0.174533,-0.647708,-0.804915,-0.150351,-0.162754,-0.679042,-0.268172,-0.362728,-0.176688
35,65,-0.654498,-0.814493,-0.174533,-0.174533,-0.647708,-0.804915,-0.150351,-0.162754,-0.679042,-0.268172,-0.362728,-0.176688
35,65,-0.654498,-0.814493,-0.174533,-0.174533,-0.647708,-0.804915,-0.150351,-0.162754,-0.679042,-0.268172,-0.362728,-0.176688
35,65,-0.654498,-0.814493,-0.174533,-0.174533,-0.647708,-0.804915,-0.150351,-0.162754,-0.679042,-0.268172,-0.362728,-0.176688
35,65,-0.654498,-0.814493,-0.174533,-0.174533,-0.647708,-0.804915,-0.150351,-0.162754,-0.679042,-0.268172,-0.362728,-0.176688
35,65,-0.654498,-0.814493,-0.174533,-0.174533,-0.647708,-0.804915,-0.150351,-0.162754,-0.679042,-0.268172,-0.362728,-0.176688
35,65,-0.654498,-0.814493,-0.174533,-0.174533,-0.647708,-0.804915,-0.150351,-0.162754,-0.679042,-0.268172,-0.362728,-0.176688
35,65,-0.654498,-0.814493,-0.174533,-0.174533,-0.647708,-0.804915,-0.150351,-0.162754,-0.679042,-0.268172,-0.362728,-0.176688
35,65,-0.654498,-0.814493,-0.174533,-0.174533,-0.647708,-0.804915,-0.150351,-0.162754,-0.679042,-0.268172,-0.362728,-0.176688
35,65,-0.654498,-0.814493,-0.174533,-0.174533,-0.647708,-0.804915,-0.150351,-0.162754,-0.679042,-0.268172,-0.362728,-0.176688
35,65,-0.654498,-0.814493,-0.174533,-0.174533,-0.647708,-0.804915,-0.150351,-0.162754,-0.679042,-0.268172,-0.362728,-0.176688
35,65,-0.654498,-0.814493,-0.174533,-0.174533,-0.647708,-0.804915,-0.150351,-0.162754,-0.679042,-0.268172,-0.362728,-0.176688
35,65,-0.654498,-0.814493,-0.174533,-0.174533,-0.647708,-0.804915,-0.150351,-0.162754,-0.679042,-0.268172,-0.362728,-0.176688
35,65,-0.654498,-0.814493,-0.174533,-0.174533,-0.647708,-0.804915,-0.150351,-0.162754,-0.679042,-0.268172,-0.362728,-0.176688
35,65,-0.654498,-0.814493,-0.174533,-0.174533,-0.647708,-0.804915,-0.150351,-0.162754,-0.679042,-0.268172,-0.362728,-0.176688
35,65,-0.654498,-0.814493,-0.174533,-0.174533,-0.647708,-0.804915,-0.150351,-0.162754,-0.679042,-0.268172,-0.362728,-0.176688
35,65,-0.654498,-0.814493,-0.174533,-0.174533,-0.647708,-0.804915,-0.150351,-0.162754,-0.679042,-0.268172,-0.362728,-0.176688
35,65,-0.654498,-0.814493,-0.174533,-0.174533,-0.647708,-0.804915,-0.150351,-0.162754,-0.679042,-0.268172,-0.362728,-0.176688
35,65,-0.654498,-0.814493,-0.174533,-0.174533,-0.647708,-0.804915,-0.150351,-0.162754,-0.679042,-0.268172,-0.362728,-0.176688
35,65,-0.654498,-0.814493,-0.174533,-0.174533,-0.647708,-0.804915,-0.150351,-0.162754,-0.679042,-0.268172,-0.362728,-0.176688
35,65,-0.654498,-0.814493,-0.174533,-0.174533,-0.647708,-0.804915,-0.150351,-0.162754,-0.679042,-0.268172,-0.362728,-0.176688
35,65,-0.654498,-0.814493,-0.174533,-0.174533,-0.647708,-0.804915,-0.150351,-0.162754,-0.679042,-0.268172,-0.362728,-0.176688
35,65,-0.654498,-0.814493,-0.174533,-0.174533,-0.647708,-0.804915,-0.150351,-0.162754,-0.679042,-0.268172,-0.362728,-0.176688
35,65,-0.654498,-0.814493,-0.174533,-0.174533,-0.647708,-0.804915,-0.150351,-0.162754,-0.679042,-0.268172,-0.362728,-0.176688
35,65,-0.654498,-0.814493,-0.174533,-0.174533,-0.647708,-0.804915,-0.150351,-0.162754,-0.679042,-0.268172,-0.362728,-0.176688
35,65,-0.654498,-0.814493,-0.174533,-0.174533,-0.647708,-0.804915,-0.150351,-0.162754,-0.679042,-0.268172,-0.362728,-0.176688
35,65,-0.654498,-0.814493,-0.174533,-0.174533,-0.647708,-0.804915,-0.150351,-0.162754,-0.679042,-0.268172,-0.362728,-0.176688
35,65,-0.654498,-0.814493,-0.174533,-0.174533,-0.647708,-0.804915,-0.150351,-0.162754,-0.679042,-0.268172,-0.362728,-0.176688
35,65,-0.654498,-0.814493,-0.174533,-0.174533,-0.647708,-0.804915,-0.150351,-0.162754,-0.679042,-0.268172,-0.362728,-0.176688
35,65,-0.654498,-0.814493,-0.174533,-0.174533,-0.647708,-0.804915,-0.150351,-0.162754,-0.679042,-0.268172,-0.362728,-0.176688
35,65,-0.654498,-0.814493,-0.174533,-0.174533,-0.647708,-0.804915,-0.150351,-0.162754,-0.679042,-0.268172,-0.362728,-0.176688
35,65,-0.654498,-0.814493,-0.174533,-0.174533,-0.647708,-0.804915,-0.150351,-0.162754,-0.679042,-0.268172,-0.362728,-0.176688
35,65,-0.654498,-0.814493,-0.174533,-0.174533,-0.647708,-0.804915,-0.150351,-0.162754,-0.679042,-0.268172,-0.362728,-0.176688
35,65,-0.654498,-0.814493,-0.174533,-0.174533,-0.647708,-0.804915,-0.150351,-0.162754,-0.679042,-0.268172,-0.362728,-0.176688
35,65,-0.654498,-0.814493,-0.174533,-0.174533,-0.647708,-0.804915,-0.150351,-0.162754,-0.679042,-0.268172,-0.362728,-0.176688
35,65,-0.654498,-0.814493,-0.174533,-0.174533,-0.647708,-0.804915,-0.150351,-0.162754,-0.679042,-0.268172,-0.362728,-0.176688
35,65,-0.654498,-0.814493,-0.174533,-0.174533,-0.647708,-0.804915,-0.150351,-0.162754,-0.679042,-0.268172,-0.362728,-0.176688
35,65,-0.654498,-0.814493,-0.174533,-0.174533,-0.647708,-0.804915,-0.150351,-0.162754,-0.679042,-0.268172,-0.362728,-0.176688
35,65,-0.654498,-0.814493,-0.174533,-0.174533,-0.647708,-0.804915,-0.150351,-0.162754,-0.679042,-0.268172,-0.362728,-0.176688
35,65,-0.654498,-0.814493,-0.174533,-0.174533,-0.647708,-0.804915,-0.150351,-0.162754,-0.679042,-0.268172,-0.362728,-0.176688
35,65,-0.654498,-0.814493,-0.174533,-0.174533,-0.647708,-0.804915,-0.150351,-0.162754,-0.679042,-0.268172,-0.362728,-0.176688
35,65,-0.654498,-0.814493,-0.174533,-0.174533,-0.647708,-0.804915,-0.150351,-0.162754,-0.679042,-0.268172,-0.362728,-0.176688
35,65,-0.654498,-0.814493,-0.174533,-0.174533,-0.647708,-0.804915,-0.150351,-0.162754,-0.679042,-0.268172,-0.362728,-0.176688
35,65,-0.654498,-0.814493,-0.174533,-0.174533,-0.647708,-0.804915,-0.150351,-0.162754,-0.679042,-0.268172,-0.362728,-0.176688
35,65,-0.654498,-0.814493,-0.174533,-0.174533,-0.647708,-0.804915,-0.150351,-0.162754,-0.679042,-0.268172,-0.362728,-0.176688
35,65,-0.654498,-0.814493,-0.174533,-0.174533,-0.647708,-0.804915,-0.150351,-0.162754,-0.679042,-0.268172,-0.362728,-0.176688
35,65,-0.654498,-0.814493,-0.174533,-0.174533,-0.647708,-0.804915,-0.150351,-0.162754,-0.679042,-0.268172,-0.362728,-0.176688
35,65,-0.654498,-0.814493,-0.174533,-0.174533,-0.647708,-0.804915,-0.150351,-0.162754,-0.679042,-0.268172,-0.362728,-0.176688
35,65,-0.654498,-0.814493,-0.174533,-0.174533,-0.647708,-0.804915,-0.150351,-0.162754,-0.679042,-0.268172,-0.362728,-0.176688
35,65,-0.654498,-0.814493,-0.174533,-0.174533,-0.647708,-0.804915,-0.150351,-0.162754,-0.679042,-0.268172,-0.362728,-0.176688
35,65,-0.654498,-0.814493,-0.174533,-0.174533,-0.647708,-0.804915,-0.150351,-0.162754,-0.679042,-0.268172,-0.362728,-0.176688
35,65,-0.654498,-0.814493,-0.174533,-0.174533,-0.647708,-0.804915,-0.150351,-0.162754,-0.679042,-0.268172,-0.362728,-0.176688
35,65,-0.654498,-0.814493,-0.174533,-0.174533,-0.647708,-0.804915,-0.150351,-0.162754,-0.679042,-0.268172,-0.362728,-0.176688
35,65,-0.654498,-0.814493,-0.174533,-0.174533,-0.647708,-0.804915,-0.150351,-0.162754,-0.679042,-0.268172,-0.362728,-0.176688
35,65,-0.654498,-0.814493,-0.174533,-0.174533,-0.647708,-0.804915,-0.150351,-0.162754,-0.679042,-0.268172,-0.362728,-0.176688
35,65,-0.654498,-0.814493,-0.174533,-0.174533,-0.647708,-0.804915,-0.150351,-0.162754,-0.679042,-0.268172,-0.362728,-0.176688
35,65,-0.654498,-0.814493,-0.174533,-0.174533,-0.647708,-0.804915,-0.150351,-0.162754,-0.679042,-0.268172,-0.362728,-0.176688
35,65,-0.654498,-0.814493,-0.174533,-0.174533,-0.647708,-0.804915,-0.150351,-0.162754,-0.679042,-0.268172,-0.362728,-0.176688
35,65,-0.654498,-0.814493,-0.174533,-0.174533,-0.647708,-0.804915,-0.150351,-0.162754,-0.679042,-0.268172,-0.362728,-0.176688
35,65,-0.654498,-0.814493,-0.174533,-0.174533,-0.647708,-0.804915,-0.150351,-0.162754,-0.679042,-0.268172,-0.362728,-0.176688
35,65,-0.654498,-0.814493,-0.174533,-0.174533,-0.647708,-0.804915,-0.150351,-0.162754,-0.679042,-0.268172,-0.362728,-0.176688
35,65,-0.654498,-0.814493,-0.174533,-0.174533,-0.647708,-0.804915,-0.150351,-0.162754,-0.679042,-0.268172,-0.362728,-0.176688
35,65,-0.654498,-0.814493,-0.174533,-0.174533,-0.647708,-0.804915,-0.150351,-0.162754,-0.679042,-0.268172,-0.362728,-0.176688
35,65,-0.654498,-0.814493,-0.174533,-0.174533,-0.647708,-0.804915,-0.150351,-0.162754,-0.679042,-0.268172,-0.362728,-0.176688
35,65,-0.654498,-0.814493,-0.174533,-0.174533,-0.647708,-0.804915,-0.150351,-0.162754,-0.679042,-0.268172,-0.362728,-0.176688
35,65,-0.654498,-0.814493,-0.174533,-0.174533,-0.647708,-0.804915,-0.150351,-0.162754,-0.679042,-0.268172,-0.362728,-0.176688
35,65,-0.654498,-0.814493,-0.174533,-0.174533,-0.647708,-0.804915,-0.150351,-0.162754,-0.679042,-0.268172,-0.362728,-0.176688
35,65,-0.654498,-0.814493,-0.174533,-0.174533,-0.647708,-0.804915,-0.150292,-0.162774,-0.679042,-0.268172,-0.363619,-0.176387
35,65,-0.654498,-0.814493,-0.174533,-0.174533,-0.647708,-0.804915,-0.150292,-0.162774,-0.679042,-0.268172,-0.363619,-0.176387
35,65,-0.654498,-0.814493,-0.174533,-0.174533,-0.647708,-0.804915,-0.150292,-0.162774,-0.679042,-0.268172,-0.363619,-0.176387
35,65,-0.654498,-0.814493,-0.174533,-0.174533,-0.647708,-0.804915,-0.150292,-0.162774,-0.679042,-0.268172,-0.363619,-0.176387
35,65,-0.654498,-0.814493,-0.174533,-0.174533,-0.647708,-0.804915,-0.150292,-0.162774,-0.679042,-0.268172,-0.363619,-0.176387
35,65,-0.654498,-0.814493,-0.174533,-0.174533,-0.647708,-0.804915,-0.150292,-0.162774,-0.679042,-0.268172,-0.363619,-0.176387
35,65,-0.654498,-0.814493,-0.174533,-0.174533,-0.647708,-0.804915,-0.150292,-0.162774,-0.679042,-0.268172,-0.363619,-0.176387
35,65,-0.654498,-0.814493,-0.174533,-0.174533,-0.647708,-0.804915,-0.150292,-0.162774,-0.679042,-0.268172,-0.363619,-0.176387
35,65,-0.654498,-0.814493,-0.174533,-0.174533,-0.647708,-0.804915,-0.150292,-0.162774,-0.679042,-0.268172,-0.363619,-0.176387
35,65,-0.654498,-0.814493,-0.174533,-0.174533,-0.647708,-0.804915,-0.150292,-0.162774,-0.679042,-0.268172,-0.363619,-0.176387
35,65,-0.654498,-0.814493,-0.174533,-0.174533,-0.647708,-0.804915,-0.150292,-0.162774,-0.679042,-0.268172,-0.363619,-0.176387
35,65,-0.654498,-0.814493,-0.174533,-0.174533,-0.647708,-0.804915,-0.150292,-0.162774,-0.679042,-0.268172,-0.363619,-0.176387
35,65,-0.654498,-0.814493,-0.174533,-0.174533,-0.647708,-0.804915,-0.150292,-0.162774,-0.679042,-0.268172,-0.363619,-0.176387
35,65,-0.654498,-0.814493,-0.174533,-0.174533,-0.647708,-0.804915,-0.150292,-0.162774,-0.679042,-0.268172,-0.363619,-0.176387
35,65,-0.654498,-0.814493,-0.174533,-0.174533,-0.647708,-0.804915,-0.150292,-0.162774,-0.679042,-0.268172,-0.363619,-0.176387
35,65,-0.654498,-0.814493,-0.174533,-0.174533,-0.647708,-0.804915,-0.150292,-0.162774,-0.679042,-0.268172,-0.363619,-0.176387
35,65,-0.654498,-0.814493,-0.174533,-0.174533,-0.647708,-0.804915,-0.150292,-0.162774,-0.679042,-0.268172,-0.363619,-0.176387
