stim_pw [us],stim_amp [mA],com_elbow_fe [rad],com_forearm_ps [rad],com_wrist_fe [rad],com_wrist_ru [rad],act_elbow_fe [rad],act_forearm_ps [rad],act_wrist_fe [rad],act_wrist_ru [rad],elbow_fe_trq [Nm],forearm_ps_trq [Nm],wrist_fe_trq [Nm],wrist_ru_trq [Nm]
35,65,-0.654498,-0.814493,-0.174533,-0.174533,-0.652003,-0.805424,-0.153371,-0.175556,-0.249528,-0.253937,-0.317433,0.0153437
35,65,-0.654498,-0.814493,-0.174533,-0.174533,-0.652003,-0.805424,-0.153371,-0.175556,-0.249528,-0.253937,-0.317433,0.0153437
35,65,-0.654498,-0.814493,-0.174533,-0.174533,-0.652003,-0.805424,-0.153371,-0.175556,-0.249528,-0.253937,-0.317433,0.0153437
35,65,-0.654498,-0.814493,-0.174533,-0.174533,-0.652003,-0.805424,-0.153371,-0.175556,-0.249528,-0.253937,-0.317433,0.0153437
35,65,-0.654498,-0.814493,-0.174533,-0.174533,-0.652003,-0.805424,-0.153371,-0.175556,-0.249528,-0.253937,-0.317433,0.0153437
35,65,-0.654498,-0.814493,-0.174533,-0.174533,-0.652003,-0.805424,-0.153371,-0.175556,-0.249528,-0.253937,-0.317433,0.0153437
35,65,-0.654498,-0.814493,-0.174533,-0.174533,-0.652003,-0.805424,-0.153371,-0.175556,-0.249528,-0.253937,-0.317433,0.0153437
35,65,-0.654498,-0.814493,-0.174533,-0.174533,-0.652003,-0.805424,-0.153371,-0.175556,-0.249528,-0.253937,-0.317433,0.0153437
35,65,-0.654498,-0.814493,-0.174533,-0.174533,-0.652003,-0.805424,-0.153371,-0.175556,-0.249528,-0.253937,-0.317433,0.0153437
35,65,-0.654498,-0.814493,-0.174533,-0.174533,-0.652003,-0.805424,-0.153371,-0.175556,-0.249528,-0.253937,-0.317433,0.0153437
35,65,-0.654498,-0.814493,-0.174533,-0.174533,-0.652003,-0.805424,-0.153371,-0.175556,-0.249528,-0.253937,-0.317433,0.0153437
35,65,-0.654498,-0.814493,-0.174533,-0.174533,-0.652003,-0.805424,-0.153371,-0.175556,-0.249528,-0.253937,-0.317433,0.0153437
35,65,-0.654498,-0.814493,-0.174533,-0.174533,-0.652003,-0.805424,-0.153371,-0.175556,-0.249528,-0.253937,-0.317433,0.0153437
35,65,-0.654498,-0.814493,-0.174533,-0.174533,-0.652003,-0.805424,-0.153371,-0.175556,-0.249528,-0.253937,-0.317433,0.0153437
35,65,-0.654498,-0.814493,-0.174533,-0.174533,-0.652003,-0.805424,-0.153371,-0.175556,-0.249528,-0.253937,-0.317433,0.0153437
35,65,-0.654498,-0.814493,-0.174533,-0.174533,-0.652003,-0.805424,-0.153371,-0.175556,-0.249528,-0.253937,-0.317433,0.0153437
35,65,-0.654498,-0.814493,-0.174533,-0.174533,-0.652003,-0.805424,-0.153371,-0.175556,-0.249528,-0.253937,-0.317433,0.0153437
35,65,-0.654498,-0.814493,-0.174533,-0.174533,-0.652003,-0.805424,-0.153371,-0.175556,-0.249528,-0.253937,-0.317433,0.0153437
35,65,-0.654498,-0.814493,-0.174533,-0.174533,-0.652003,-0.805424,-0.153371,-0.175556,-0.249528,-0.253937,-0.317433,0.0153437
35,65,-0.654498,-0.814493,-0.174533,-0.174533,-0.652003,-0.805424,-0.153371,-0.175556,-0.249528,-0.253937,-0.317433,0.0153437
35,65,-0.654498,-0.814493,-0.174533,-0.174533,-0.652003,-0.805424,-0.153371,-0.175556,-0.249528,-0.253937,-0.317433,0.0153437
35,65,-0.654498,-0.814493,-0.174533,-0.174533,-0.652003,-0.805424,-0.153371,-0.175556,-0.249528,-0.253937,-0.317433,0.0153437
35,65,-0.654498,-0.814493,-0.174533,-0.174533,-0.652003,-0.805424,-0.153306,-0.175514,-0.249528,-0.253937,-0.318402,0.0147181
35,65,-0.654498,-0.814493,-0.174533,-0.174533,-0.652003,-0.805424,-0.153306,-0.175514,-0.249528,-0.253937,-0.318402,0.0147181
35,65,-0.654498,-0.814493,-0.174533,-0.174533,-0.652003,-0.805424,-0.153306,-0.175514,-0.249528,-0.253937,-0.318402,0.0147181
35,65,-0.654498,-0.814493,-0.174533,-0.174533,-0.652003,-0.805424,-0.153306,-0.175514,-0.249528,-0.253937,-0.318402,0.0147181
35,65,-0.654498,-0.814493,-0.174533,-0.174533,-0.652003,-0.805424,-0.153306,-0.175514,-0.249528,-0.253937,-0.318402,0.0147181
35,65,-0.654498,-0.814493,-0.174533,-0.174533,-0.652003,-0.805424,-0.153306,-0.175514,-0.249528,-0.253937,-0.318402,0.0147181
35,65,-0.654498,-0.814493,-0.174533,-0.174533,-0.652003,-0.805424,-0.153306,-0.175514,-0.249528,-0.253937,-0.318402,0.0147181
35,65,-0.654498,-0.814493,-0.174533,-0.174533,-0.652003,-0.805424,-0.153306,-0.175514,-0.249528,-0.253937,-0.318402,0.0147181
35,65,-0.654498,-0.814493,-0.174533,-0.174533,-0.652003,-0.805474,-0.153306,-0.175514,-0.249528,-0.252513,-0.318402,0.0147181
35,65,-0.654498,-0.814493,-0.174533,-0.174533,-0.652003,-0.805474,-0.153306,-0.175514,-0.249528,-0.252513,-0.318402,0.0147181
35,65,-0.654498,-0.814493,-0.174533,-0.174533,-0.652003,-0.805474,-0.153306,-0.175514,-0.249528,-0.252513,-0.318402,0.0147181
35,65,-0.654498,-0.814493,-0.174533,-0.174533,-0.652003,-0.805474,-0.153306,-0.175514,-0.249528,-0.252513,-0.318402,0.0147181
35,65,-0.654498,-0.814493,-0.174533,-0.174533,-0.652003,-0.805474,-0.153306,-0.175514,-0.249528,-0.252513,-0.318402,0.0147181
35,65,-0.654498,-0.814493,-0.174533,-0.174533,-0.652003,-0.805474,-0.153306,-0.175514,-0.249528,-0.252513,-0.318402,0.0147181
35,65,-0.654498,-0.814493,-0.174533,-0.174533,-0.652003,-0.805474,-0.153306,-0.175514,-0.249528,-0.252513,-0.318402,0.0147181
35,65,-0.654498,-0.814493,-0.174533,-0.174533,-0.652003,-0.805474,-0.153306,-0.175514,-0.249528,-0.252513,-0.318402,0.0147181
35,65,-0.654498,-0.814493,-0.174533,-0.174533,-0.652003,-0.805474,-0.153306,-0.175514,-0.249528,-0.252513,-0.318402,0.0147181
35,65,-0.654498,-0.814493,-0.174533,-0.174533,-0.652003,-0.805474,-0.153306,-0.175514,-0.249528,-0.252513,-0.318402,0.0147181
35,65,-0.654498,-0.814493,-0.174533,-0.174533,-0.652003,-0.805474,-0.153306,-0.175514,-0.249528,-0.252513,-0.318402,0.0147181
35,65,-0.654498,-0.814493,-0.174533,-0.174533,-0.652003,-0.805474,-0.153306,-0.175514,-0.249528,-0.252513,-0.318402,0.0147181
35,65,-0.654498,-0.814493,-0.174533,-0.174533,-0.652003,-0.805474,-0.153306,-0.175514,-0.249528,-0.252513,-0.318402,0.0147181
35,65,-0.654498,-0.814493,-0.174533,-0.174533,-0.652003,-0.805474,-0.153306,-0.175514,-0.249528,-0.252513,-0.318402,0.0147181
35,65,-0.654498,-0.814493,-0.174533,-0.174533,-0.652003,-0.805474,-0.153306,-0.175514,-0.249528,-0.252513,-0.318402,0.0147181
35,65,-0.654498,-0.814493,-0.174533,-0.174533,-0.652003,-0.805474,-0.153306,-0.175514,-0.249528,-0.252513,-0.318402,0.0147181
35,65,-0.654498,-0.814493,-0.174533,-0.174533,-0.652003,-0.805474,-0.153306,-0.175514,-0.249528,-0.252513,-0.318402,0.0147181
35,65,-0.654498,-0.814493,-0.174533,-0.174533,-0.652003,-0.805474,-0.153306,-0.175514,-0.249528,-0.252513,-0.318402,0.0147181
35,65,-0.654498,-0.814493,-0.174533,-0.174533,-0.652003,-0.805474,-0.153306,-0.175514,-0.249528,-0.252513,-0.318402,0.0147181
35,65,-0.654498,-0.814493,-0.174533,-0.174533,-0.652003,-0.805474,-0.153306,-0.175514,-0.249528,-0.252513,-0.318402,0.0147181
35,65,-0.654498,-0.814493,-0.174533,-0.174533,-0.652003,-0.805474,-0.153306,-0.175514,-0.249528,-0.252513,-0.318402,0.0147181
35,65,-0.654498,-0.814493,-0.174533,-0.174533,-0.652003,-0.805474,-0.153306,-0.175514,-0.249528,-0.252513,-0.318402,0.0147181
35,65,-0.654498,-0.814493,-0.174533,-0.174533,-0.652003,-0.805474,-0.153306,-0.175514,-0.249528,-0.252513,-0.318402,0.0147181
35,65,-0.654498,-0.814493,-0.174533,-0.174533,-0.652003,-0.805474,-0.153306,-0.175514,-0.249528,-0.252513,-0.318402,0.0147181
35,65,-0.654498,-0.814493,-0.174533,-0.174533,-0.652003,-0.805474,-0.153306,-0.175514,-0.249528,-0.252513,-0.318402,0.0147181
35,65,-0.654498,-0.814493,-0.174533,-0.174533,-0.652003,-0.805474,-0.153306,-0.175514,-0.249528,-0.252513,-0.318402,0.0147181
35,65,-0.654498,-0.814493,-0.174533,-0.174533,-0.652003,-0.805474,-0.153306,-0.175514,-0.249528,-0.252513,-0.318402,0.0147181
35,65,-0.654498,-0.814493,-0.174533,-0.174533,-0.652003,-0.805474,-0.153306,-0.175514,-0.249528,-0.252513,-0.318402,0.0147181
35,65,-0.654498,-0.814493,-0.174533,-0.174533,-0.652003,-0.805474,-0.153242,-0.175472,-0.249528,-0.252513,-0.319371,0.0140926
35,65,-0.654498,-0.814493,-0.174533,-0.174533,-0.652003,-0.805474,-0.153242,-0.175472,-0.249528,-0.252513,-0.319371,0.0140926
35,65,-0.654498,-0.814493,-0.174533,-0.174533,-0.652003,-0.805474,-0.153242,-0.175472,-0.249528,-0.252513,-0.319371,0.0140926
35,65,-0.654498,-0.814493,-0.174533,-0.174533,-0.652003,-0.805474,-0.153242,-0.175472,-0.249528,-0.252513,-0.319371,0.0140926
35,65,-0.654498,-0.814493,-0.174533,-0.174533,-0.652003,-0.805474,-0.153242,-0.175472,-0.249528,-0.252513,-0.319371,0.0140926
35,65,-0.654498,-0.814493,-0.174533,-0.174533,-0.652003,-0.805474,-0.153242,-0.175472,-0.249528,-0.252513,-0.319371,0.0140926
35,65,-0.654498,-0.814493,-0.174533,-0.174533,-0.652003,-0.805474,-0.153242,-0.175472,-0.249528,-0.252513,-0.319371,0.0140926
35,65,-0.654498,-0.814493,-0.174533,-0.174533,-0.652003,-0.805474,-0.153242,-0.175472,-0.249528,-0.252513,-0.319371,0.0140926
35,65,-0.654498,-0.814493,-0.174533,-0.174533,-0.652003,-0.805474,-0.153242,-0.175472,-0.249528,-0.252513,-0.319371,0.0140926
35,65,-0.654498,-0.814493,-0.174533,-0.174533,-0.652003,-0.805474,-0.153242,-0.175472,-0.249528,-0.252513,-0.319371,0.0140926
35,65,-0.654498,-0.814493,-0.174533,-0.174533,-0.652003,-0.805474,-0.153242,-0.175472,-0.249528,-0.252513,-0.319371,0.0140926
35,65,-0.654498,-0.814493,-0.174533,-0.174533,-0.652003,-0.805474,-0.153242,-0.175472,-0.249528,-0.252513,-0.319371,0.0140926
35,65,-0.654498,-0.814493,-0.174533,-0.174533,-0.652003,-0.805474,-0.153242,-0.175472,-0.249528,-0.252513,-0.319371,0.0140926
35,65,-0.654498,-0.814493,-0.174533,-0.174533,-0.652003,-0.805474,-0.153242,-0.175472,-0.249528,-0.252513,-0.319371,0.0140926
35,65,-0.654498,-0.814493,-0.174533,-0.174533,-0.652003,-0.805474,-0.153242,-0.175472,-0.249528,-0.252513,-0.319371,0.0140926
35,65,-0.654498,-0.814493,-0.174533,-0.174533,-0.652003,-0.805474,-0.153242,-0.175472,-0.249528,-0.252513,-0.319371,0.0140926
35,65,-0.654498,-0.814493,-0.174533,-0.174533,-0.652003,-0.805474,-0.153242,-0.175472,-0.249528,-0.252513,-0.319371,0.0140926
35,65,-0.654498,-0.814493,-0.174533,-0.174533,-0.652003,-0.805474,-0.153242,-0.175472,-0.249528,-0.252513,-0.319371,0.0140926
35,65,-0.654498,-0.814493,-0.174533,-0.174533,-0.652003,-0.805474,-0.153242,-0.175472,-0.249528,-0.252513,-0.319371,0.0140926
35,65,-0.654498,-0.814493,-0.174533,-0.174533,-0.652003,-0.805474,-0.153242,-0.175472,-0.249528,-0.252513,-0.319371,0.0140926
35,65,-0.654498,-0.814493,-0.174533,-0.174533,-0.652003,-0.805474,-0.153242,-0.175472,-0.249528,-0.252513,-0.319371,0.0140926
35,65,-0.654498,-0.814493,-0.174533,-0.174533,-0.652003,-0.805474,-0.153242,-0.175472,-0.249528,-0.252513,-0.319371,0.0140926
35,65,-0.654498,-0.814493,-0.174533,-0.174533,-0.652003,-0.805474,-0.153242,-0.175472,-0.249528,-0.252513,-0.319371,0.0140926
35,65,-0.654498,-0.814493,-0.174533,-0.174533,-0.652003,-0.805474,-0.153242,-0.175472,-0.249528,-0.252513,-0.319371,0.0140926
35,65,-0.654498,-0.814493,-0.174533,-0.174533,-0.652003,-0.805525,-0.153242,-0.175472,-0.249528,-0.25109,-0.319371,0.0140926
35,65,-0.654498,-0.814493,-0.174533,-0.174533,-0.652003,-0.805525,-0.153177,-0.175431,-0.249528,-0.25109,-0.320339,0.0134672
35,65,-0.654498,-0.814493,-0.174533,-0.174533,-0.652003,-0.805525,-0.153177,-0.175431,-0.249528,-0.25109,-0.320339,0.0134672
35,65,-0.654498,-0.814493,-0.174533,-0.174533,-0.652003,-0.805525,-0.153177,-0.175431,-0.249528,-0.25109,-0.320339,0.0134672
35,65,-0.654498,-0.814493,-0.174533,-0.174533,-0.652003,-0.805525,-0.153117,-0.17545,-0.249528,-0.25109,-0.321238,0.0137633
35,65,-0.654498,-0.814493,-0.174533,-0.174533,-0.652003,-0.805525,-0.153117,-0.17545,-0.249528,-0.25109,-0.321238,0.0137633
35,65,-0.654498,-0.814493,-0.174533,-0.174533,-0.652003,-0.805525,-0.153117,-0.17545,-0.249528,-0.25109,-0.321238,0.0137633
35,65,-0.654498,-0.814493,-0.174533,-0.174533,-0.652003,-0.805525,-0.153117,-0.17545,-0.249528,-0.25109,-0.321238,0.0137633
35,65,-0.654498,-0.814493,-0.174533,-0.174533,-0.652003,-0.805525,-0.153117,-0.17545,-0.249528,-0.25109,-0.321238,0.0137633
35,65,-0.654498,-0.814493,-0.174533,-0.174533,-0.652003,-0.805525,-0.153117,-0.17545,-0.249528,-0.25109,-0.321238,0.0137633
35,65,-0.654498,-0.814493,-0.174533,-0.174533,-0.652003,-0.805525,-0.153117,-0.17545,-0.249528,-0.25109,-0.321238,0.0137633
35,65,-0.654498,-0.814493,-0.174533,-0.174533,-0.652003,-0.805525,-0.153117,-0.17545,-0.249528,-0.25109,-0.321238,0.0137633
35,65,-0.654498,-0.814493,-0.174533,-0.174533,-0.652003,-0.805525,-0.153052,-0.175409,-0.249528,-0.25109,-0.322207,0.0131379
35,65,-0.654498,-0.814493,-0.174533,-0.174533,-0.652003,-0.805525,-0.153052,-0.175409,-0.249528,-0.25109,-0.322207,0.0131379
35,65,-0.654498,-0.814493,-0.174533,-0.174533,-0.652003,-0.805525,-0.153052,-0.175409,-0.249528,-0.25109,-0.322207,0.0131379
35,65,-0.654498,-0.814493,-0.174533,-0.174533,-0.652003,-0.805525,-0.153052,-0.175409,-0.249528,-0.25109,-0.322207,0.0131379
35,65,-0.654498,-0.814493,-0.174533,-0.174533,-0.652003,-0.805525,-0.153052,-0.175409,-0.249528,-0.25109,-0.322207,0.0131379
35,65,-0.654498,-0.814493,-0.174533,-0.174533,-0.652003,-0.805525,-0.153052,-0.175409,-0.249528,-0.25109,-0.322207,0.0131379
35,65,-0.654498,-0.814493,-0.174533,-0.174533,-0.652003,-0.805525,-0.153052,-0.175409,-0.249528,-0.25109,-0.322207,0.0131379
35,65,-0.654498,-0.814493,-0.174533,-0.174533,-0.652003,-0.805525,-0.153052,-0.175409,-0.249528,-0.25109,-0.322207,0.0131379
35,65,-0.654498,-0.814493,-0.174533,-0.174533,-0.652003,-0.805525,-0.153052,-0.175409,-0.249528,-0.25109,-0.322207,0.0131379
35,65,-0.654498,-0.814493,-0.174533,-0.174533,-0.652003,-0.805525,-0.153052,-0.175409,-0.249528,-0.25109,-0.322207,0.0131379
35,65,-0.654498,-0.814493,-0.174533,-0.174533,-0.652003,-0.805525,-0.153052,-0.175409,-0.249528,-0.25109,-0.322207,0.0131379
35,65,-0.654498,-0.814493,-0.174533,-0.174533,-0.652003,-0.805525,-0.153052,-0.175409,-0.249528,-0.25109,-0.322207,0.0131379
35,65,-0.654498,-0.814493,-0.174533,-0.174533,-0.652003,-0.805525,-0.153052,-0.175409,-0.249528,-0.25109,-0.322207,0.0131379
35,65,-0.654498,-0.814493,-0.174533,-0.174533,-0.652003,-0.805525,-0.153052,-0.175409,-0.249528,-0.25109,-0.322207,0.0131379
35,65,-0.654498,-0.814493,-0.174533,-0.174533,-0.652003,-0.805525,-0.153052,-0.175409,-0.249528,-0.25109,-0.322207,0.0131379
35,65,-0.654498,-0.814493,-0.174533,-0.174533,-0.652003,-0.805525,-0.153052,-0.175409,-0.249528,-0.25109,-0.322207,0.0131379
35,65,-0.654498,-0.814493,-0.174533,-0.174533,-0.652003,-0.805525,-0.153052,-0.175409,-0.249528,-0.25109,-0.322207,0.0131379
35,65,-0.654498,-0.814493,-0.174533,-0.174533,-0.652003,-0.805525,-0.153052,-0.175409,-0.249528,-0.25109,-0.322207,0.0131379
35,65,-0.654498,-0.814493,-0.174533,-0.174533,-0.652003,-0.805525,-0.153052,-0.175409,-0.249528,-0.25109,-0.322207,0.0131379
35,65,-0.654498,-0.814493,-0.174533,-0.174533,-0.652003,-0.805525,-0.153052,-0.175409,-0.249528,-0.25109,-0.322207,0.0131379
35,65,-0.654498,-0.814493,-0.174533,-0.174533,-0.652003,-0.805525,-0.153052,-0.175409,-0.249528,-0.25109,-0.322207,0.0131379
35,65,-0.654498,-0.814493,-0.174533,-0.174533,-0.652003,-0.805525,-0.153052,-0.175409,-0.249528,-0.25109,-0.322207,0.0131379
35,65,-0.654498,-0.814493,-0.174533,-0.174533,-0.652003,-0.805525,-0.153052,-0.175409,-0.249528,-0.25109,-0.322207,0.0131379
35,65,-0.654498,-0.814493,-0.174533,-0.174533,-0.652003,-0.805525,-0.153052,-0.175409,-0.249528,-0.25109,-0.322207,0.0131379
35,65,-0.654498,-0.814493,-0.174533,-0.174533,-0.652003,-0.805525,-0.153052,-0.175409,-0.249528,-0.25109,-0.322207,0.0131379
35,65,-0.654498,-0.814493,-0.174533,-0.174533,-0.652003,-0.805525,-0.153052,-0.175409,-0.249528,-0.25109,-0.322207,0.0131379
35,65,-0.654498,-0.814493,-0.174533,-0.174533,-0.652003,-0.805525,-0.153052,-0.175409,-0.249528,-0.25109,-0.322207,0.0131379
35,65,-0.654498,-0.814493,-0.174533,-0.174533,-0.652003,-0.805525,-0.153052,-0.175409,-0.249528,-0.25109,-0.322207,0.0131379
35,65,-0.654498,-0.814493,-0.174533,-0.174533,-0.652003,-0.805525,-0.153052,-0.175409,-0.249528,-0.25109,-0.322207,0.0131379
35,65,-0.654498,-0.814493,-0.174533,-0.174533,-0.652003,-0.805525,-0.153052,-0.175409,-0.249528,-0.25109,-0.322207,0.0131379
35,65,-0.654498,-0.814493,-0.174533,-0.174533,-0.652003,-0.805525,-0.153052,-0.175409,-0.249528,-0.25109,-0.322207,0.0131379
35,65,-0.654498,-0.814493,-0.174533,-0.174533,-0.652003,-0.805525,-0.153052,-0.175409,-0.249528,-0.25109,-0.322207,0.0131379
35,65,-0.654498,-0.814493,-0.174533,-0.174533,-0.652003,-0.805525,-0.153052,-0.175409,-0.249528,-0.25109,-0.322207,0.0131379
35,65,-0.654498,-0.814493,-0.174533,-0.174533,-0.652003,-0.805525,-0.153052,-0.175409,-0.249528,-0.25109,-0.322207,0.0131379
35,65,-0.654498,-0.814493,-0.174533,-0.174533,-0.652003,-0.805525,-0.153052,-0.175409,-0.249528,-0.25109,-0.322207,0.0131379
35,65,-0.654498,-0.814493,-0.174533,-0.174533,-0.652003,-0.805525,-0.153052,-0.175409,-0.249528,-0.25109,-0.322207,0.0131379
35,65,-0.654498,-0.814493,-0.174533,-0.174533,-0.652003,-0.805525,-0.153052,-0.175409,-0.249528,-0.25109,-0.322207,0.0131379
35,65,-0.654498,-0.814493,-0.174533,-0.174533,-0.652003,-0.805525,-0.153052,-0.175409,-0.249528,-0.25109,-0.322207,0.0131379
35,65,-0.654498,-0.814493,-0.174533,-0.174533,-0.652003,-0.805525,-0.153052,-0.175409,-0.249528,-0.25109,-0.322207,0.0131379
35,65,-0.654498,-0.814493,-0.174533,-0.174533,-0.652003,-0.805525,-0.153052,-0.175409,-0.249528,-0.25109,-0.322207,0.0131379
35,65,-0.654498,-0.814493,-0.174533,-0.174533,-0.652003,-0.805525,-0.153052,-0.175409,-0.249528,-0.25109,-0.322207,0.0131379
35,65,-0.654498,-0.814493,-0.174533,-0.174533,-0.652003,-0.805525,-0.153052,-0.175409,-0.249528,-0.25109,-0.322207,0.0131379
35,65,-0.654498,-0.814493,-0.174533,-0.174533,-0.652003,-0.805525,-0.153052,-0.175409,-0.249528,-0.25109,-0.322207,0.0131379
35,65,-0.654498,-0.814493,-0.174533,-0.174533,-0.652003,-0.805525,-0.153052,-0.175409,-0.249528,-0.25109,-0.322207,0.0131379
35,65,-0.654498,-0.814493,-0.174533,-0.174533,-0.652003,-0.805525,-0.153052,-0.175409,-0.249528,-0.25109,-0.322207,0.0131379
35,65,-0.654498,-0.814493,-0.174533,-0.174533,-0.652003,-0.805525,-0.153052,-0.175409,-0.249528,-0.25109,-0.322207,0.0131379
35,65,-0.654498,-0.814493,-0.174533,-0.174533,-0.652003,-0.805525,-0.153052,-0.175409,-0.249528,-0.25109,-0.322207,0.0131379
35,65,-0.654498,-0.814493,-0.174533,-0.174533,-0.652003,-0.805525,-0.153052,-0.175409,-0.249528,-0.25109,-0.322207,0.0131379
35,65,-0.654498,-0.814493,-0.174533,-0.174533,-0.652003,-0.805525,-0.153052,-0.175409,-0.249528,-0.25109,-0.322207,0.0131379
35,65,-0.654498,-0.814493,-0.174533,-0.174533,-0.652003,-0.805525,-0.153052,-0.175409,-0.249528,-0.25109,-0.322207,0.0131379
35,65,-0.654498,-0.814493,-0.174533,-0.174533,-0.652003,-0.805525,-0.153052,-0.175409,-0.249528,-0.25109,-0.322207,0.0131379
35,65,-0.654498,-0.814493,-0.174533,-0.174533,-0.652003,-0.805525,-0.153052,-0.175409,-0.249528,-0.25109,-0.322207,0.0131379
35,65,-0.654498,-0.814493,-0.174533,-0.174533,-0.652003,-0.805525,-0.153052,-0.175409,-0.249528,-0.25109,-0.322207,0.0131379
35,65,-0.654498,-0.814493,-0.174533,-0.174533,-0.652003,-0.805525,-0.153052,-0.175409,-0.249528,-0.25109,-0.322207,0.0131379
35,65,-0.654498,-0.814493,-0.174533,-0.174533,-0.652003,-0.805525,-0.153052,-0.175409,-0.249528,-0.25109,-0.322207,0.0131379
35,65,-0.654498,-0.814493,-0.174533,-0.174533,-0.652003,-0.805525,-0.153052,-0.175409,-0.249528,-0.25109,-0.322207,0.0131379
35,65,-0.654498,-0.814493,-0.174533,-0.174533,-0.652003,-0.805525,-0.153052,-0.175409,-0.249528,-0.25109,-0.322207,0.0131379
35,65,-0.654498,-0.814493,-0.174533,-0.174533,-0.652003,-0.805525,-0.153052,-0.175409,-0.249528,-0.25109,-0.322207,0.0131379
35,65,-0.654498,-0.814493,-0.174533,-0.174533,-0.652003,-0.805525,-0.153052,-0.175409,-0.249528,-0.25109,-0.322207,0.0131379
35,65,-0.654498,-0.814493,-0.174533,-0.174533,-0.652003,-0.805525,-0.153052,-0.175409,-0.249528,-0.25109,-0.322207,0.0131379
35,65,-0.654498,-0.814493,-0.174533,-0.174533,-0.652003,-0.805525,-0.153052,-0.175409,-0.249528,-0.25109,-0.322207,0.0131379
35,65,-0.654498,-0.814493,-0.174533,-0.174533,-0.652003,-0.805525,-0.153052,-0.175409,-0.249528,-0.25109,-0.322207,0.0131379
35,65,-0.654498,-0.814493,-0.174533,-0.174533,-0.652003,-0.805576,-0.153052,-0.175409,-0.249528,-0.249666,-0.322207,0.0131379
35,65,-0.654498,-0.814493,-0.174533,-0.174533,-0.652003,-0.805576,-0.153052,-0.175409,-0.249528,-0.249666,-0.322207,0.0131379
35,65,-0.654498,-0.814493,-0.174533,-0.174533,-0.652003,-0.805576,-0.153052,-0.175409,-0.249528,-0.249666,-0.322207,0.0131379
35,65,-0.654498,-0.814493,-0.174533,-0.174533,-0.652003,-0.805576,-0.153052,-0.175409,-0.249528,-0.249666,-0.322207,0.0131379
35,65,-0.654498,-0.814493,-0.174533,-0.174533,-0.652003,-0.805576,-0.153052,-0.175409,-0.249528,-0.249666,-0.322207,0.0131379
35,65,-0.654498,-0.814493,-0.174533,-0.174533,-0.652003,-0.805576,-0.153052,-0.175409,-0.249528,-0.249666,-0.322207,0.0131379
35,65,-0.654498,-0.814493,-0.174533,-0.174533,-0.652003,-0.805576,-0.153052,-0.175409,-0.249528,-0.249666,-0.322207,0.0131379
35,65,-0.654498,-0.814493,-0.174533,-0.174533,-0.652003,-0.805576,-0.153052,-0.175409,-0.249528,-0.249666,-0.322207,0.0131379
35,65,-0.654498,-0.814493,-0.174533,-0.174533,-0.652003,-0.805576,-0.153052,-0.175409,-0.249528,-0.249666,-0.322207,0.0131379
35,65,-0.654498,-0.814493,-0.174533,-0.174533,-0.652003,-0.805576,-0.153052,-0.175409,-0.249528,-0.249666,-0.322207,0.0131379
35,65,-0.654498,-0.814493,-0.174533,-0.174533,-0.652003,-0.805576,-0.153052,-0.175409,-0.249528,-0.249666,-0.322207,0.0131379
35,65,-0.654498,-0.814493,-0.174533,-0.174533,-0.652003,-0.805576,-0.153052,-0.175409,-0.249528,-0.249666,-0.322207,0.0131379
35,65,-0.654498,-0.814493,-0.174533,-0.174533,-0.652003,-0.805576,-0.153052,-0.175409,-0.249528,-0.249666,-0.322207,0.0131379
35,65,-0.654498,-0.814493,-0.174533,-0.174533,-0.652003,-0.805576,-0.153052,-0.175409,-0.249528,-0.249666,-0.322207,0.0131379
35,65,-0.654498,-0.814493,-0.174533,-0.174533,-0.652003,-0.805576,-0.153052,-0.175409,-0.249528,-0.249666,-0.322207,0.0131379
35,65,-0.654498,-0.814493,-0.174533,-0.174533,-0.652003,-0.805576,-0.153052,-0.175409,-0.249528,-0.249666,-0.322207,0.0131379
35,65,-0.654498,-0.814493,-0.174533,-0.174533,-0.652003,-0.805576,-0.153052,-0.175409,-0.249528,-0.249666,-0.322207,0.0131379
35,65,-0.654498,-0.814493,-0.174533,-0.174533,-0.652003,-0.805576,-0.153052,-0.175409,-0.249528,-0.249666,-0.322207,0.0131379
35,65,-0.654498,-0.814493,-0.174533,-0.174533,-0.652003,-0.805576,-0.153052,-0.175409,-0.249528,-0.249666,-0.322207,0.0131379
35,65,-0.654498,-0.814493,-0.174533,-0.174533,-0.652003,-0.805576,-0.153052,-0.175409,-0.249528,-0.249666,-0.322207,0.0131379
35,65,-0.654498,-0.814493,-0.174533,-0.174533,-0.652003,-0.805576,-0.153052,-0.175409,-0.249528,-0.249666,-0.322207,0.0131379
35,65,-0.654498,-0.814493,-0.174533,-0.174533,-0.652003,-0.805576,-0.153052,-0.175409,-0.249528,-0.249666,-0.322207,0.0131379
35,65,-0.654498,-0.814493,-0.174533,-0.174533,-0.652003,-0.805576,-0.153052,-0.175409,-0.249528,-0.249666,-0.322207,0.0131379
35,65,-0.654498,-0.814493,-0.174533,-0.174533,-0.652003,-0.805576,-0.153052,-0.175409,-0.249528,-0.249666,-0.322207,0.0131379
35,65,-0.654498,-0.814493,-0.174533,-0.174533,-0.652003,-0.805576,-0.153052,-0.175409,-0.249528,-0.249666,-0.322207,0.0131379
35,65,-0.654498,-0.814493,-0.174533,-0.174533,-0.652003,-0.805576,-0.153052,-0.175409,-0.249528,-0.249666,-0.322207,0.0131379
35,65,-0.654498,-0.814493,-0.174533,-0.174533,-0.652003,-0.805576,-0.153052,-0.175409,-0.249528,-0.249666,-0.322207,0.0131379
35,65,-0.654498,-0.814493,-0.174533,-0.174533,-0.652003,-0.805576,-0.153052,-0.175409,-0.249528,-0.249666,-0.322207,0.0131379
35,65,-0.654498,-0.814493,-0.174533,-0.174533,-0.652003,-0.805576,-0.153052,-0.175409,-0.249528,-0.249666,-0.322207,0.0131379
35,65,-0.654498,-0.814493,-0.174533,-0.174533,-0.652003,-0.805576,-0.153052,-0.175409,-0.249528,-0.249666,-0.322207,0.0131379
35,65,-0.654498,-0.814493,-0.174533,-0.174533,-0.652003,-0.805576,-0.153052,-0.175409,-0.249528,-0.249666,-0.322207,0.0131379
35,65,-0.654498,-0.814493,-0.174533,-0.174533,-0.652003,-0.805576,-0.153052,-0.175409,-0.249528,-0.249666,-0.322207,0.0131379
35,65,-0.654498,-0.814493,-0.174533,-0.174533,-0.652003,-0.805576,-0.153052,-0.175409,-0.249528,-0.249666,-0.322207,0.0131379
35,65,-0.654498,-0.814493,-0.174533,-0.174533,-0.652003,-0.805576,-0.153052,-0.175409,-0.249528,-0.249666,-0.322207,0.0131379
35,65,-0.654498,-0.814493,-0.174533,-0.174533,-0.652003,-0.805576,-0.152988,-0.175367,-0.249528,-0.249666,-0.323175,0.0125127
35,65,-0.654498,-0.814493,-0.174533,-0.174533,-0.652003,-0.805576,-0.152988,-0.175367,-0.249528,-0.249666,-0.323175,0.0125127
35,65,-0.654498,-0.814493,-0.174533,-0.174533,-0.652003,-0.805576,-0.152988,-0.175367,-0.249528,-0.249666,-0.323175,0.0125127
35,65,-0.654498,-0.814493,-0.174533,-0.174533,-0.652003,-0.805576,-0.152988,-0.175367,-0.249528,-0.249666,-0.323175,0.0125127
35,65,-0.654498,-0.814493,-0.174533,-0.174533,-0.652003,-0.805576,-0.152988,-0.175367,-0.249528,-0.249666,-0.323175,0.0125127
35,65,-0.654498,-0.814493,-0.174533,-0.174533,-0.652003,-0.805576,-0.152988,-0.175367,-0.249528,-0.249666,-0.323175,0.0125127
35,65,-0.654498,-0.814493,-0.174533,-0.174533,-0.652003,-0.805576,-0.152988,-0.175367,-0.249528,-0.249666,-0.323175,0.0125127
35,65,-0.654498,-0.814493,-0.174533,-0.174533,-0.652003,-0.805576,-0.152988,-0.175367,-0.249528,-0.249666,-0.323175,0.0125127
35,65,-0.654498,-0.814493,-0.174533,-0.174533,-0.652003,-0.805576,-0.152988,-0.175367,-0.249528,-0.249666,-0.323175,0.0125127
35,65,-0.654498,-0.814493,-0.174533,-0.174533,-0.652003,-0.805576,-0.152988,-0.175367,-0.249528,-0.249666,-0.323175,0.0125127
35,65,-0.654498,-0.814493,-0.174533,-0.174533,-0.652003,-0.805576,-0.152988,-0.175367,-0.249528,-0.249666,-0.323175,0.0125127
35,65,-0.654498,-0.814493,-0.174533,-0.174533,-0.652003,-0.805576,-0.152988,-0.175367,-0.249528,-0.249666,-0.323175,0.0125127
35,65,-0.654498,-0.814493,-0.174533,-0.174533,-0.652003,-0.805576,-0.152988,-0.175367,-0.249528,-0.249666,-0.323175,0.0125127
35,65,-0.654498,-0.814493,-0.174533,-0.174533,-0.652003,-0.805576,-0.152988,-0.175367,-0.249528,-0.249666,-0.323175,0.0125127
35,65,-0.654498,-0.814493,-0.174533,-0.174533,-0.652003,-0.805627,-0.152988,-0.175367,-0.249528,-0.248243,-0.323175,0.0125127
35,65,-0.654498,-0.814493,-0.174533,-0.174533,-0.652003,-0.805627,-0.152988,-0.175367,-0.249528,-0.248243,-0.323175,0.0125127
35,65,-0.654498,-0.814493,-0.174533,-0.174533,-0.652003,-0.805627,-0.152988,-0.175367,-0.249528,-0.248243,-0.323175,0.0125127
35,65,-0.654498,-0.814493,-0.174533,-0.174533,-0.652003,-0.805627,-0.152988,-0.175367,-0.249528,-0.248243,-0.323175,0.0125127
35,65,-0.654498,-0.814493,-0.174533,-0.174533,-0.652003,-0.805627,-0.152988,-0.175367,-0.249528,-0.248243,-0.323175,0.0125127
35,65,-0.654498,-0.814493,-0.174533,-0.174533,-0.652003,-0.805627,-0.152988,-0.175367,-0.249528,-0.248243,-0.323175,0.0125127
35,65,-0.654498,-0.814493,-0.174533,-0.174533,-0.652003,-0.805627,-0.152988,-0.175367,-0.249528,-0.248243,-0.323175,0.0125127
35,65,-0.654498,-0.814493,-0.174533,-0.174533,-0.652003,-0.805627,-0.152988,-0.175367,-0.249528,-0.248243,-0.323175,0.0125127
35,65,-0.654498,-0.814493,-0.174533,-0.174533,-0.652003,-0.805627,-0.152988,-0.175367,-0.249528,-0.248243,-0.323175,0.0125127
35,65,-0.654498,-0.814493,-0.174533,-0.174533,-0.652003,-0.805627,-0.152988,-0.175367,-0.249528,-0.248243,-0.323175,0.0125127
35,65,-0.654498,-0.814493,-0.174533,-0.174533,-0.652003,-0.805627,-0.152988,-0.175367,-0.249528,-0.248243,-0.323175,0.0125127
35,65,-0.654498,-0.814493,-0.174533,-0.174533,-0.652003,-0.805627,-0.152988,-0.175367,-0.249528,-0.248243,-0.323175,0.0125127
35,65,-0.654498,-0.814493,-0.174533,-0.174533,-0.652003,-0.805627,-0.152988,-0.175367,-0.249528,-0.248243,-0.323175,0.0125127
35,65,-0.654498,-0.814493,-0.174533,-0.174533,-0.652003,-0.805627,-0.152988,-0.175367,-0.249528,-0.248243,-0.323175,0.0125127
35,65,-0.654498,-0.814493,-0.174533,-0.174533,-0.652003,-0.805627,-0.152988,-0.175367,-0.249528,-0.248243,-0.323175,0.0125127
35,65,-0.654498,-0.814493,-0.174533,-0.174533,-0.652003,-0.805627,-0.152988,-0.175367,-0.249528,-0.248243,-0.323175,0.0125127
35,65,-0.654498,-0.814493,-0.174533,-0.174533,-0.652003,-0.805627,-0.152988,-0.175367,-0.249528,-0.248243,-0.323175,0.0125127
35,65,-0.654498,-0.814493,-0.174533,-0.174533,-0.652003,-0.805627,-0.152988,-0.175367,-0.249528,-0.248243,-0.323175,0.0125127
35,65,-0.654498,-0.814493,-0.174533,-0.174533,-0.652003,-0.805627,-0.152988,-0.175367,-0.249528,-0.248243,-0.323175,0.0125127
35,65,-0.654498,-0.814493,-0.174533,-0.174533,-0.652003,-0.805627,-0.152988,-0.175367,-0.249528,-0.248243,-0.323175,0.0125127
35,65,-0.654498,-0.814493,-0.174533,-0.174533,-0.652003,-0.805627,-0.152988,-0.175367,-0.249528,-0.248243,-0.323175,0.0125127
35,65,-0.654498,-0.814493,-0.174533,-0.174533,-0.652003,-0.805627,-0.152988,-0.175367,-0.249528,-0.248243,-0.323175,0.0125127
35,65,-0.654498,-0.814493,-0.174533,-0.174533,-0.652003,-0.805627,-0.152988,-0.175367,-0.249528,-0.248243,-0.323175,0.0125127
35,65,-0.654498,-0.814493,-0.174533,-0.174533,-0.652003,-0.805627,-0.152988,-0.175367,-0.249528,-0.248243,-0.323175,0.0125127
35,65,-0.654498,-0.814493,-0.174533,-0.174533,-0.652003,-0.805627,-0.152923,-0.175325,-0.249528,-0.248243,-0.324143,0.0118875
35,65,-0.654498,-0.814493,-0.174533,-0.174533,-0.652003,-0.805627,-0.152923,-0.175325,-0.249528,-0.248243,-0.324143,0.0118875
35,65,-0.654498,-0.814493,-0.174533,-0.174533,-0.652003,-0.805627,-0.152923,-0.175325,-0.249528,-0.248243,-0.324143,0.0118875
35,65,-0.654498,-0.814493,-0.174533,-0.174533,-0.652003,-0.805627,-0.152923,-0.175325,-0.249528,-0.248243,-0.324143,0.0118875
35,65,-0.654498,-0.814493,-0.174533,-0.174533,-0.652003,-0.805627,-0.152923,-0.175325,-0.249528,-0.248243,-0.324143,0.0118875
35,65,-0.654498,-0.814493,-0.174533,-0.174533,-0.652003,-0.805627,-0.152923,-0.175325,-0.249528,-0.248243,-0.324143,0.0118875
35,65,-0.654498,-0.814493,-0.174533,-0.174533,-0.652003,-0.805627,-0.152923,-0.175325,-0.249528,-0.248243,-0.324143,0.0118875
35,65,-0.654498,-0.814493,-0.174533,-0.174533,-0.652003,-0.805627,-0.152923,-0.175325,-0.249528,-0.248243,-0.324143,0.0118875
35,65,-0.654498,-0.814493,-0.174533,-0.174533,-0.652003,-0.805627,-0.152923,-0.175325,-0.249528,-0.248243,-0.324143,0.0118875
35,65,-0.654498,-0.814493,-0.174533,-0.174533,-0.652003,-0.805627,-0.152923,-0.175325,-0.249528,-0.248243,-0.324143,0.0118875
35,65,-0.654498,-0.814493,-0.174533,-0.174533,-0.652003,-0.805627,-0.152923,-0.175325,-0.249528,-0.248243,-0.324143,0.0118875
35,65,-0.654498,-0.814493,-0.174533,-0.174533,-0.652003,-0.805627,-0.152923,-0.175325,-0.249528,-0.248243,-0.324143,0.0118875
35,65,-0.654498,-0.814493,-0.174533,-0.174533,-0.652003,-0.805627,-0.152923,-0.175325,-0.249528,-0.248243,-0.324143,0.0118875
35,65,-0.654498,-0.814493,-0.174533,-0.174533,-0.652003,-0.805627,-0.152923,-0.175325,-0.249528,-0.248243,-0.324143,0.0118875
35,65,-0.654498,-0.814493,-0.174533,-0.174533,-0.652003,-0.805627,-0.152923,-0.175325,-0.249528,-0.248243,-0.324143,0.0118875
35,65,-0.654498,-0.814493,-0.174533,-0.174533,-0.652003,-0.805627,-0.152923,-0.175325,-0.249528,-0.248243,-0.324143,0.0118875
35,65,-0.654498,-0.814493,-0.174533,-0.174533,-0.652003,-0.805627,-0.152923,-0.175325,-0.249528,-0.248243,-0.324143,0.0118875
35,65,-0.654498,-0.814493,-0.174533,-0.174533,-0.652003,-0.805627,-0.152923,-0.175325,-0.249528,-0.248243,-0.324143,0.0118875
35,65,-0.654498,-0.814493,-0.174533,-0.174533,-0.652003,-0.805627,-0.152923,-0.175325,-0.249528,-0.248243,-0.324143,0.0118875
35,65,-0.654498,-0.814493,-0.174533,-0.174533,-0.652003,-0.805627,-0.152923,-0.175325,-0.249528,-0.248243,-0.324143,0.0118875
35,65,-0.654498,-0.814493,-0.174533,-0.174533,-0.652003,-0.805627,-0.152923,-0.175325,-0.249528,-0.248243,-0.324143,0.0118875
35,65,-0.654498,-0.814493,-0.174533,-0.174533,-0.652003,-0.805627,-0.152923,-0.175325,-0.249528,-0.248243,-0.324143,0.0118875
35,65,-0.654498,-0.814493,-0.174533,-0.174533,-0.652003,-0.805678,-0.152923,-0.175325,-0.249528,-0.246819,-0.324143,0.0118875
35,65,-0.654498,-0.814493,-0.174533,-0.174533,-0.652003,-0.805678,-0.152923,-0.175325,-0.249528,-0.246819,-0.324143,0.0118875
35,65,-0.654498,-0.814493,-0.174533,-0.174533,-0.652003,-0.805678,-0.152923,-0.175325,-0.249528,-0.246819,-0.324143,0.0118875
35,65,-0.654498,-0.814493,-0.174533,-0.174533,-0.652003,-0.805678,-0.152923,-0.175325,-0.249528,-0.246819,-0.324143,0.0118875
35,65,-0.654498,-0.814493,-0.174533,-0.174533,-0.652003,-0.805678,-0.152923,-0.175325,-0.249528,-0.246819,-0.324143,0.0118875
35,65,-0.654498,-0.814493,-0.174533,-0.174533,-0.652003,-0.805678,-0.152923,-0.175325,-0.249528,-0.246819,-0.324143,0.0118875
35,65,-0.654498,-0.814493,-0.174533,-0.174533,-0.652003,-0.805678,-0.152923,-0.175325,-0.249528,-0.246819,-0.324143,0.0118875
35,65,-0.654498,-0.814493,-0.174533,-0.174533,-0.652003,-0.805678,-0.152923,-0.175325,-0.249528,-0.246819,-0.324143,0.0118875
35,65,-0.654498,-0.814493,-0.174533,-0.174533,-0.652003,-0.805678,-0.152923,-0.175325,-0.249528,-0.246819,-0.324143,0.0118875
35,65,-0.654498,-0.814493,-0.174533,-0.174533,-0.652003,-0.805678,-0.152923,-0.175325,-0.249528,-0.246819,-0.324143,0.0118875
35,65,-0.654498,-0.814493,-0.174533,-0.174533,-0.652003,-0.805678,-0.152923,-0.175325,-0.249528,-0.246819,-0.324143,0.0118875
35,65,-0.654498,-0.814493,-0.174533,-0.174533,-0.652003,-0.805678,-0.152923,-0.175325,-0.249528,-0.246819,-0.324143,0.0118875
35,65,-0.654498,-0.814493,-0.174533,-0.174533,-0.652003,-0.805678,-0.152859,-0.175284,-0.249528,-0.246819,-0.325111,0.0112623
35,65,-0.654498,-0.814493,-0.174533,-0.174533,-0.652003,-0.805678,-0.152859,-0.175284,-0.249528,-0.246819,-0.325111,0.0112623
35,65,-0.654498,-0.814493,-0.174533,-0.174533,-0.652003,-0.805678,-0.152859,-0.175284,-0.249528,-0.246819,-0.325111,0.0112623
35,65,-0.654498,-0.814493,-0.174533,-0.174533,-0.652003,-0.805678,-0.152859,-0.175284,-0.249528,-0.246819,-0.325111,0.0112623
35,65,-0.654498,-0.814493,-0.174533,-0.174533,-0.652003,-0.805678,-0.152859,-0.175284,-0.249528,-0.246819,-0.325111,0.0112623
35,65,-0.654498,-0.814493,-0.174533,-0.174533,-0.652003,-0.805678,-0.152859,-0.175284,-0.249528,-0.246819,-0.325111,0.0112623
35,65,-0.654498,-0.814493,-0.174533,-0.174533,-0.652003,-0.805678,-0.152859,-0.175284,-0.249528,-0.246819,-0.325111,0.0112623
35,65,-0.654498,-0.814493,-0.174533,-0.174533,-0.652003,-0.805678,-0.152859,-0.175284,-0.249528,-0.246819,-0.325111,0.0112623
35,65,-0.654498,-0.814493,-0.174533,-0.174533,-0.652003,-0.805678,-0.152859,-0.175284,-0.249528,-0.246819,-0.325111,0.0112623
35,65,-0.654498,-0.814493,-0.174533,-0.174533,-0.652003,-0.805678,-0.152859,-0.175284,-0.249528,-0.246819,-0.325111,0.0112623
35,65,-0.654498,-0.814493,-0.174533,-0.174533,-0.652003,-0.805678,-0.152859,-0.175284,-0.249528,-0.246819,-0.325111,0.0112623
35,65,-0.654498,-0.814493,-0.174533,-0.174533,-0.652003,-0.805678,-0.152859,-0.175284,-0.249528,-0.246819,-0.325111,0.0112623
35,65,-0.654498,-0.814493,-0.174533,-0.174533,-0.652003,-0.805678,-0.152859,-0.175284,-0.249528,-0.246819,-0.325111,0.0112623
35,65,-0.654498,-0.814493,-0.174533,-0.174533,-0.652003,-0.805678,-0.152859,-0.175284,-0.249528,-0.246819,-0.325111,0.0112623
35,65,-0.654498,-0.814493,-0.174533,-0.174533,-0.652003,-0.805678,-0.152859,-0.175284,-0.249528,-0.246819,-0.325111,0.0112623
35,65,-0.654498,-0.814493,-0.174533,-0.174533,-0.652003,-0.805678,-0.152859,-0.175284,-0.249528,-0.246819,-0.325111,0.0112623
35,65,-0.654498,-0.814493,-0.174533,-0.174533,-0.652003,-0.805678,-0.152859,-0.175284,-0.249528,-0.246819,-0.325111,0.0112623
35,65,-0.654498,-0.814493,-0.174533,-0.174533,-0.652003,-0.805678,-0.152859,-0.175284,-0.249528,-0.246819,-0.325111,0.0112623
35,65,-0.654498,-0.814493,-0.174533,-0.174533,-0.652003,-0.805678,-0.152859,-0.175284,-0.249528,-0.246819,-0.325111,0.0112623
35,65,-0.654498,-0.814493,-0.174533,-0.174533,-0.652003,-0.805678,-0.152859,-0.175284,-0.249528,-0.246819,-0.325111,0.0112623
35,65,-0.654498,-0.814493,-0.174533,-0.174533,-0.652003,-0.805678,-0.152794,-0.175242,-0.249528,-0.246819,-0.326079,0.0106372
35,65,-0.654498,-0.814493,-0.174533,-0.174533,-0.652003,-0.805678,-0.152794,-0.175242,-0.249528,-0.246819,-0.326079,0.0106372
35,65,-0.654498,-0.814493,-0.174533,-0.174533,-0.652003,-0.805678,-0.152794,-0.175242,-0.249528,-0.246819,-0.326079,0.0106372
35,65,-0.654498,-0.814493,-0.174533,-0.174533,-0.652003,-0.805678,-0.152794,-0.175242,-0.249528,-0.246819,-0.326079,0.0106372
35,65,-0.654498,-0.814493,-0.174533,-0.174533,-0.652003,-0.805678,-0.152794,-0.175242,-0.249528,-0.246819,-0.326079,0.0106372
35,65,-0.654498,-0.814493,-0.174533,-0.174533,-0.652003,-0.805678,-0.152794,-0.175242,-0.249528,-0.246819,-0.326079,0.0106372
35,65,-0.654498,-0.814493,-0.174533,-0.174533,-0.652003,-0.805678,-0.152794,-0.175242,-0.249528,-0.246819,-0.326079,0.0106372
35,65,-0.654498,-0.814493,-0.174533,-0.174533,-0.652003,-0.805678,-0.152794,-0.175242,-0.249528,-0.246819,-0.326079,0.0106372
35,65,-0.654498,-0.814493,-0.174533,-0.174533,-0.652003,-0.805678,-0.152794,-0.175242,-0.249528,-0.246819,-0.326079,0.0106372
35,65,-0.654498,-0.814493,-0.174533,-0.174533,-0.652003,-0.805678,-0.152794,-0.175242,-0.249528,-0.246819,-0.326079,0.0106372
35,65,-0.654498,-0.814493,-0.174533,-0.174533,-0.652003,-0.805678,-0.152794,-0.175242,-0.249528,-0.246819,-0.326079,0.0106372
35,65,-0.654498,-0.814493,-0.174533,-0.174533,-0.652003,-0.805678,-0.152794,-0.175242,-0.249528,-0.246819,-0.326079,0.0106372
35,65,-0.654498,-0.814493,-0.174533,-0.174533,-0.652003,-0.805678,-0.152794,-0.175242,-0.249528,-0.246819,-0.326079,0.0106372
35,65,-0.654498,-0.814493,-0.174533,-0.174533,-0.652003,-0.805678,-0.15273,-0.1752,-0.249528,-0.246819,-0.327046,0.0100122
35,65,-0.654498,-0.814493,-0.174533,-0.174533,-0.652003,-0.805678,-0.15273,-0.1752,-0.249528,-0.246819,-0.327046,0.0100122
35,65,-0.654498,-0.814493,-0.174533,-0.174533,-0.652003,-0.805678,-0.15273,-0.1752,-0.249528,-0.246819,-0.327046,0.0100122
35,65,-0.654498,-0.814493,-0.174533,-0.174533,-0.652003,-0.805678,-0.15273,-0.1752,-0.249528,-0.246819,-0.327046,0.0100122
35,65,-0.654498,-0.814493,-0.174533,-0.174533,-0.652003,-0.805678,-0.15273,-0.1752,-0.249528,-0.246819,-0.327046,0.0100122
35,65,-0.654498,-0.814493,-0.174533,-0.174533,-0.652003,-0.805678,-0.15273,-0.1752,-0.249528,-0.246819,-0.327046,0.0100122
35,65,-0.654498,-0.814493,-0.174533,-0.174533,-0.652003,-0.805678,-0.15273,-0.1752,-0.249528,-0.246819,-0.327046,0.0100122
35,65,-0.654498,-0.814493,-0.174533,-0.174533,-0.652003,-0.805678,-0.15273,-0.1752,-0.249528,-0.246819,-0.327046,0.0100122
35,65,-0.654498,-0.814493,-0.174533,-0.174533,-0.652003,-0.805678,-0.15273,-0.1752,-0.249528,-0.246819,-0.327046,0.0100122
35,65,-0.654498,-0.814493,-0.174533,-0.174533,-0.652003,-0.805678,-0.152665,-0.175159,-0.249528,-0.246819,-0.328048,0.00936531
35,65,-0.654498,-0.814493,-0.174533,-0.174533,-0.652003,-0.805678,-0.152665,-0.175159,-0.249528,-0.246819,-0.328048,0.00936531
35,65,-0.654498,-0.814493,-0.174533,-0.174533,-0.652003,-0.805678,-0.152665,-0.175159,-0.249528,-0.246819,-0.328048,0.00936531
35,65,-0.654498,-0.814493,-0.174533,-0.174533,-0.652003,-0.805678,-0.152665,-0.175159,-0.249528,-0.246819,-0.328048,0.00936531
35,65,-0.654498,-0.814493,-0.174533,-0.174533,-0.652003,-0.805678,-0.152665,-0.175159,-0.249528,-0.246819,-0.328048,0.00936531
35,65,-0.654498,-0.814493,-0.174533,-0.174533,-0.652003,-0.805678,-0.152665,-0.175159,-0.249528,-0.246819,-0.328048,0.00936531
35,65,-0.654498,-0.814493,-0.174533,-0.174533,-0.652003,-0.805678,-0.152665,-0.175159,-0.249528,-0.246819,-0.328048,0.00936531
35,65,-0.654498,-0.814493,-0.174533,-0.174533,-0.652003,-0.805678,-0.152665,-0.175159,-0.249528,-0.246819,-0.328048,0.00936531
35,65,-0.654498,-0.814493,-0.174533,-0.174533,-0.652003,-0.805678,-0.152665,-0.175159,-0.249528,-0.246819,-0.328048,0.00936531
35,65,-0.654498,-0.814493,-0.174533,-0.174533,-0.652003,-0.805678,-0.152601,-0.175117,-0.249528,-0.246819,-0.329032,0.00872987
35,65,-0.654498,-0.814493,-0.174533,-0.174533,-0.652003,-0.805678,-0.152601,-0.175117,-0.249528,-0.246819,-0.329032,0.00872987
35,65,-0.654498,-0.814493,-0.174533,-0.174533,-0.652003,-0.805678,-0.152601,-0.175117,-0.249528,-0.246819,-0.329032,0.00872987
35,65,-0.654498,-0.814493,-0.174533,-0.174533,-0.652003,-0.805678,-0.152601,-0.175117,-0.249528,-0.246819,-0.329032,0.00872987
35,65,-0.654498,-0.814493,-0.174533,-0.174533,-0.652003,-0.805678,-0.152601,-0.175117,-0.249528,-0.246819,-0.329032,0.00872987
35,65,-0.654498,-0.814493,-0.174533,-0.174533,-0.652003,-0.805678,-0.152601,-0.175117,-0.249528,-0.246819,-0.329032,0.00872987
35,65,-0.654498,-0.814493,-0.174533,-0.174533,-0.652003,-0.805678,-0.152601,-0.175117,-0.249528,-0.246819,-0.329032,0.00872987
35,65,-0.654498,-0.814493,-0.174533,-0.174533,-0.652003,-0.805678,-0.152601,-0.175117,-0.249528,-0.246819,-0.329032,0.00872987
35,65,-0.654498,-0.814493,-0.174533,-0.174533,-0.652003,-0.805678,-0.152601,-0.175117,-0.249528,-0.246819,-0.329032,0.00872987
35,65,-0.654498,-0.814493,-0.174533,-0.174533,-0.652003,-0.805678,-0.152601,-0.175117,-0.249528,-0.246819,-0.329032,0.00872987
35,65,-0.654498,-0.814493,-0.174533,-0.174533,-0.652003,-0.805678,-0.152601,-0.175117,-0.249528,-0.246819,-0.329032,0.00872987
35,65,-0.654498,-0.814493,-0.174533,-0.174533,-0.652003,-0.805678,-0.152601,-0.175117,-0.249528,-0.246819,-0.329032,0.00872987
35,65,-0.654498,-0.814493,-0.174533,-0.174533,-0.652003,-0.805678,-0.152601,-0.175117,-0.249528,-0.246819,-0.329032,0.00872987
35,65,-0.654498,-0.814493,-0.174533,-0.174533,-0.652003,-0.805678,-0.152601,-0.175117,-0.249528,-0.246819,-0.329032,0.00872987
35,65,-0.654498,-0.814493,-0.174533,-0.174533,-0.652003,-0.805678,-0.152536,-0.175075,-0.249528,-0.246819,-0.330007,0.00810004
35,65,-0.654498,-0.814493,-0.174533,-0.174533,-0.652003,-0.805678,-0.152536,-0.175075,-0.249528,-0.246819,-0.330007,0.00810004
35,65,-0.654498,-0.814493,-0.174533,-0.174533,-0.652003,-0.805678,-0.152536,-0.175075,-0.249528,-0.246819,-0.330007,0.00810004
35,65,-0.654498,-0.814493,-0.174533,-0.174533,-0.652003,-0.805678,-0.152536,-0.175075,-0.249528,-0.246819,-0.330007,0.00810004
35,65,-0.654498,-0.814493,-0.174533,-0.174533,-0.652003,-0.805678,-0.152536,-0.175075,-0.249528,-0.246819,-0.330007,0.00810004
35,65,-0.654498,-0.814493,-0.174533,-0.174533,-0.652003,-0.805678,-0.152472,-0.175034,-0.249528,-0.246819,-0.330987,0.00746695
35,65,-0.654498,-0.814493,-0.174533,-0.174533,-0.652003,-0.805678,-0.152472,-0.175034,-0.249528,-0.246819,-0.330987,0.00746695
35,65,-0.654498,-0.814493,-0.174533,-0.174533,-0.652003,-0.805678,-0.152472,-0.175034,-0.249528,-0.246819,-0.330987,0.00746695
35,65,-0.654498,-0.814493,-0.174533,-0.174533,-0.652003,-0.805678,-0.152472,-0.175034,-0.249528,-0.246819,-0.330987,0.00746695
35,65,-0.654498,-0.814493,-0.174533,-0.174533,-0.652003,-0.805729,-0.152472,-0.175034,-0.249528,-0.245396,-0.330987,0.00746695
35,65,-0.654498,-0.814493,-0.174533,-0.174533,-0.652003,-0.805729,-0.152472,-0.175034,-0.249528,-0.245396,-0.330987,0.00746695
35,65,-0.654498,-0.814493,-0.174533,-0.174533,-0.652003,-0.805729,-0.152472,-0.175034,-0.249528,-0.245396,-0.330987,0.00746695
35,65,-0.654498,-0.814493,-0.174533,-0.174533,-0.652003,-0.805729,-0.152472,-0.175034,-0.249528,-0.245396,-0.330987,0.00746695
35,65,-0.654498,-0.814493,-0.174533,-0.174533,-0.652003,-0.805729,-0.152472,-0.175034,-0.249528,-0.245396,-0.330987,0.00746695
35,65,-0.654498,-0.814493,-0.174533,-0.174533,-0.652003,-0.805729,-0.152472,-0.175034,-0.249528,-0.245396,-0.330987,0.00746695
35,65,-0.654498,-0.814493,-0.174533,-0.174533,-0.652003,-0.805729,-0.152472,-0.175034,-0.249528,-0.245396,-0.330987,0.00746695
35,65,-0.654498,-0.814493,-0.174533,-0.174533,-0.652003,-0.805729,-0.152472,-0.175034,-0.249528,-0.245396,-0.330987,0.00746695
35,65,-0.654498,-0.814493,-0.174533,-0.174533,-0.652003,-0.805729,-0.152472,-0.175034,-0.249528,-0.245396,-0.330987,0.00746695
35,65,-0.654498,-0.814493,-0.174533,-0.174533,-0.652003,-0.805729,-0.152472,-0.175034,-0.249528,-0.245396,-0.330987,0.00746695
35,65,-0.654498,-0.814493,-0.174533,-0.174533,-0.652003,-0.805729,-0.152407,-0.174992,-0.249528,-0.245396,-0.331946,0.00684755
35,65,-0.654498,-0.814493,-0.174533,-0.174533,-0.652003,-0.805729,-0.152407,-0.174992,-0.249528,-0.245396,-0.331946,0.00684755
35,65,-0.654498,-0.814493,-0.174533,-0.174533,-0.652003,-0.805729,-0.152407,-0.174992,-0.249528,-0.245396,-0.331946,0.00684755
35,65,-0.654498,-0.814493,-0.174533,-0.174533,-0.652003,-0.805729,-0.152407,-0.174992,-0.249528,-0.245396,-0.331946,0.00684755
35,65,-0.654498,-0.814493,-0.174533,-0.174533,-0.652003,-0.805729,-0.152407,-0.174992,-0.249528,-0.245396,-0.331946,0.00684755
35,65,-0.654498,-0.814493,-0.174533,-0.174533,-0.652003,-0.805729,-0.152407,-0.174992,-0.249528,-0.245396,-0.331946,0.00684755
35,65,-0.654498,-0.814493,-0.174533,-0.174533,-0.652003,-0.805729,-0.152407,-0.174992,-0.249528,-0.245396,-0.331946,0.00684755
35,65,-0.654498,-0.814493,-0.174533,-0.174533,-0.652003,-0.805729,-0.152407,-0.174992,-0.249528,-0.245396,-0.331946,0.00684755
35,65,-0.654498,-0.814493,-0.174533,-0.174533,-0.652003,-0.805729,-0.152407,-0.174992,-0.249528,-0.245396,-0.331946,0.00684755
35,65,-0.654498,-0.814493,-0.174533,-0.174533,-0.652003,-0.805729,-0.152407,-0.174992,-0.249528,-0.245396,-0.331946,0.00684755
35,65,-0.654498,-0.814493,-0.174533,-0.174533,-0.652003,-0.805729,-0.152407,-0.174992,-0.249528,-0.245396,-0.331946,0.00684755
35,65,-0.654498,-0.814493,-0.174533,-0.174533,-0.652003,-0.805729,-0.152407,-0.174992,-0.249528,-0.245396,-0.331946,0.00684755
35,65,-0.654498,-0.814493,-0.174533,-0.174533,-0.652003,-0.805729,-0.152407,-0.174992,-0.249528,-0.245396,-0.331946,0.00684755
35,65,-0.654498,-0.814493,-0.174533,-0.174533,-0.652003,-0.805729,-0.152407,-0.174992,-0.249528,-0.245396,-0.331946,0.00684755
35,65,-0.654498,-0.814493,-0.174533,-0.174533,-0.652003,-0.805729,-0.152343,-0.17495,-0.249528,-0.245396,-0.332905,0.00622766
35,65,-0.654498,-0.814493,-0.174533,-0.174533,-0.652003,-0.805729,-0.152343,-0.17495,-0.249528,-0.245396,-0.332905,0.00622766
35,65,-0.654498,-0.814493,-0.174533,-0.174533,-0.652003,-0.805729,-0.152343,-0.17495,-0.249528,-0.245396,-0.332905,0.00622766
35,65,-0.654498,-0.814493,-0.174533,-0.174533,-0.652003,-0.805729,-0.152343,-0.17495,-0.249528,-0.245396,-0.332905,0.00622766
35,65,-0.654498,-0.814493,-0.174533,-0.174533,-0.652003,-0.805729,-0.152278,-0.174909,-0.249528,-0.245396,-0.333886,0.0055943
35,65,-0.654498,-0.814493,-0.174533,-0.174533,-0.652003,-0.805729,-0.152278,-0.174909,-0.249528,-0.245396,-0.333886,0.0055943
35,65,-0.654498,-0.814493,-0.174533,-0.174533,-0.652003,-0.805729,-0.152278,-0.174909,-0.249528,-0.245396,-0.333886,0.0055943
35,65,-0.654498,-0.814493,-0.174533,-0.174533,-0.652003,-0.805729,-0.152278,-0.174909,-0.249528,-0.245396,-0.333886,0.0055943
35,65,-0.654498,-0.814493,-0.174533,-0.174533,-0.652003,-0.805729,-0.152278,-0.174909,-0.249528,-0.245396,-0.333886,0.0055943
35,65,-0.654498,-0.814493,-0.174533,-0.174533,-0.652003,-0.805729,-0.152278,-0.174909,-0.249528,-0.245396,-0.333886,0.0055943
35,65,-0.654498,-0.814493,-0.174533,-0.174533,-0.652003,-0.805729,-0.152278,-0.174909,-0.249528,-0.245396,-0.333886,0.0055943
35,65,-0.654498,-0.814493,-0.174533,-0.174533,-0.652003,-0.805729,-0.152278,-0.174909,-0.249528,-0.245396,-0.333886,0.0055943
35,65,-0.654498,-0.814493,-0.174533,-0.174533,-0.652003,-0.805729,-0.152278,-0.174909,-0.249528,-0.245396,-0.333886,0.0055943
35,65,-0.654498,-0.814493,-0.174533,-0.174533,-0.652003,-0.805729,-0.152278,-0.174909,-0.249528,-0.245396,-0.333886,0.0055943
35,65,-0.654498,-0.814493,-0.174533,-0.174533,-0.652003,-0.805729,-0.152278,-0.174909,-0.249528,-0.245396,-0.333886,0.0055943
35,65,-0.654498,-0.814493,-0.174533,-0.174533,-0.652003,-0.805729,-0.152278,-0.174909,-0.249528,-0.245396,-0.333886,0.0055943
35,65,-0.654498,-0.814493,-0.174533,-0.174533,-0.652003,-0.805729,-0.152278,-0.174909,-0.249528,-0.245396,-0.333886,0.0055943
35,65,-0.654498,-0.814493,-0.174533,-0.174533,-0.652003,-0.805729,-0.152278,-0.174909,-0.249528,-0.245396,-0.333886,0.0055943
35,65,-0.654498,-0.814493,-0.174533,-0.174533,-0.652003,-0.805729,-0.152278,-0.174909,-0.249528,-0.245396,-0.333886,0.0055943
35,65,-0.654498,-0.814493,-0.174533,-0.174533,-0.652003,-0.805729,-0.152278,-0.174909,-0.249528,-0.245396,-0.333886,0.0055943
35,65,-0.654498,-0.814493,-0.174533,-0.174533,-0.652003,-0.805729,-0.152278,-0.174909,-0.249528,-0.245396,-0.333886,0.0055943
35,65,-0.654498,-0.814493,-0.174533,-0.174533,-0.652003,-0.805729,-0.152278,-0.174909,-0.249528,-0.245396,-0.333886,0.0055943
35,65,-0.654498,-0.814493,-0.174533,-0.174533,-0.652003,-0.805729,-0.152214,-0.174867,-0.249528,-0.245396,-0.334835,0.00498084
35,65,-0.654498,-0.814493,-0.174533,-0.174533,-0.652003,-0.805729,-0.152214,-0.174867,-0.249528,-0.245396,-0.334835,0.00498084
35,65,-0.654498,-0.814493,-0.174533,-0.174533,-0.652003,-0.805729,-0.152214,-0.174867,-0.249528,-0.245396,-0.334835,0.00498084
35,65,-0.654498,-0.814493,-0.174533,-0.174533,-0.652003,-0.805729,-0.152214,-0.174867,-0.249528,-0.245396,-0.334835,0.00498084
35,65,-0.654498,-0.814493,-0.174533,-0.174533,-0.652003,-0.805729,-0.152214,-0.174867,-0.249528,-0.245396,-0.334835,0.00498084
35,65,-0.654498,-0.814493,-0.174533,-0.174533,-0.652003,-0.805729,-0.152214,-0.174867,-0.249528,-0.245396,-0.334835,0.00498084
35,65,-0.654498,-0.814493,-0.174533,-0.174533,-0.652003,-0.805729,-0.152214,-0.174867,-0.249528,-0.245396,-0.334835,0.00498084
35,65,-0.654498,-0.814493,-0.174533,-0.174533,-0.652003,-0.805729,-0.152214,-0.174867,-0.249528,-0.245396,-0.334835,0.00498084
35,65,-0.654498,-0.814493,-0.174533,-0.174533,-0.652003,-0.805729,-0.152214,-0.174867,-0.249528,-0.245396,-0.334835,0.00498084
35,65,-0.654498,-0.814493,-0.174533,-0.174533,-0.652003,-0.805729,-0.152214,-0.174867,-0.249528,-0.245396,-0.334835,0.00498084
35,65,-0.654498,-0.814493,-0.174533,-0.174533,-0.652003,-0.805729,-0.152214,-0.174867,-0.249528,-0.245396,-0.334835,0.00498084
35,65,-0.654498,-0.814493,-0.174533,-0.174533,-0.652003,-0.805729,-0.152214,-0.174867,-0.249528,-0.245396,-0.334835,0.00498084
35,65,-0.654498,-0.814493,-0.174533,-0.174533,-0.652003,-0.805729,-0.152214,-0.174867,-0.249528,-0.245396,-0.334835,0.00498084
35,65,-0.654498,-0.814493,-0.174533,-0.174533,-0.652003,-0.805729,-0.152214,-0.174867,-0.249528,-0.245396,-0.334835,0.00498084
35,65,-0.654498,-0.814493,-0.174533,-0.174533,-0.652003,-0.805729,-0.152214,-0.174867,-0.249528,-0.245396,-0.334835,0.00498084
35,65,-0.654498,-0.814493,-0.174533,-0.174533,-0.652003,-0.805729,-0.15215,-0.174826,-0.249528,-0.245396,-0.335801,0.00435701
35,65,-0.654498,-0.814493,-0.174533,-0.174533,-0.652003,-0.805729,-0.15215,-0.174826,-0.249528,-0.245396,-0.335801,0.00435701
35,65,-0.654498,-0.814493,-0.174533,-0.174533,-0.652003,-0.805729,-0.15215,-0.174826,-0.249528,-0.245396,-0.335801,0.00435701
35,65,-0.654498,-0.814493,-0.174533,-0.174533,-0.652003,-0.805729,-0.15215,-0.174826,-0.249528,-0.245396,-0.335801,0.00435701
35,65,-0.654498,-0.814493,-0.174533,-0.174533,-0.652003,-0.805729,-0.15215,-0.174826,-0.249528,-0.245396,-0.335801,0.00435701
35,65,-0.654498,-0.814493,-0.174533,-0.174533,-0.652003,-0.805729,-0.15215,-0.174826,-0.249528,-0.245396,-0.335801,0.00435701
35,65,-0.654498,-0.814493,-0.174533,-0.174533,-0.652003,-0.80578,-0.15215,-0.174826,-0.249528,-0.243972,-0.335801,0.00435701
35,65,-0.654498,-0.814493,-0.174533,-0.174533,-0.652003,-0.80578,-0.15215,-0.174826,-0.249528,-0.243972,-0.335801,0.00435701
35,65,-0.654498,-0.814493,-0.174533,-0.174533,-0.652003,-0.80578,-0.15215,-0.174826,-0.249528,-0.243972,-0.335801,0.00435701
35,65,-0.654498,-0.814493,-0.174533,-0.174533,-0.652003,-0.80578,-0.15215,-0.174826,-0.249528,-0.243972,-0.335801,0.00435701
35,65,-0.654498,-0.814493,-0.174533,-0.174533,-0.652003,-0.80578,-0.15215,-0.174826,-0.249528,-0.243972,-0.335801,0.00435701
35,65,-0.654498,-0.814493,-0.174533,-0.174533,-0.652003,-0.80578,-0.15215,-0.174826,-0.249528,-0.243972,-0.335801,0.00435701
35,65,-0.654498,-0.814493,-0.174533,-0.174533,-0.652003,-0.80578,-0.15215,-0.174826,-0.249528,-0.243972,-0.335801,0.00435701
35,65,-0.654498,-0.814493,-0.174533,-0.174533,-0.652003,-0.80578,-0.15215,-0.174826,-0.249528,-0.243972,-0.335801,0.00435701
35,65,-0.654498,-0.814493,-0.174533,-0.174533,-0.652003,-0.80578,-0.15215,-0.174826,-0.249528,-0.243972,-0.335801,0.00435701
35,65,-0.654498,-0.814493,-0.174533,-0.174533,-0.652003,-0.80578,-0.15215,-0.174826,-0.249528,-0.243972,-0.335801,0.00435701
35,65,-0.654498,-0.814493,-0.174533,-0.174533,-0.652003,-0.80578,-0.15215,-0.174826,-0.249528,-0.243972,-0.335801,0.00435701
35,65,-0.654498,-0.814493,-0.174533,-0.174533,-0.652003,-0.80578,-0.15215,-0.174826,-0.249528,-0.243972,-0.335801,0.00435701
35,65,-0.654498,-0.814493,-0.174533,-0.174533,-0.652003,-0.80578,-0.15215,-0.174826,-0.249528,-0.243972,-0.335801,0.00435701
35,65,-0.654498,-0.814493,-0.174533,-0.174533,-0.652003,-0.80578,-0.15215,-0.174826,-0.249528,-0.243972,-0.335801,0.00435701
35,65,-0.654498,-0.814493,-0.174533,-0.174533,-0.652003,-0.80578,-0.15215,-0.174826,-0.249528,-0.243972,-0.335801,0.00435701
35,65,-0.654498,-0.814493,-0.174533,-0.174533,-0.652003,-0.80578,-0.15215,-0.174826,-0.249528,-0.243972,-0.335801,0.00435701
35,65,-0.654498,-0.814493,-0.174533,-0.174533,-0.652003,-0.80578,-0.15215,-0.174826,-0.249528,-0.243972,-0.335801,0.00435701
35,65,-0.654498,-0.814493,-0.174533,-0.174533,-0.652003,-0.80578,-0.15215,-0.174826,-0.249528,-0.243972,-0.335801,0.00435701
35,65,-0.654498,-0.814493,-0.174533,-0.174533,-0.652003,-0.80578,-0.152085,-0.174784,-0.249528,-0.243972,-0.336759,0.00373785
35,65,-0.654498,-0.814493,-0.174533,-0.174533,-0.652003,-0.80578,-0.152085,-0.174784,-0.249528,-0.243972,-0.336759,0.00373785
35,65,-0.654498,-0.814493,-0.174533,-0.174533,-0.652003,-0.80578,-0.152085,-0.174784,-0.249528,-0.243972,-0.336759,0.00373785
35,65,-0.654498,-0.814493,-0.174533,-0.174533,-0.652003,-0.80578,-0.152085,-0.174784,-0.249528,-0.243972,-0.336759,0.00373785
35,65,-0.654498,-0.814493,-0.174533,-0.174533,-0.652003,-0.80578,-0.152085,-0.174784,-0.249528,-0.243972,-0.336759,0.00373785
35,65,-0.654498,-0.814493,-0.174533,-0.174533,-0.652003,-0.80578,-0.152085,-0.174784,-0.249528,-0.243972,-0.336759,0.00373785
35,65,-0.654498,-0.814493,-0.174533,-0.174533,-0.652003,-0.80578,-0.152085,-0.174784,-0.249528,-0.243972,-0.336759,0.00373785
35,65,-0.654498,-0.814493,-0.174533,-0.174533,-0.652003,-0.80578,-0.152085,-0.174784,-0.249528,-0.243972,-0.336759,0.00373785
35,65,-0.654498,-0.814493,-0.174533,-0.174533,-0.652003,-0.80578,-0.152085,-0.174784,-0.249528,-0.243972,-0.336759,0.00373785
35,65,-0.654498,-0.814493,-0.174533,-0.174533,-0.652003,-0.80578,-0.152085,-0.174784,-0.249528,-0.243972,-0.336759,0.00373785
35,65,-0.654498,-0.814493,-0.174533,-0.174533,-0.652003,-0.80578,-0.152021,-0.174742,-0.249528,-0.243972,-0.337722,0.00311575
35,65,-0.654498,-0.814493,-0.174533,-0.174533,-0.652003,-0.80578,-0.152021,-0.174742,-0.249528,-0.243972,-0.337722,0.00311575
35,65,-0.654498,-0.814493,-0.174533,-0.174533,-0.652003,-0.80578,-0.152021,-0.174742,-0.249528,-0.243972,-0.337722,0.00311575
35,65,-0.654498,-0.814493,-0.174533,-0.174533,-0.652003,-0.80578,-0.152021,-0.174742,-0.249528,-0.243972,-0.337722,0.00311575
35,65,-0.654498,-0.814493,-0.174533,-0.174533,-0.652003,-0.80578,-0.152021,-0.174742,-0.249528,-0.243972,-0.337722,0.00311575
35,65,-0.654498,-0.814493,-0.174533,-0.174533,-0.652003,-0.80578,-0.152021,-0.174742,-0.249528,-0.243972,-0.337722,0.00311575
35,65,-0.654498,-0.814493,-0.174533,-0.174533,-0.652003,-0.80578,-0.152021,-0.174742,-0.249528,-0.243972,-0.337722,0.00311575
35,65,-0.654498,-0.814493,-0.174533,-0.174533,-0.652003,-0.80578,-0.152021,-0.174742,-0.249528,-0.243972,-0.337722,0.00311575
35,65,-0.654498,-0.814493,-0.174533,-0.174533,-0.652003,-0.80578,-0.152021,-0.174742,-0.249528,-0.243972,-0.337722,0.00311575
35,65,-0.654498,-0.814493,-0.174533,-0.174533,-0.652003,-0.80578,-0.152021,-0.174742,-0.249528,-0.243972,-0.337722,0.00311575
35,65,-0.654498,-0.814493,-0.174533,-0.174533,-0.652003,-0.80578,-0.152021,-0.174742,-0.249528,-0.243972,-0.337722,0.00311575
35,65,-0.654498,-0.814493,-0.174533,-0.174533,-0.652003,-0.80578,-0.152021,-0.174742,-0.249528,-0.243972,-0.337722,0.00311575
35,65,-0.654498,-0.814493,-0.174533,-0.174533,-0.652003,-0.80578,-0.152021,-0.174742,-0.249528,-0.243972,-0.337722,0.00311575
35,65,-0.654498,-0.814493,-0.174533,-0.174533,-0.652003,-0.80578,-0.152021,-0.174742,-0.249528,-0.243972,-0.337722,0.00311575
35,65,-0.654498,-0.814493,-0.174533,-0.174533,-0.652003,-0.80578,-0.152021,-0.174742,-0.249528,-0.243972,-0.337722,0.00311575
35,65,-0.654498,-0.814493,-0.174533,-0.174533,-0.652003,-0.80578,-0.152021,-0.174742,-0.249528,-0.243972,-0.337722,0.00311575
35,65,-0.654498,-0.814493,-0.174533,-0.174533,-0.652003,-0.80578,-0.152021,-0.174742,-0.249528,-0.243972,-0.337722,0.00311575
35,65,-0.654498,-0.814493,-0.174533,-0.174533,-0.652003,-0.80578,-0.152021,-0.174742,-0.249528,-0.243972,-0.337722,0.00311575
35,65,-0.654498,-0.814493,-0.174533,-0.174533,-0.652003,-0.80578,-0.152021,-0.174742,-0.249528,-0.243972,-0.337722,0.00311575
35,65,-0.654498,-0.814493,-0.174533,-0.174533,-0.652003,-0.80578,-0.152021,-0.174742,-0.249528,-0.243972,-0.337722,0.00311575
35,65,-0.654498,-0.814493,-0.174533,-0.174533,-0.652003,-0.80578,-0.152021,-0.174742,-0.249528,-0.243972,-0.337722,0.00311575
35,65,-0.654498,-0.814493,-0.174533,-0.174533,-0.652003,-0.80583,-0.152021,-0.174742,-0.249528,-0.242548,-0.337722,0.00311575
35,65,-0.654498,-0.814493,-0.174533,-0.174533,-0.652003,-0.80583,-0.152021,-0.174742,-0.249528,-0.242548,-0.337722,0.00311575
35,65,-0.654498,-0.814493,-0.174533,-0.174533,-0.652003,-0.80583,-0.152021,-0.174742,-0.249528,-0.242548,-0.337722,0.00311575
35,65,-0.654498,-0.814493,-0.174533,-0.174533,-0.652003,-0.80583,-0.152021,-0.174742,-0.249528,-0.242548,-0.337722,0.00311575
35,65,-0.654498,-0.814493,-0.174533,-0.174533,-0.652003,-0.80583,-0.152021,-0.174742,-0.249528,-0.242548,-0.337722,0.00311575
35,65,-0.654498,-0.814493,-0.174533,-0.174533,-0.652003,-0.80583,-0.152021,-0.174742,-0.249528,-0.242548,-0.337722,0.00311575
35,65,-0.654498,-0.814493,-0.174533,-0.174533,-0.652003,-0.80583,-0.152021,-0.174742,-0.249528,-0.242548,-0.337722,0.00311575
35,65,-0.654498,-0.814493,-0.174533,-0.174533,-0.652003,-0.80583,-0.152021,-0.174742,-0.249528,-0.242548,-0.337722,0.00311575
35,65,-0.654498,-0.814493,-0.174533,-0.174533,-0.652003,-0.80583,-0.152021,-0.174742,-0.249528,-0.242548,-0.337722,0.00311575
35,65,-0.654498,-0.814493,-0.174533,-0.174533,-0.652003,-0.80583,-0.152021,-0.174742,-0.249528,-0.242548,-0.337722,0.00311575
35,65,-0.654498,-0.814493,-0.174533,-0.174533,-0.652003,-0.80583,-0.152021,-0.174742,-0.249528,-0.242548,-0.337722,0.00311575
35,65,-0.654498,-0.814493,-0.174533,-0.174533,-0.652003,-0.80583,-0.151956,-0.174701,-0.249528,-0.242548,-0.338682,0.00249576
35,65,-0.654498,-0.814493,-0.174533,-0.174533,-0.652003,-0.80583,-0.151956,-0.174701,-0.249528,-0.242548,-0.338682,0.00249576
35,65,-0.654498,-0.814493,-0.174533,-0.174533,-0.652003,-0.80583,-0.151956,-0.174701,-0.249528,-0.242548,-0.338682,0.00249576
35,65,-0.654498,-0.814493,-0.174533,-0.174533,-0.652003,-0.80583,-0.151956,-0.174701,-0.249528,-0.242548,-0.338682,0.00249576
35,65,-0.654498,-0.814493,-0.174533,-0.174533,-0.652003,-0.80583,-0.151956,-0.174701,-0.249528,-0.242548,-0.338682,0.00249576
35,65,-0.654498,-0.814493,-0.174533,-0.174533,-0.652003,-0.80583,-0.151956,-0.174701,-0.249528,-0.242548,-0.338682,0.00249576
35,65,-0.654498,-0.814493,-0.174533,-0.174533,-0.652003,-0.80583,-0.151956,-0.174701,-0.249528,-0.242548,-0.338682,0.00249576
35,65,-0.654498,-0.814493,-0.174533,-0.174533,-0.652003,-0.80583,-0.151956,-0.174701,-0.249528,-0.242548,-0.338682,0.00249576
35,65,-0.654498,-0.814493,-0.174533,-0.174533,-0.652003,-0.80583,-0.151956,-0.174701,-0.249528,-0.242548,-0.338682,0.00249576
35,65,-0.654498,-0.814493,-0.174533,-0.174533,-0.652003,-0.80583,-0.151956,-0.174701,-0.249528,-0.242548,-0.338682,0.00249576
35,65,-0.654498,-0.814493,-0.174533,-0.174533,-0.652003,-0.80583,-0.151956,-0.174701,-0.249528,-0.242548,-0.338682,0.00249576
35,65,-0.654498,-0.814493,-0.174533,-0.174533,-0.652003,-0.80583,-0.151956,-0.174701,-0.249528,-0.242548,-0.338682,0.00249576
35,65,-0.654498,-0.814493,-0.174533,-0.174533,-0.652003,-0.80583,-0.151956,-0.174701,-0.249528,-0.242548,-0.338682,0.00249576
35,65,-0.654498,-0.814493,-0.174533,-0.174533,-0.652003,-0.80583,-0.151956,-0.174701,-0.249528,-0.242548,-0.338682,0.00249576
35,65,-0.654498,-0.814493,-0.174533,-0.174533,-0.652003,-0.80583,-0.151956,-0.174701,-0.249528,-0.242548,-0.338682,0.00249576
35,65,-0.654498,-0.814493,-0.174533,-0.174533,-0.652003,-0.80583,-0.151956,-0.174701,-0.249528,-0.242548,-0.338682,0.00249576
35,65,-0.654498,-0.814493,-0.174533,-0.174533,-0.652003,-0.80583,-0.151956,-0.174701,-0.249528,-0.242548,-0.338682,0.00249576
35,65,-0.654498,-0.814493,-0.174533,-0.174533,-0.652003,-0.80583,-0.151956,-0.174701,-0.249528,-0.242548,-0.338682,0.00249576
35,65,-0.654498,-0.814493,-0.174533,-0.174533,-0.652003,-0.80583,-0.151956,-0.174701,-0.249528,-0.242548,-0.338682,0.00249576
35,65,-0.654498,-0.814493,-0.174533,-0.174533,-0.652003,-0.80583,-0.151956,-0.174701,-0.249528,-0.242548,-0.338682,0.00249576
35,65,-0.654498,-0.814493,-0.174533,-0.174533,-0.652003,-0.80583,-0.151956,-0.174701,-0.249528,-0.242548,-0.338682,0.00249576
35,65,-0.654498,-0.814493,-0.174533,-0.174533,-0.652003,-0.80583,-0.151956,-0.174701,-0.249528,-0.242548,-0.338682,0.00249576
35,65,-0.654498,-0.814493,-0.174533,-0.174533,-0.652003,-0.80583,-0.151956,-0.174701,-0.249528,-0.242548,-0.338682,0.00249576
35,65,-0.654498,-0.814493,-0.174533,-0.174533,-0.652003,-0.80583,-0.151956,-0.174701,-0.249528,-0.242548,-0.338682,0.00249576
35,65,-0.654498,-0.814493,-0.174533,-0.174533,-0.652003,-0.80583,-0.151956,-0.174701,-0.249528,-0.242548,-0.338682,0.00249576
35,65,-0.654498,-0.814493,-0.174533,-0.174533,-0.652003,-0.80583,-0.151956,-0.174701,-0.249528,-0.242548,-0.338682,0.00249576
35,65,-0.654498,-0.814493,-0.174533,-0.174533,-0.652003,-0.80583,-0.151956,-0.174701,-0.249528,-0.242548,-0.338682,0.00249576
35,65,-0.654498,-0.814493,-0.174533,-0.174533,-0.652003,-0.80583,-0.151956,-0.174701,-0.249528,-0.242548,-0.338682,0.00249576
35,65,-0.654498,-0.814493,-0.174533,-0.174533,-0.652003,-0.80583,-0.151956,-0.174701,-0.249528,-0.242548,-0.338682,0.00249576
35,65,-0.654498,-0.814493,-0.174533,-0.174533,-0.652003,-0.80583,-0.151956,-0.174701,-0.249528,-0.242548,-0.338682,0.00249576
35,65,-0.654498,-0.814493,-0.174533,-0.174533,-0.652003,-0.80583,-0.151956,-0.174701,-0.249528,-0.242548,-0.338682,0.00249576
35,65,-0.654498,-0.814493,-0.174533,-0.174533,-0.652003,-0.80583,-0.151956,-0.174701,-0.249528,-0.242548,-0.338682,0.00249576
35,65,-0.654498,-0.814493,-0.174533,-0.174533,-0.652003,-0.80583,-0.151956,-0.174701,-0.249528,-0.242548,-0.338682,0.00249576
35,65,-0.654498,-0.814493,-0.174533,-0.174533,-0.652003,-0.80583,-0.151956,-0.174701,-0.249528,-0.242548,-0.338682,0.00249576
35,65,-0.654498,-0.814493,-0.174533,-0.174533,-0.652003,-0.80583,-0.151956,-0.174701,-0.249528,-0.242548,-0.338682,0.00249576
35,65,-0.654498,-0.814493,-0.174533,-0.174533,-0.652003,-0.80583,-0.151956,-0.174701,-0.249528,-0.242548,-0.338682,0.00249576
35,65,-0.654498,-0.814493,-0.174533,-0.174533,-0.652003,-0.80583,-0.151956,-0.174701,-0.249528,-0.242548,-0.338682,0.00249576
35,65,-0.654498,-0.814493,-0.174533,-0.174533,-0.652003,-0.80583,-0.151956,-0.174701,-0.249528,-0.242548,-0.338682,0.00249576
35,65,-0.654498,-0.814493,-0.174533,-0.174533,-0.652003,-0.80583,-0.151956,-0.174701,-0.249528,-0.242548,-0.338682,0.00249576
35,65,-0.654498,-0.814493,-0.174533,-0.174533,-0.652003,-0.80583,-0.151892,-0.174659,-0.249528,-0.242548,-0.339617,0.001892
35,65,-0.654498,-0.814493,-0.174533,-0.174533,-0.652003,-0.80583,-0.151892,-0.174659,-0.249528,-0.242548,-0.339617,0.001892
35,65,-0.654498,-0.814493,-0.174533,-0.174533,-0.652003,-0.80583,-0.151892,-0.174659,-0.249528,-0.242548,-0.339617,0.001892
35,65,-0.654498,-0.814493,-0.174533,-0.174533,-0.652003,-0.80583,-0.151892,-0.174659,-0.249528,-0.242548,-0.339617,0.001892
35,65,-0.654498,-0.814493,-0.174533,-0.174533,-0.652003,-0.80583,-0.151892,-0.174659,-0.249528,-0.242548,-0.339617,0.001892
35,65,-0.654498,-0.814493,-0.174533,-0.174533,-0.652003,-0.80583,-0.151892,-0.174659,-0.249528,-0.242548,-0.339617,0.001892
35,65,-0.654498,-0.814493,-0.174533,-0.174533,-0.652003,-0.80583,-0.151892,-0.174659,-0.249528,-0.242548,-0.339617,0.001892
35,65,-0.654498,-0.814493,-0.174533,-0.174533,-0.652003,-0.80583,-0.151892,-0.174659,-0.249528,-0.242548,-0.339617,0.001892
35,65,-0.654498,-0.814493,-0.174533,-0.174533,-0.652003,-0.80583,-0.151892,-0.174659,-0.249528,-0.242548,-0.339617,0.001892
35,65,-0.654498,-0.814493,-0.174533,-0.174533,-0.652003,-0.80583,-0.151892,-0.174659,-0.249528,-0.242548,-0.339617,0.001892
35,65,-0.654498,-0.814493,-0.174533,-0.174533,-0.652003,-0.80583,-0.151892,-0.174659,-0.249528,-0.242548,-0.339617,0.001892
35,65,-0.654498,-0.814493,-0.174533,-0.174533,-0.652003,-0.80583,-0.151892,-0.174659,-0.249528,-0.242548,-0.339617,0.001892
35,65,-0.654498,-0.814493,-0.174533,-0.174533,-0.652003,-0.80583,-0.151892,-0.174659,-0.249528,-0.242548,-0.339617,0.001892
35,65,-0.654498,-0.814493,-0.174533,-0.174533,-0.652003,-0.80583,-0.151892,-0.174659,-0.249528,-0.242548,-0.339617,0.001892
35,65,-0.654498,-0.814493,-0.174533,-0.174533,-0.652003,-0.80583,-0.151892,-0.174659,-0.249528,-0.242548,-0.339617,0.001892
35,65,-0.654498,-0.814493,-0.174533,-0.174533,-0.652003,-0.80583,-0.151892,-0.174659,-0.249528,-0.242548,-0.339617,0.001892
35,65,-0.654498,-0.814493,-0.174533,-0.174533,-0.652003,-0.80583,-0.151892,-0.174659,-0.249528,-0.242548,-0.339617,0.001892
35,65,-0.654498,-0.814493,-0.174533,-0.174533,-0.652003,-0.80583,-0.151892,-0.174659,-0.249528,-0.242548,-0.339617,0.001892
35,65,-0.654498,-0.814493,-0.174533,-0.174533,-0.652003,-0.80583,-0.151892,-0.174659,-0.249528,-0.242548,-0.339617,0.001892
35,65,-0.654498,-0.814493,-0.174533,-0.174533,-0.652003,-0.80583,-0.151827,-0.174617,-0.249528,-0.242548,-0.340583,0.00126777
35,65,-0.654498,-0.814493,-0.174533,-0.174533,-0.652003,-0.80583,-0.151827,-0.174617,-0.249528,-0.242548,-0.340583,0.00126777
35,65,-0.654498,-0.814493,-0.174533,-0.174533,-0.652003,-0.80583,-0.151827,-0.174617,-0.249528,-0.242548,-0.340583,0.00126777
35,65,-0.654498,-0.814493,-0.174533,-0.174533,-0.652003,-0.80583,-0.151827,-0.174617,-0.249528,-0.242548,-0.340583,0.00126777
35,65,-0.654498,-0.814493,-0.174533,-0.174533,-0.652003,-0.80583,-0.151827,-0.174617,-0.249528,-0.242548,-0.340583,0.00126777
35,65,-0.654498,-0.814493,-0.174533,-0.174533,-0.652003,-0.80583,-0.151827,-0.174617,-0.249528,-0.242548,-0.340583,0.00126777
35,65,-0.654498,-0.814493,-0.174533,-0.174533,-0.652003,-0.80583,-0.151827,-0.174617,-0.249528,-0.242548,-0.340583,0.00126777
35,65,-0.654498,-0.814493,-0.174533,-0.174533,-0.652003,-0.80583,-0.151827,-0.174617,-0.249528,-0.242548,-0.340583,0.00126777
35,65,-0.654498,-0.814493,-0.174533,-0.174533,-0.652003,-0.80583,-0.151827,-0.174617,-0.249528,-0.242548,-0.340583,0.00126777
35,65,-0.654498,-0.814493,-0.174533,-0.174533,-0.652003,-0.80583,-0.151827,-0.174617,-0.249528,-0.242548,-0.340583,0.00126777
35,65,-0.654498,-0.814493,-0.174533,-0.174533,-0.652003,-0.80583,-0.151827,-0.174617,-0.249528,-0.242548,-0.340583,0.00126777
35,65,-0.654498,-0.814493,-0.174533,-0.174533,-0.652003,-0.80583,-0.151827,-0.174617,-0.249528,-0.242548,-0.340583,0.00126777
35,65,-0.654498,-0.814493,-0.174533,-0.174533,-0.652003,-0.80583,-0.151827,-0.174617,-0.249528,-0.242548,-0.340583,0.00126777
35,65,-0.654498,-0.814493,-0.174533,-0.174533,-0.652003,-0.80583,-0.151763,-0.174576,-0.249528,-0.242548,-0.341549,0.000643598
35,65,-0.654498,-0.814493,-0.174533,-0.174533,-0.652003,-0.80583,-0.151763,-0.174576,-0.249528,-0.242548,-0.341549,0.000643598
35,65,-0.654498,-0.814493,-0.174533,-0.174533,-0.652003,-0.80583,-0.151763,-0.174576,-0.249528,-0.242548,-0.341549,0.000643598
35,65,-0.654498,-0.814493,-0.174533,-0.174533,-0.652003,-0.80583,-0.151699,-0.174534,-0.249528,-0.242548,-0.34255,-2.91699e-06
35,65,-0.654498,-0.814493,-0.174533,-0.174533,-0.652003,-0.80583,-0.151699,-0.174534,-0.249528,-0.242548,-0.34255,-2.91699e-06
35,65,-0.654498,-0.814493,-0.174533,-0.174533,-0.652003,-0.80583,-0.151699,-0.174534,-0.249528,-0.242548,-0.34255,-2.91699e-06
35,65,-0.654498,-0.814493,-0.174533,-0.174533,-0.652003,-0.80583,-0.151699,-0.174534,-0.249528,-0.242548,-0.34255,-2.91699e-06
35,65,-0.654498,-0.814493,-0.174533,-0.174533,-0.652003,-0.80583,-0.151699,-0.174534,-0.249528,-0.242548,-0.34255,-2.91699e-06
35,65,-0.654498,-0.814493,-0.174533,-0.174533,-0.652003,-0.80583,-0.151699,-0.174534,-0.249528,-0.242548,-0.34255,-2.91699e-06
35,65,-0.654498,-0.814493,-0.174533,-0.174533,-0.652003,-0.80583,-0.151699,-0.174534,-0.249528,-0.242548,-0.34255,-2.91699e-06
35,65,-0.654498,-0.814493,-0.174533,-0.174533,-0.652003,-0.80583,-0.151699,-0.174534,-0.249528,-0.242548,-0.34255,-2.91699e-06
35,65,-0.654498,-0.814493,-0.174533,-0.174533,-0.652003,-0.80583,-0.151699,-0.174534,-0.249528,-0.242548,-0.34255,-2.91699e-06
35,65,-0.654498,-0.814493,-0.174533,-0.174533,-0.652003,-0.805881,-0.151699,-0.174534,-0.249528,-0.241125,-0.34255,-2.91699e-06
35,65,-0.654498,-0.814493,-0.174533,-0.174533,-0.652003,-0.805881,-0.151699,-0.174534,-0.249528,-0.241125,-0.34255,-2.91699e-06
35,65,-0.654498,-0.814493,-0.174533,-0.174533,-0.652003,-0.805881,-0.151699,-0.174534,-0.249528,-0.241125,-0.34255,-2.91699e-06
35,65,-0.654498,-0.814493,-0.174533,-0.174533,-0.652003,-0.805881,-0.151699,-0.174534,-0.249528,-0.241125,-0.34255,-2.91699e-06
35,65,-0.654498,-0.814493,-0.174533,-0.174533,-0.652003,-0.805881,-0.151699,-0.174534,-0.249528,-0.241125,-0.34255,-2.91699e-06
35,65,-0.654498,-0.814493,-0.174533,-0.174533,-0.652003,-0.805881,-0.151634,-0.174493,-0.249528,-0.241125,-0.343533,-0.000638265
35,65,-0.654498,-0.814493,-0.174533,-0.174533,-0.652003,-0.805881,-0.151634,-0.174493,-0.249528,-0.241125,-0.343533,-0.000638265
35,65,-0.654498,-0.814493,-0.174533,-0.174533,-0.652003,-0.805881,-0.151634,-0.174493,-0.249528,-0.241125,-0.343533,-0.000638265
35,65,-0.654498,-0.814493,-0.174533,-0.174533,-0.652003,-0.805881,-0.151634,-0.174493,-0.249528,-0.241125,-0.343533,-0.000638265
35,65,-0.654498,-0.814493,-0.174533,-0.174533,-0.652003,-0.805881,-0.151634,-0.174493,-0.249528,-0.241125,-0.343533,-0.000638265
35,65,-0.654498,-0.814493,-0.174533,-0.174533,-0.652003,-0.805881,-0.151634,-0.174493,-0.249528,-0.241125,-0.343533,-0.000638265
35,65,-0.654498,-0.814493,-0.174533,-0.174533,-0.652003,-0.805881,-0.151634,-0.174493,-0.249528,-0.241125,-0.343533,-0.000638265
35,65,-0.654498,-0.814493,-0.174533,-0.174533,-0.652003,-0.805881,-0.151634,-0.174493,-0.249528,-0.241125,-0.343533,-0.000638265
35,65,-0.654498,-0.814493,-0.174533,-0.174533,-0.652003,-0.805881,-0.151634,-0.174493,-0.249528,-0.241125,-0.343533,-0.000638265
35,65,-0.654498,-0.814493,-0.174533,-0.174533,-0.652003,-0.805881,-0.151634,-0.174493,-0.249528,-0.241125,-0.343533,-0.000638265
35,65,-0.654498,-0.814493,-0.174533,-0.174533,-0.652003,-0.805881,-0.151634,-0.174493,-0.249528,-0.241125,-0.343533,-0.000638265
35,65,-0.654498,-0.814493,-0.174533,-0.174533,-0.652003,-0.805881,-0.151634,-0.174493,-0.249528,-0.241125,-0.343533,-0.000638265
35,65,-0.654498,-0.814493,-0.174533,-0.174533,-0.652003,-0.805881,-0.151634,-0.174493,-0.249528,-0.241125,-0.343533,-0.000638265
35,65,-0.654498,-0.814493,-0.174533,-0.174533,-0.652003,-0.805881,-0.151634,-0.174493,-0.249528,-0.241125,-0.343533,-0.000638265
35,65,-0.654498,-0.814493,-0.174533,-0.174533,-0.652003,-0.805881,-0.151634,-0.174493,-0.249528,-0.241125,-0.343533,-0.000638265
35,65,-0.654498,-0.814493,-0.174533,-0.174533,-0.652003,-0.805881,-0.151634,-0.174493,-0.249528,-0.241125,-0.343533,-0.000638265
35,65,-0.654498,-0.814493,-0.174533,-0.174533,-0.652003,-0.805881,-0.151634,-0.174493,-0.249528,-0.241125,-0.343533,-0.000638265
35,65,-0.654498,-0.814493,-0.174533,-0.174533,-0.652003,-0.805881,-0.151634,-0.174493,-0.249528,-0.241125,-0.343533,-0.000638265
35,65,-0.654498,-0.814493,-0.174533,-0.174533,-0.652003,-0.805881,-0.151634,-0.174493,-0.249528,-0.241125,-0.343533,-0.000638265
35,65,-0.654498,-0.814493,-0.174533,-0.174533,-0.652003,-0.805881,-0.15157,-0.174451,-0.249528,-0.241125,-0.344499,-0.00126226
35,65,-0.654498,-0.814493,-0.174533,-0.174533,-0.652003,-0.805881,-0.15157,-0.174451,-0.249528,-0.241125,-0.344499,-0.00126226
35,65,-0.654498,-0.814493,-0.174533,-0.174533,-0.652003,-0.805881,-0.15157,-0.174451,-0.249528,-0.241125,-0.344499,-0.00126226
35,65,-0.654498,-0.814493,-0.174533,-0.174533,-0.652003,-0.805881,-0.15157,-0.174451,-0.249528,-0.241125,-0.344499,-0.00126226
35,65,-0.654498,-0.814493,-0.174533,-0.174533,-0.652003,-0.805881,-0.15157,-0.174451,-0.249528,-0.241125,-0.344499,-0.00126226
35,65,-0.654498,-0.814493,-0.174533,-0.174533,-0.652003,-0.805881,-0.15157,-0.174451,-0.249528,-0.241125,-0.344499,-0.00126226
35,65,-0.654498,-0.814493,-0.174533,-0.174533,-0.652003,-0.805881,-0.15157,-0.174451,-0.249528,-0.241125,-0.344499,-0.00126226
35,65,-0.654498,-0.814493,-0.174533,-0.174533,-0.652003,-0.805881,-0.15157,-0.174451,-0.249528,-0.241125,-0.344499,-0.00126226
35,65,-0.654498,-0.814493,-0.174533,-0.174533,-0.652003,-0.805881,-0.15157,-0.174451,-0.249528,-0.241125,-0.344499,-0.00126226
35,65,-0.654498,-0.814493,-0.174533,-0.174533,-0.652003,-0.805881,-0.15157,-0.174451,-0.249528,-0.241125,-0.344499,-0.00126226
35,65,-0.654498,-0.814493,-0.174533,-0.174533,-0.652003,-0.805881,-0.15157,-0.174451,-0.249528,-0.241125,-0.344499,-0.00126226
35,65,-0.654498,-0.814493,-0.174533,-0.174533,-0.652003,-0.805881,-0.15157,-0.174451,-0.249528,-0.241125,-0.344499,-0.00126226
35,65,-0.654498,-0.814493,-0.174533,-0.174533,-0.652003,-0.805881,-0.15157,-0.174451,-0.249528,-0.241125,-0.344499,-0.00126226
35,65,-0.654498,-0.814493,-0.174533,-0.174533,-0.652003,-0.805881,-0.15157,-0.174451,-0.249528,-0.241125,-0.344499,-0.00126226
35,65,-0.654498,-0.814493,-0.174533,-0.174533,-0.652003,-0.805881,-0.15157,-0.174451,-0.249528,-0.241125,-0.344499,-0.00126226
35,65,-0.654498,-0.814493,-0.174533,-0.174533,-0.652003,-0.805881,-0.151505,-0.174409,-0.249528,-0.241125,-0.345463,-0.00188536
35,65,-0.654498,-0.814493,-0.174533,-0.174533,-0.652003,-0.805881,-0.151505,-0.174409,-0.249528,-0.241125,-0.345463,-0.00188536
35,65,-0.654498,-0.814493,-0.174533,-0.174533,-0.652003,-0.805881,-0.151505,-0.174409,-0.249528,-0.241125,-0.345463,-0.00188536
35,65,-0.654498,-0.814493,-0.174533,-0.174533,-0.652003,-0.805881,-0.151505,-0.174409,-0.249528,-0.241125,-0.345463,-0.00188536
35,65,-0.654498,-0.814493,-0.174533,-0.174533,-0.652003,-0.805881,-0.151505,-0.174409,-0.249528,-0.241125,-0.345463,-0.00188536
35,65,-0.654498,-0.814493,-0.174533,-0.174533,-0.652003,-0.805881,-0.151505,-0.174409,-0.249528,-0.241125,-0.345463,-0.00188536
35,65,-0.654498,-0.814493,-0.174533,-0.174533,-0.652003,-0.805881,-0.151505,-0.174409,-0.249528,-0.241125,-0.345463,-0.00188536
35,65,-0.654498,-0.814493,-0.174533,-0.174533,-0.652003,-0.805881,-0.151505,-0.174409,-0.249528,-0.241125,-0.345463,-0.00188536
35,65,-0.654498,-0.814493,-0.174533,-0.174533,-0.652003,-0.805881,-0.151505,-0.174409,-0.249528,-0.241125,-0.345463,-0.00188536
35,65,-0.654498,-0.814493,-0.174533,-0.174533,-0.652003,-0.805881,-0.151505,-0.174409,-0.249528,-0.241125,-0.345463,-0.00188536
35,65,-0.654498,-0.814493,-0.174533,-0.174533,-0.652003,-0.805881,-0.151505,-0.174409,-0.249528,-0.241125,-0.345463,-0.00188536
35,65,-0.654498,-0.814493,-0.174533,-0.174533,-0.652003,-0.805881,-0.151505,-0.174409,-0.249528,-0.241125,-0.345463,-0.00188536
35,65,-0.654498,-0.814493,-0.174533,-0.174533,-0.652003,-0.805881,-0.151505,-0.174409,-0.249528,-0.241125,-0.345463,-0.00188536
35,65,-0.654498,-0.814493,-0.174533,-0.174533,-0.652003,-0.805881,-0.151505,-0.174409,-0.249528,-0.241125,-0.345463,-0.00188536
35,65,-0.654498,-0.814493,-0.174533,-0.174533,-0.652003,-0.805881,-0.151505,-0.174409,-0.249528,-0.241125,-0.345463,-0.00188536
35,65,-0.654498,-0.814493,-0.174533,-0.174533,-0.652003,-0.805881,-0.151505,-0.174409,-0.249528,-0.241125,-0.345463,-0.00188536
35,65,-0.654498,-0.814493,-0.174533,-0.174533,-0.652003,-0.805881,-0.151505,-0.174409,-0.249528,-0.241125,-0.345463,-0.00188536
35,65,-0.654498,-0.814493,-0.174533,-0.174533,-0.652003,-0.805881,-0.151441,-0.174368,-0.249528,-0.241125,-0.346417,-0.00250206
35,65,-0.654498,-0.814493,-0.174533,-0.174533,-0.652003,-0.805881,-0.151441,-0.174368,-0.249528,-0.241125,-0.346417,-0.00250206
35,65,-0.654498,-0.814493,-0.174533,-0.174533,-0.652003,-0.805881,-0.151441,-0.174368,-0.249528,-0.241125,-0.346417,-0.00250206
35,65,-0.654498,-0.814493,-0.174533,-0.174533,-0.652003,-0.805881,-0.151441,-0.174368,-0.249528,-0.241125,-0.346417,-0.00250206
35,65,-0.654498,-0.814493,-0.174533,-0.174533,-0.652003,-0.805881,-0.151441,-0.174368,-0.249528,-0.241125,-0.346417,-0.00250206
35,65,-0.654498,-0.814493,-0.174533,-0.174533,-0.652003,-0.805881,-0.151441,-0.174368,-0.249528,-0.241125,-0.346417,-0.00250206
35,65,-0.654498,-0.814493,-0.174533,-0.174533,-0.652003,-0.805881,-0.151441,-0.174368,-0.249528,-0.241125,-0.346417,-0.00250206
35,65,-0.654498,-0.814493,-0.174533,-0.174533,-0.652003,-0.805881,-0.151377,-0.174326,-0.249528,-0.241125,-0.347388,-0.00312901
35,65,-0.654498,-0.814493,-0.174533,-0.174533,-0.652003,-0.805881,-0.151377,-0.174326,-0.249528,-0.241125,-0.347388,-0.00312901
35,65,-0.654498,-0.814493,-0.174533,-0.174533,-0.652003,-0.805881,-0.151377,-0.174326,-0.249528,-0.241125,-0.347388,-0.00312901
35,65,-0.654498,-0.814493,-0.174533,-0.174533,-0.652003,-0.805881,-0.151377,-0.174326,-0.249528,-0.241125,-0.347388,-0.00312901
35,65,-0.654498,-0.814493,-0.174533,-0.174533,-0.652003,-0.805881,-0.151377,-0.174326,-0.249528,-0.241125,-0.347388,-0.00312901
35,65,-0.654498,-0.814493,-0.174533,-0.174533,-0.652003,-0.805881,-0.151377,-0.174326,-0.249528,-0.241125,-0.347388,-0.00312901
35,65,-0.654498,-0.814493,-0.174533,-0.174533,-0.652003,-0.805881,-0.151377,-0.174326,-0.249528,-0.241125,-0.347388,-0.00312901
35,65,-0.654498,-0.814493,-0.174533,-0.174533,-0.652003,-0.805881,-0.151377,-0.174326,-0.249528,-0.241125,-0.347388,-0.00312901
35,65,-0.654498,-0.814493,-0.174533,-0.174533,-0.652003,-0.805881,-0.151377,-0.174326,-0.249528,-0.241125,-0.347388,-0.00312901
35,65,-0.654498,-0.814493,-0.174533,-0.174533,-0.652003,-0.805881,-0.151377,-0.174326,-0.249528,-0.241125,-0.347388,-0.00312901
35,65,-0.654498,-0.814493,-0.174533,-0.174533,-0.652003,-0.805881,-0.151377,-0.174326,-0.249528,-0.241125,-0.347388,-0.00312901
35,65,-0.654498,-0.814493,-0.174533,-0.174533,-0.652003,-0.805881,-0.151377,-0.174326,-0.249528,-0.241125,-0.347388,-0.00312901
35,65,-0.654498,-0.814493,-0.174533,-0.174533,-0.652003,-0.805881,-0.151377,-0.174326,-0.249528,-0.241125,-0.347388,-0.00312901
35,65,-0.654498,-0.814493,-0.174533,-0.174533,-0.652003,-0.805881,-0.151377,-0.174326,-0.249528,-0.241125,-0.347388,-0.00312901
35,65,-0.654498,-0.814493,-0.174533,-0.174533,-0.652003,-0.805881,-0.151377,-0.174326,-0.249528,-0.241125,-0.347388,-0.00312901
35,65,-0.654498,-0.814493,-0.174533,-0.174533,-0.652003,-0.805881,-0.151377,-0.174326,-0.249528,-0.241125,-0.347388,-0.00312901
35,65,-0.654498,-0.814493,-0.174533,-0.174533,-0.652003,-0.805881,-0.151377,-0.174326,-0.249528,-0.241125,-0.347388,-0.00312901
35,65,-0.654498,-0.814493,-0.174533,-0.174533,-0.652003,-0.805881,-0.151377,-0.174326,-0.249528,-0.241125,-0.347388,-0.00312901
35,65,-0.654498,-0.814493,-0.174533,-0.174533,-0.652003,-0.805881,-0.151377,-0.174326,-0.249528,-0.241125,-0.347388,-0.00312901
35,65,-0.654498,-0.814493,-0.174533,-0.174533,-0.652003,-0.805881,-0.151377,-0.174326,-0.249528,-0.241125,-0.347388,-0.00312901
35,65,-0.654498,-0.814493,-0.174533,-0.174533,-0.652003,-0.805881,-0.151377,-0.174326,-0.249528,-0.241125,-0.347388,-0.00312901
35,65,-0.654498,-0.814493,-0.174533,-0.174533,-0.652003,-0.805881,-0.151377,-0.174326,-0.249528,-0.241125,-0.347388,-0.00312901
35,65,-0.654498,-0.814493,-0.174533,-0.174533,-0.652003,-0.805881,-0.151377,-0.174326,-0.249528,-0.241125,-0.347388,-0.00312901
35,65,-0.654498,-0.814493,-0.174533,-0.174533,-0.652003,-0.805881,-0.151377,-0.174326,-0.249528,-0.241125,-0.347388,-0.00312901
35,65,-0.654498,-0.814493,-0.174533,-0.174533,-0.652003,-0.805932,-0.151377,-0.174326,-0.249528,-0.239701,-0.347388,-0.00312901
35,65,-0.654498,-0.814493,-0.174533,-0.174533,-0.652003,-0.805932,-0.151377,-0.174326,-0.249528,-0.239701,-0.347388,-0.00312901
35,65,-0.654498,-0.814493,-0.174533,-0.174533,-0.652003,-0.805932,-0.151377,-0.174326,-0.249528,-0.239701,-0.347388,-0.00312901
35,65,-0.654498,-0.814493,-0.174533,-0.174533,-0.652003,-0.805932,-0.151312,-0.174285,-0.249528,-0.239701,-0.348348,-0.00374924
35,65,-0.654498,-0.814493,-0.174533,-0.174533,-0.652003,-0.805932,-0.151312,-0.174285,-0.249528,-0.239701,-0.348348,-0.00374924
35,65,-0.654498,-0.814493,-0.174533,-0.174533,-0.652003,-0.805932,-0.151312,-0.174285,-0.249528,-0.239701,-0.348348,-0.00374924
35,65,-0.654498,-0.814493,-0.174533,-0.174533,-0.652003,-0.805932,-0.151312,-0.174285,-0.249528,-0.239701,-0.348348,-0.00374924
35,65,-0.654498,-0.814493,-0.174533,-0.174533,-0.652003,-0.805932,-0.151248,-0.174243,-0.249528,-0.239701,-0.34932,-0.00437769
35,65,-0.654498,-0.814493,-0.174533,-0.174533,-0.652003,-0.805932,-0.151248,-0.174243,-0.249528,-0.239701,-0.34932,-0.00437769
35,65,-0.654498,-0.814493,-0.174533,-0.174533,-0.652003,-0.805932,-0.151248,-0.174243,-0.249528,-0.239701,-0.34932,-0.00437769
35,65,-0.654498,-0.814493,-0.174533,-0.174533,-0.652003,-0.805932,-0.151248,-0.174243,-0.249528,-0.239701,-0.34932,-0.00437769
35,65,-0.654498,-0.814493,-0.174533,-0.174533,-0.652003,-0.805932,-0.151248,-0.174243,-0.249528,-0.239701,-0.34932,-0.00437769
35,65,-0.654498,-0.814493,-0.174533,-0.174533,-0.652003,-0.805932,-0.151248,-0.174243,-0.249528,-0.239701,-0.34932,-0.00437769
35,65,-0.654498,-0.814493,-0.174533,-0.174533,-0.652003,-0.805932,-0.151248,-0.174243,-0.249528,-0.239701,-0.34932,-0.00437769
35,65,-0.654498,-0.814493,-0.174533,-0.174533,-0.652003,-0.805932,-0.151248,-0.174243,-0.249528,-0.239701,-0.34932,-0.00437769
35,65,-0.654498,-0.814493,-0.174533,-0.174533,-0.652003,-0.805932,-0.151248,-0.174243,-0.249528,-0.239701,-0.34932,-0.00437769
35,65,-0.654498,-0.814493,-0.174533,-0.174533,-0.652003,-0.805932,-0.151248,-0.174243,-0.249528,-0.239701,-0.34932,-0.00437769
35,65,-0.654498,-0.814493,-0.174533,-0.174533,-0.652003,-0.805932,-0.151248,-0.174243,-0.249528,-0.239701,-0.34932,-0.00437769
35,65,-0.654498,-0.814493,-0.174533,-0.174533,-0.652003,-0.805932,-0.151248,-0.174243,-0.249528,-0.239701,-0.34932,-0.00437769
35,65,-0.654498,-0.814493,-0.174533,-0.174533,-0.652003,-0.805932,-0.151248,-0.174243,-0.249528,-0.239701,-0.34932,-0.00437769
35,65,-0.654498,-0.814493,-0.174533,-0.174533,-0.652003,-0.805932,-0.151248,-0.174243,-0.249528,-0.239701,-0.34932,-0.00437769
35,65,-0.654498,-0.814493,-0.174533,-0.174533,-0.652003,-0.805932,-0.151248,-0.174243,-0.249528,-0.239701,-0.34932,-0.00437769
35,65,-0.654498,-0.814493,-0.174533,-0.174533,-0.652003,-0.805932,-0.151248,-0.174243,-0.249528,-0.239701,-0.34932,-0.00437769
35,65,-0.654498,-0.814493,-0.174533,-0.174533,-0.652003,-0.805932,-0.151248,-0.174243,-0.249528,-0.239701,-0.34932,-0.00437769
35,65,-0.654498,-0.814493,-0.174533,-0.174533,-0.652003,-0.805932,-0.151248,-0.174243,-0.249528,-0.239701,-0.34932,-0.00437769
35,65,-0.654498,-0.814493,-0.174533,-0.174533,-0.652003,-0.805932,-0.151248,-0.174243,-0.249528,-0.239701,-0.34932,-0.00437769
35,65,-0.654498,-0.814493,-0.174533,-0.174533,-0.652003,-0.805932,-0.151248,-0.174243,-0.249528,-0.239701,-0.34932,-0.00437769
35,65,-0.654498,-0.814493,-0.174533,-0.174533,-0.652003,-0.805932,-0.151248,-0.174243,-0.249528,-0.239701,-0.34932,-0.00437769
35,65,-0.654498,-0.814493,-0.174533,-0.174533,-0.652003,-0.805932,-0.151248,-0.174243,-0.249528,-0.239701,-0.34932,-0.00437769
35,65,-0.654498,-0.814493,-0.174533,-0.174533,-0.652003,-0.805932,-0.151248,-0.174243,-0.249528,-0.239701,-0.34932,-0.00437769
35,65,-0.654498,-0.814493,-0.174533,-0.174533,-0.652003,-0.805932,-0.151248,-0.174243,-0.249528,-0.239701,-0.34932,-0.00437769
35,65,-0.654498,-0.814493,-0.174533,-0.174533,-0.652003,-0.805932,-0.151248,-0.174243,-0.249528,-0.239701,-0.34932,-0.00437769
35,65,-0.654498,-0.814493,-0.174533,-0.174533,-0.652003,-0.805932,-0.151248,-0.174243,-0.249528,-0.239701,-0.34932,-0.00437769
35,65,-0.654498,-0.814493,-0.174533,-0.174533,-0.652003,-0.805932,-0.151248,-0.174243,-0.249528,-0.239701,-0.34932,-0.00437769
35,65,-0.654498,-0.814493,-0.174533,-0.174533,-0.652003,-0.805932,-0.151248,-0.174243,-0.249528,-0.239701,-0.34932,-0.00437769
35,65,-0.654498,-0.814493,-0.174533,-0.174533,-0.652003,-0.805932,-0.151184,-0.174202,-0.249528,-0.239701,-0.350278,-0.00499661
35,65,-0.654498,-0.814493,-0.174533,-0.174533,-0.652003,-0.805932,-0.151184,-0.174202,-0.249528,-0.239701,-0.350278,-0.00499661
35,65,-0.654498,-0.814493,-0.174533,-0.174533,-0.652003,-0.805932,-0.151184,-0.174202,-0.249528,-0.239701,-0.350278,-0.00499661
35,65,-0.654498,-0.814493,-0.174533,-0.174533,-0.652003,-0.805932,-0.151184,-0.174202,-0.249528,-0.239701,-0.350278,-0.00499661
35,65,-0.654498,-0.814493,-0.174533,-0.174533,-0.652003,-0.805932,-0.151184,-0.174202,-0.249528,-0.239701,-0.350278,-0.00499661
35,65,-0.654498,-0.814493,-0.174533,-0.174533,-0.652003,-0.805932,-0.151184,-0.174202,-0.249528,-0.239701,-0.350278,-0.00499661
35,65,-0.654498,-0.814493,-0.174533,-0.174533,-0.652003,-0.805932,-0.151184,-0.174202,-0.249528,-0.239701,-0.350278,-0.00499661
35,65,-0.654498,-0.814493,-0.174533,-0.174533,-0.652003,-0.805932,-0.151184,-0.174202,-0.249528,-0.239701,-0.350278,-0.00499661
35,65,-0.654498,-0.814493,-0.174533,-0.174533,-0.652003,-0.805932,-0.151184,-0.174202,-0.249528,-0.239701,-0.350278,-0.00499661
35,65,-0.654498,-0.814493,-0.174533,-0.174533,-0.652003,-0.805932,-0.151184,-0.174202,-0.249528,-0.239701,-0.350278,-0.00499661
35,65,-0.654498,-0.814493,-0.174533,-0.174533,-0.652003,-0.805932,-0.151184,-0.174202,-0.249528,-0.239701,-0.350278,-0.00499661
35,65,-0.654498,-0.814493,-0.174533,-0.174533,-0.652003,-0.805932,-0.151184,-0.174202,-0.249528,-0.239701,-0.350278,-0.00499661
35,65,-0.654498,-0.814493,-0.174533,-0.174533,-0.652003,-0.805932,-0.151184,-0.174202,-0.249528,-0.239701,-0.350278,-0.00499661
35,65,-0.654498,-0.814493,-0.174533,-0.174533,-0.652003,-0.805932,-0.151184,-0.174202,-0.249528,-0.239701,-0.350278,-0.00499661
35,65,-0.654498,-0.814493,-0.174533,-0.174533,-0.652003,-0.805932,-0.151184,-0.174202,-0.249528,-0.239701,-0.350278,-0.00499661
35,65,-0.654498,-0.814493,-0.174533,-0.174533,-0.652003,-0.805932,-0.151184,-0.174202,-0.249528,-0.239701,-0.350278,-0.00499661
35,65,-0.654498,-0.814493,-0.174533,-0.174533,-0.652003,-0.805932,-0.151119,-0.17416,-0.249528,-0.239701,-0.351238,-0.0056171
35,65,-0.654498,-0.814493,-0.174533,-0.174533,-0.652003,-0.805932,-0.151119,-0.17416,-0.249528,-0.239701,-0.351238,-0.0056171
35,65,-0.654498,-0.814493,-0.174533,-0.174533,-0.652003,-0.805932,-0.151119,-0.17416,-0.249528,-0.239701,-0.351238,-0.0056171
35,65,-0.654498,-0.814493,-0.174533,-0.174533,-0.652003,-0.805932,-0.151119,-0.17416,-0.249528,-0.239701,-0.351238,-0.0056171
35,65,-0.654498,-0.814493,-0.174533,-0.174533,-0.652003,-0.805932,-0.151119,-0.17416,-0.249528,-0.239701,-0.351238,-0.0056171
35,65,-0.654498,-0.814493,-0.174533,-0.174533,-0.652003,-0.805932,-0.151119,-0.17416,-0.249528,-0.239701,-0.351238,-0.0056171
35,65,-0.654498,-0.814493,-0.174533,-0.174533,-0.652003,-0.805932,-0.151119,-0.17416,-0.249528,-0.239701,-0.351238,-0.0056171
35,65,-0.654498,-0.814493,-0.174533,-0.174533,-0.652003,-0.805932,-0.151119,-0.17416,-0.249528,-0.239701,-0.351238,-0.0056171
35,65,-0.654498,-0.814493,-0.174533,-0.174533,-0.652003,-0.805932,-0.151119,-0.17416,-0.249528,-0.239701,-0.351238,-0.0056171
35,65,-0.654498,-0.814493,-0.174533,-0.174533,-0.652003,-0.805932,-0.151119,-0.17416,-0.249528,-0.239701,-0.351238,-0.0056171
35,65,-0.654498,-0.814493,-0.174533,-0.174533,-0.652003,-0.805932,-0.151119,-0.17416,-0.249528,-0.239701,-0.351238,-0.0056171
35,65,-0.654498,-0.814493,-0.174533,-0.174533,-0.652003,-0.805932,-0.151055,-0.174118,-0.249528,-0.239701,-0.352213,-0.00624687
35,65,-0.654498,-0.814493,-0.174533,-0.174533,-0.652003,-0.805932,-0.151055,-0.174118,-0.249528,-0.239701,-0.352213,-0.00624687
35,65,-0.654498,-0.814493,-0.174533,-0.174533,-0.652003,-0.805932,-0.151055,-0.174118,-0.249528,-0.239701,-0.352213,-0.00624687
35,65,-0.654498,-0.814493,-0.174533,-0.174533,-0.652003,-0.805932,-0.151055,-0.174118,-0.249528,-0.239701,-0.352213,-0.00624687
35,65,-0.654498,-0.814493,-0.174533,-0.174533,-0.652003,-0.805932,-0.151055,-0.174118,-0.249528,-0.239701,-0.352213,-0.00624687
35,65,-0.654498,-0.814493,-0.174533,-0.174533,-0.652003,-0.805932,-0.151055,-0.174118,-0.249528,-0.239701,-0.352213,-0.00624687
35,65,-0.654498,-0.814493,-0.174533,-0.174533,-0.652003,-0.805932,-0.151055,-0.174118,-0.249528,-0.239701,-0.352213,-0.00624687
35,65,-0.654498,-0.814493,-0.174533,-0.174533,-0.652003,-0.805932,-0.151055,-0.174118,-0.249528,-0.239701,-0.352213,-0.00624687
35,65,-0.654498,-0.814493,-0.174533,-0.174533,-0.652003,-0.805932,-0.151055,-0.174118,-0.249528,-0.239701,-0.352213,-0.00624687
35,65,-0.654498,-0.814493,-0.174533,-0.174533,-0.652003,-0.805932,-0.151055,-0.174118,-0.249528,-0.239701,-0.352213,-0.00624687
35,65,-0.654498,-0.814493,-0.174533,-0.174533,-0.652003,-0.805932,-0.151055,-0.174118,-0.249528,-0.239701,-0.352213,-0.00624687
35,65,-0.654498,-0.814493,-0.174533,-0.174533,-0.652003,-0.805932,-0.151055,-0.174118,-0.249528,-0.239701,-0.352213,-0.00624687
35,65,-0.654498,-0.814493,-0.174533,-0.174533,-0.652003,-0.805932,-0.150991,-0.174077,-0.249528,-0.239701,-0.353172,-0.00686684
35,65,-0.654498,-0.814493,-0.174533,-0.174533,-0.652003,-0.805932,-0.150991,-0.174077,-0.249528,-0.239701,-0.353172,-0.00686684
35,65,-0.654498,-0.814493,-0.174533,-0.174533,-0.652003,-0.805932,-0.150991,-0.174077,-0.249528,-0.239701,-0.353172,-0.00686684
35,65,-0.654498,-0.814493,-0.174533,-0.174533,-0.652003,-0.805932,-0.150991,-0.174077,-0.249528,-0.239701,-0.353172,-0.00686684
35,65,-0.654498,-0.814493,-0.174533,-0.174533,-0.652003,-0.805932,-0.150991,-0.174077,-0.249528,-0.239701,-0.353172,-0.00686684
35,65,-0.654498,-0.814493,-0.174533,-0.174533,-0.652003,-0.805932,-0.150991,-0.174077,-0.249528,-0.239701,-0.353172,-0.00686684
35,65,-0.654498,-0.814493,-0.174533,-0.174533,-0.652003,-0.805932,-0.150991,-0.174077,-0.249528,-0.239701,-0.353172,-0.00686684
35,65,-0.654498,-0.814493,-0.174533,-0.174533,-0.652003,-0.805932,-0.150991,-0.174077,-0.249528,-0.239701,-0.353172,-0.00686684
35,65,-0.654498,-0.814493,-0.174533,-0.174533,-0.652003,-0.805932,-0.150991,-0.174077,-0.249528,-0.239701,-0.353172,-0.00686684
35,65,-0.654498,-0.814493,-0.174533,-0.174533,-0.652003,-0.805932,-0.150991,-0.174077,-0.249528,-0.239701,-0.353172,-0.00686684
35,65,-0.654498,-0.814493,-0.174533,-0.174533,-0.652003,-0.805932,-0.150991,-0.174077,-0.249528,-0.239701,-0.353172,-0.00686684
35,65,-0.654498,-0.814493,-0.174533,-0.174533,-0.652003,-0.805932,-0.150991,-0.174077,-0.249528,-0.239701,-0.353172,-0.00686684
35,65,-0.654498,-0.814493,-0.174533,-0.174533,-0.652003,-0.805932,-0.150991,-0.174077,-0.249528,-0.239701,-0.353172,-0.00686684
35,65,-0.654498,-0.814493,-0.174533,-0.174533,-0.652003,-0.805932,-0.150991,-0.174077,-0.249528,-0.239701,-0.353172,-0.00686684
35,65,-0.654498,-0.814493,-0.174533,-0.174533,-0.652003,-0.805932,-0.150991,-0.174077,-0.249528,-0.239701,-0.353172,-0.00686684
35,65,-0.654498,-0.814493,-0.174533,-0.174533,-0.652003,-0.805932,-0.150991,-0.174077,-0.249528,-0.239701,-0.353172,-0.00686684
35,65,-0.654498,-0.814493,-0.174533,-0.174533,-0.652003,-0.805932,-0.150991,-0.174077,-0.249528,-0.239701,-0.353172,-0.00686684
35,65,-0.654498,-0.814493,-0.174533,-0.174533,-0.652003,-0.805932,-0.150991,-0.174077,-0.249528,-0.239701,-0.353172,-0.00686684
35,65,-0.654498,-0.814493,-0.174533,-0.174533,-0.652003,-0.805932,-0.150991,-0.174077,-0.249528,-0.239701,-0.353172,-0.00686684
35,65,-0.654498,-0.814493,-0.174533,-0.174533,-0.652003,-0.805932,-0.150991,-0.174077,-0.249528,-0.239701,-0.353172,-0.00686684
35,65,-0.654498,-0.814493,-0.174533,-0.174533,-0.652003,-0.805932,-0.150991,-0.174077,-0.249528,-0.239701,-0.353172,-0.00686684
35,65,-0.654498,-0.814493,-0.174533,-0.174533,-0.652003,-0.805932,-0.150991,-0.174077,-0.249528,-0.239701,-0.353172,-0.00686684
35,65,-0.654498,-0.814493,-0.174533,-0.174533,-0.652003,-0.805932,-0.150991,-0.174077,-0.249528,-0.239701,-0.353172,-0.00686684
35,65,-0.654498,-0.814493,-0.174533,-0.174533,-0.652003,-0.805932,-0.150991,-0.174077,-0.249528,-0.239701,-0.353172,-0.00686684
35,65,-0.654498,-0.814493,-0.174533,-0.174533,-0.652003,-0.805932,-0.150991,-0.174077,-0.249528,-0.239701,-0.353172,-0.00686684
35,65,-0.654498,-0.814493,-0.174533,-0.174533,-0.652003,-0.805932,-0.150991,-0.174077,-0.249528,-0.239701,-0.353172,-0.00686684
35,65,-0.654498,-0.814493,-0.174533,-0.174533,-0.652003,-0.805932,-0.150926,-0.174035,-0.249528,-0.239701,-0.354138,-0.00749095
35,65,-0.654498,-0.814493,-0.174533,-0.174533,-0.652003,-0.805932,-0.150926,-0.174035,-0.249528,-0.239701,-0.354138,-0.00749095
35,65,-0.654498,-0.814493,-0.174533,-0.174533,-0.652003,-0.805932,-0.150926,-0.174035,-0.249528,-0.239701,-0.354138,-0.00749095
35,65,-0.654498,-0.814493,-0.174533,-0.174533,-0.652003,-0.805932,-0.150926,-0.174035,-0.249528,-0.239701,-0.354138,-0.00749095
35,65,-0.654498,-0.814493,-0.174533,-0.174533,-0.652003,-0.805932,-0.150926,-0.174035,-0.249528,-0.239701,-0.354138,-0.00749095
35,65,-0.654498,-0.814493,-0.174533,-0.174533,-0.652003,-0.805932,-0.150926,-0.174035,-0.249528,-0.239701,-0.354138,-0.00749095
35,65,-0.654498,-0.814493,-0.174533,-0.174533,-0.652003,-0.805932,-0.150926,-0.174035,-0.249528,-0.239701,-0.354138,-0.00749095
35,65,-0.654498,-0.814493,-0.174533,-0.174533,-0.652003,-0.805983,-0.150926,-0.174035,-0.249528,-0.238278,-0.354138,-0.00749095
35,65,-0.654498,-0.814493,-0.174533,-0.174533,-0.652003,-0.805983,-0.150926,-0.174035,-0.249528,-0.238278,-0.354138,-0.00749095
35,65,-0.654498,-0.814493,-0.174533,-0.174533,-0.652003,-0.805983,-0.150926,-0.174035,-0.249528,-0.238278,-0.354138,-0.00749095
35,65,-0.654498,-0.814493,-0.174533,-0.174533,-0.652003,-0.805983,-0.150926,-0.174035,-0.249528,-0.238278,-0.354138,-0.00749095
35,65,-0.654498,-0.814493,-0.174533,-0.174533,-0.652003,-0.805983,-0.150862,-0.173994,-0.249528,-0.238278,-0.355106,-0.0081166
35,65,-0.654498,-0.814493,-0.174533,-0.174533,-0.652003,-0.805983,-0.150798,-0.173952,-0.249528,-0.238278,-0.356078,-0.00874489
35,65,-0.654498,-0.814493,-0.174533,-0.174533,-0.652003,-0.805983,-0.150798,-0.173952,-0.249528,-0.238278,-0.356078,-0.00874489
35,65,-0.654498,-0.814493,-0.174533,-0.174533,-0.652003,-0.805983,-0.150798,-0.173952,-0.249528,-0.238278,-0.356078,-0.00874489
35,65,-0.654498,-0.814493,-0.174533,-0.174533,-0.652003,-0.805983,-0.150798,-0.173952,-0.249528,-0.238278,-0.356078,-0.00874489
35,65,-0.654498,-0.814493,-0.174533,-0.174533,-0.652003,-0.805983,-0.150798,-0.173952,-0.249528,-0.238278,-0.356078,-0.00874489
35,65,-0.654498,-0.814493,-0.174533,-0.174533,-0.652003,-0.805983,-0.150798,-0.173952,-0.249528,-0.238278,-0.356078,-0.00874489
35,65,-0.654498,-0.814493,-0.174533,-0.174533,-0.652003,-0.805983,-0.150798,-0.173952,-0.249528,-0.238278,-0.356078,-0.00874489
35,65,-0.654498,-0.814493,-0.174533,-0.174533,-0.652003,-0.805983,-0.150798,-0.173952,-0.249528,-0.238278,-0.356078,-0.00874489
35,65,-0.654498,-0.814493,-0.174533,-0.174533,-0.652003,-0.805983,-0.150798,-0.173952,-0.249528,-0.238278,-0.356078,-0.00874489
35,65,-0.654498,-0.814493,-0.174533,-0.174533,-0.652003,-0.805983,-0.150798,-0.173952,-0.249528,-0.238278,-0.356078,-0.00874489
35,65,-0.654498,-0.814493,-0.174533,-0.174533,-0.652003,-0.805983,-0.150798,-0.173952,-0.249528,-0.238278,-0.356078,-0.00874489
35,65,-0.654498,-0.814493,-0.174533,-0.174533,-0.652003,-0.805983,-0.150798,-0.173952,-0.249528,-0.238278,-0.356078,-0.00874489
35,65,-0.654498,-0.814493,-0.174533,-0.174533,-0.652003,-0.805983,-0.150798,-0.173952,-0.249528,-0.238278,-0.356078,-0.00874489
35,65,-0.654498,-0.814493,-0.174533,-0.174533,-0.652003,-0.805983,-0.150798,-0.173952,-0.249528,-0.238278,-0.356078,-0.00874489
35,65,-0.654498,-0.814493,-0.174533,-0.174533,-0.652003,-0.805983,-0.150798,-0.173952,-0.249528,-0.238278,-0.356078,-0.00874489
35,65,-0.654498,-0.814493,-0.174533,-0.174533,-0.652003,-0.805983,-0.150798,-0.173952,-0.249528,-0.238278,-0.356078,-0.00874489
35,65,-0.654498,-0.814493,-0.174533,-0.174533,-0.652003,-0.805983,-0.150798,-0.173952,-0.249528,-0.238278,-0.356078,-0.00874489
35,65,-0.654498,-0.814493,-0.174533,-0.174533,-0.652003,-0.805983,-0.150798,-0.173952,-0.249528,-0.238278,-0.356078,-0.00874489
35,65,-0.654498,-0.814493,-0.174533,-0.174533,-0.652003,-0.805983,-0.150798,-0.173952,-0.249528,-0.238278,-0.356078,-0.00874489
35,65,-0.654498,-0.814493,-0.174533,-0.174533,-0.652003,-0.805983,-0.150798,-0.173952,-0.249528,-0.238278,-0.356078,-0.00874489
35,65,-0.654498,-0.814493,-0.174533,-0.174533,-0.652003,-0.805983,-0.150798,-0.173952,-0.249528,-0.238278,-0.356078,-0.00874489
35,65,-0.654498,-0.814493,-0.174533,-0.174533,-0.652003,-0.805983,-0.150798,-0.173952,-0.249528,-0.238278,-0.356078,-0.00874489
35,65,-0.654498,-0.814493,-0.174533,-0.174533,-0.652003,-0.805983,-0.150798,-0.173952,-0.249528,-0.238278,-0.356078,-0.00874489
35,65,-0.654498,-0.814493,-0.174533,-0.174533,-0.652003,-0.805983,-0.150798,-0.173952,-0.249528,-0.238278,-0.356078,-0.00874489
35,65,-0.654498,-0.814493,-0.174533,-0.174533,-0.652003,-0.805983,-0.150798,-0.173952,-0.249528,-0.238278,-0.356078,-0.00874489
35,65,-0.654498,-0.814493,-0.174533,-0.174533,-0.652003,-0.805983,-0.150798,-0.173952,-0.249528,-0.238278,-0.356078,-0.00874489
35,65,-0.654498,-0.814493,-0.174533,-0.174533,-0.652003,-0.805983,-0.150798,-0.173952,-0.249528,-0.238278,-0.356078,-0.00874489
35,65,-0.654498,-0.814493,-0.174533,-0.174533,-0.652003,-0.805983,-0.150733,-0.173911,-0.249528,-0.238278,-0.357031,-0.0093609
35,65,-0.654498,-0.814493,-0.174533,-0.174533,-0.652003,-0.805983,-0.150733,-0.173911,-0.249528,-0.238278,-0.357031,-0.0093609
35,65,-0.654498,-0.814493,-0.174533,-0.174533,-0.652003,-0.805983,-0.150733,-0.173911,-0.249528,-0.238278,-0.357031,-0.0093609
35,65,-0.654498,-0.814493,-0.174533,-0.174533,-0.652003,-0.805983,-0.150733,-0.173911,-0.249528,-0.238278,-0.357031,-0.0093609
35,65,-0.654498,-0.814493,-0.174533,-0.174533,-0.652003,-0.805983,-0.150733,-0.173911,-0.249528,-0.238278,-0.357031,-0.0093609
35,65,-0.654498,-0.814493,-0.174533,-0.174533,-0.652003,-0.805983,-0.150733,-0.173911,-0.249528,-0.238278,-0.357031,-0.0093609
35,65,-0.654498,-0.814493,-0.174533,-0.174533,-0.652003,-0.805983,-0.150733,-0.173911,-0.249528,-0.238278,-0.357031,-0.0093609
35,65,-0.654498,-0.814493,-0.174533,-0.174533,-0.652003,-0.805983,-0.150733,-0.173911,-0.249528,-0.238278,-0.357031,-0.0093609
35,65,-0.654498,-0.814493,-0.174533,-0.174533,-0.652003,-0.805983,-0.150733,-0.173911,-0.249528,-0.238278,-0.357031,-0.0093609
35,65,-0.654498,-0.814493,-0.174533,-0.174533,-0.652003,-0.805983,-0.150733,-0.173911,-0.249528,-0.238278,-0.357031,-0.0093609
35,65,-0.654498,-0.814493,-0.174533,-0.174533,-0.652003,-0.806034,-0.150733,-0.173911,-0.249528,-0.236854,-0.357031,-0.0093609
35,65,-0.654498,-0.814493,-0.174533,-0.174533,-0.652003,-0.806034,-0.150733,-0.173911,-0.249528,-0.236854,-0.357031,-0.0093609
35,65,-0.654498,-0.814493,-0.174533,-0.174533,-0.652003,-0.806034,-0.150733,-0.173911,-0.249528,-0.236854,-0.357031,-0.0093609
35,65,-0.654498,-0.814493,-0.174533,-0.174533,-0.652003,-0.806034,-0.150733,-0.173911,-0.249528,-0.236854,-0.357031,-0.0093609
35,65,-0.654498,-0.814493,-0.174533,-0.174533,-0.652003,-0.806034,-0.150733,-0.173911,-0.249528,-0.236854,-0.357031,-0.0093609
35,65,-0.654498,-0.814493,-0.174533,-0.174533,-0.652003,-0.806034,-0.150733,-0.173911,-0.249528,-0.236854,-0.357031,-0.0093609
35,65,-0.654498,-0.814493,-0.174533,-0.174533,-0.652003,-0.806034,-0.150733,-0.173911,-0.249528,-0.236854,-0.357031,-0.0093609
35,65,-0.654498,-0.814493,-0.174533,-0.174533,-0.652003,-0.806034,-0.150733,-0.173911,-0.249528,-0.236854,-0.357031,-0.0093609
35,65,-0.654498,-0.814493,-0.174533,-0.174533,-0.652003,-0.806034,-0.150733,-0.173911,-0.249528,-0.236854,-0.357031,-0.0093609
35,65,-0.654498,-0.814493,-0.174533,-0.174533,-0.652003,-0.806034,-0.150733,-0.173911,-0.249528,-0.236854,-0.357031,-0.0093609
35,65,-0.654498,-0.814493,-0.174533,-0.174533,-0.652003,-0.806034,-0.150733,-0.173911,-0.249528,-0.236854,-0.357031,-0.0093609
35,65,-0.654498,-0.814493,-0.174533,-0.174533,-0.652003,-0.806034,-0.150733,-0.173911,-0.249528,-0.236854,-0.357031,-0.0093609
35,65,-0.654498,-0.814493,-0.174533,-0.174533,-0.652003,-0.806034,-0.150733,-0.173911,-0.249528,-0.236854,-0.357031,-0.0093609
35,65,-0.654498,-0.814493,-0.174533,-0.174533,-0.652003,-0.806034,-0.150733,-0.173911,-0.249528,-0.236854,-0.357031,-0.0093609
35,65,-0.654498,-0.814493,-0.174533,-0.174533,-0.652003,-0.806034,-0.150733,-0.173911,-0.249528,-0.236854,-0.357031,-0.0093609
35,65,-0.654498,-0.814493,-0.174533,-0.174533,-0.652003,-0.806034,-0.150669,-0.173869,-0.249528,-0.236854,-0.357996,-0.00998447
35,65,-0.654498,-0.814493,-0.174533,-0.174533,-0.652003,-0.806034,-0.150669,-0.173869,-0.249528,-0.236854,-0.357996,-0.00998447
35,65,-0.654498,-0.814493,-0.174533,-0.174533,-0.652003,-0.806034,-0.150669,-0.173869,-0.249528,-0.236854,-0.357996,-0.00998447
35,65,-0.654498,-0.814493,-0.174533,-0.174533,-0.652003,-0.806034,-0.150669,-0.173869,-0.249528,-0.236854,-0.357996,-0.00998447
35,65,-0.654498,-0.814493,-0.174533,-0.174533,-0.652003,-0.806034,-0.150669,-0.173869,-0.249528,-0.236854,-0.357996,-0.00998447
35,65,-0.654498,-0.814493,-0.174533,-0.174533,-0.652003,-0.806034,-0.150669,-0.173869,-0.249528,-0.236854,-0.357996,-0.00998447
35,65,-0.654498,-0.814493,-0.174533,-0.174533,-0.652003,-0.806034,-0.150669,-0.173869,-0.249528,-0.236854,-0.357996,-0.00998447
35,65,-0.654498,-0.814493,-0.174533,-0.174533,-0.652003,-0.806034,-0.150669,-0.173869,-0.249528,-0.236854,-0.357996,-0.00998447
35,65,-0.654498,-0.814493,-0.174533,-0.174533,-0.652003,-0.806034,-0.150669,-0.173869,-0.249528,-0.236854,-0.357996,-0.00998447
35,65,-0.654498,-0.814493,-0.174533,-0.174533,-0.652003,-0.806034,-0.150669,-0.173869,-0.249528,-0.236854,-0.357996,-0.00998447
35,65,-0.654498,-0.814493,-0.174533,-0.174533,-0.652003,-0.806034,-0.150669,-0.173869,-0.249528,-0.236854,-0.357996,-0.00998447
35,65,-0.654498,-0.814493,-0.174533,-0.174533,-0.652003,-0.806034,-0.150669,-0.173869,-0.249528,-0.236854,-0.357996,-0.00998447
35,65,-0.654498,-0.814493,-0.174533,-0.174533,-0.652003,-0.806034,-0.150669,-0.173869,-0.249528,-0.236854,-0.357996,-0.00998447
35,65,-0.654498,-0.814493,-0.174533,-0.174533,-0.652003,-0.806034,-0.150669,-0.173869,-0.249528,-0.236854,-0.357996,-0.00998447
35,65,-0.654498,-0.814493,-0.174533,-0.174533,-0.652003,-0.806034,-0.150669,-0.173869,-0.249528,-0.236854,-0.357996,-0.00998447
35,65,-0.654498,-0.814493,-0.174533,-0.174533,-0.652003,-0.806034,-0.150669,-0.173869,-0.249528,-0.236854,-0.357996,-0.00998447
35,65,-0.654498,-0.814493,-0.174533,-0.174533,-0.652003,-0.806034,-0.150669,-0.173869,-0.249528,-0.236854,-0.357996,-0.00998447
35,65,-0.654498,-0.814493,-0.174533,-0.174533,-0.652003,-0.806034,-0.150669,-0.173869,-0.249528,-0.236854,-0.357996,-0.00998447
35,65,-0.654498,-0.814493,-0.174533,-0.174533,-0.652003,-0.806034,-0.150669,-0.173869,-0.249528,-0.236854,-0.357996,-0.00998447
35,65,-0.654498,-0.814493,-0.174533,-0.174533,-0.652003,-0.806034,-0.150669,-0.173869,-0.249528,-0.236854,-0.357996,-0.00998447
35,65,-0.654498,-0.814493,-0.174533,-0.174533,-0.652003,-0.806034,-0.150669,-0.173869,-0.249528,-0.236854,-0.357996,-0.00998447
35,65,-0.654498,-0.814493,-0.174533,-0.174533,-0.652003,-0.806034,-0.150669,-0.173869,-0.249528,-0.236854,-0.357996,-0.00998447
35,65,-0.654498,-0.814493,-0.174533,-0.174533,-0.652003,-0.806034,-0.150605,-0.173827,-0.249528,-0.236854,-0.358954,-0.0106038
35,65,-0.654498,-0.814493,-0.174533,-0.174533,-0.652003,-0.806034,-0.150605,-0.173827,-0.249528,-0.236854,-0.358954,-0.0106038
35,65,-0.654498,-0.814493,-0.174533,-0.174533,-0.652003,-0.806034,-0.150605,-0.173827,-0.249528,-0.236854,-0.358954,-0.0106038
35,65,-0.654498,-0.814493,-0.174533,-0.174533,-0.652003,-0.806034,-0.150605,-0.173827,-0.249528,-0.236854,-0.358954,-0.0106038
35,65,-0.654498,-0.814493,-0.174533,-0.174533,-0.652003,-0.806034,-0.150605,-0.173827,-0.249528,-0.236854,-0.358954,-0.0106038
35,65,-0.654498,-0.814493,-0.174533,-0.174533,-0.652003,-0.806034,-0.150605,-0.173827,-0.249528,-0.236854,-0.358954,-0.0106038
35,65,-0.654498,-0.814493,-0.174533,-0.174533,-0.652003,-0.806034,-0.150605,-0.173827,-0.249528,-0.236854,-0.358954,-0.0106038
35,65,-0.654498,-0.814493,-0.174533,-0.174533,-0.652003,-0.806034,-0.150605,-0.173827,-0.249528,-0.236854,-0.358954,-0.0106038
35,65,-0.654498,-0.814493,-0.174533,-0.174533,-0.652003,-0.806034,-0.150605,-0.173827,-0.249528,-0.236854,-0.358954,-0.0106038
35,65,-0.654498,-0.814493,-0.174533,-0.174533,-0.652003,-0.806034,-0.150605,-0.173827,-0.249528,-0.236854,-0.358954,-0.0106038
35,65,-0.654498,-0.814493,-0.174533,-0.174533,-0.652003,-0.806034,-0.150605,-0.173827,-0.249528,-0.236854,-0.358954,-0.0106038
35,65,-0.654498,-0.814493,-0.174533,-0.174533,-0.652003,-0.806034,-0.150605,-0.173827,-0.249528,-0.236854,-0.358954,-0.0106038
35,65,-0.654498,-0.814493,-0.174533,-0.174533,-0.652003,-0.806034,-0.150605,-0.173827,-0.249528,-0.236854,-0.358954,-0.0106038
35,65,-0.654498,-0.814493,-0.174533,-0.174533,-0.652003,-0.806034,-0.150605,-0.173827,-0.249528,-0.236854,-0.358954,-0.0106038
35,65,-0.654498,-0.814493,-0.174533,-0.174533,-0.652003,-0.806034,-0.150605,-0.173827,-0.249528,-0.236854,-0.358954,-0.0106038
35,65,-0.654498,-0.814493,-0.174533,-0.174533,-0.652003,-0.806034,-0.150605,-0.173827,-0.249528,-0.236854,-0.358954,-0.0106038
35,65,-0.654498,-0.814493,-0.174533,-0.174533,-0.652003,-0.806034,-0.150605,-0.173827,-0.249528,-0.236854,-0.358954,-0.0106038
35,65,-0.654498,-0.814493,-0.174533,-0.174533,-0.652003,-0.806034,-0.150605,-0.173827,-0.249528,-0.236854,-0.358954,-0.0106038
35,65,-0.654498,-0.814493,-0.174533,-0.174533,-0.652003,-0.806034,-0.150605,-0.173827,-0.249528,-0.236854,-0.358954,-0.0106038
35,65,-0.654498,-0.814493,-0.174533,-0.174533,-0.652003,-0.806034,-0.150605,-0.173827,-0.249528,-0.236854,-0.358954,-0.0106038
35,65,-0.654498,-0.814493,-0.174533,-0.174533,-0.652003,-0.806034,-0.150605,-0.173827,-0.249528,-0.236854,-0.358954,-0.0106038
35,65,-0.654498,-0.814493,-0.174533,-0.174533,-0.652003,-0.806034,-0.150605,-0.173827,-0.249528,-0.236854,-0.358954,-0.0106038
35,65,-0.654498,-0.814493,-0.174533,-0.174533,-0.652003,-0.806034,-0.150605,-0.173827,-0.249528,-0.236854,-0.358954,-0.0106038
35,65,-0.654498,-0.814493,-0.174533,-0.174533,-0.652003,-0.806034,-0.150605,-0.173827,-0.249528,-0.236854,-0.358954,-0.0106038
35,65,-0.654498,-0.814493,-0.174533,-0.174533,-0.652003,-0.806034,-0.150605,-0.173827,-0.249528,-0.236854,-0.358954,-0.0106038
35,65,-0.654498,-0.814493,-0.174533,-0.174533,-0.652003,-0.806034,-0.150605,-0.173827,-0.249528,-0.236854,-0.358954,-0.0106038
35,65,-0.654498,-0.814493,-0.174533,-0.174533,-0.652003,-0.806034,-0.150605,-0.173827,-0.249528,-0.236854,-0.358954,-0.0106038
35,65,-0.654498,-0.814493,-0.174533,-0.174533,-0.652003,-0.806034,-0.150605,-0.173827,-0.249528,-0.236854,-0.358954,-0.0106038
35,65,-0.654498,-0.814493,-0.174533,-0.174533,-0.652003,-0.806034,-0.150605,-0.173827,-0.249528,-0.236854,-0.358954,-0.0106038
35,65,-0.654498,-0.814493,-0.174533,-0.174533,-0.652003,-0.806034,-0.150605,-0.173827,-0.249528,-0.236854,-0.358954,-0.0106038
35,65,-0.654498,-0.814493,-0.174533,-0.174533,-0.652003,-0.806034,-0.150605,-0.173827,-0.249528,-0.236854,-0.358954,-0.0106038
35,65,-0.654498,-0.814493,-0.174533,-0.174533,-0.652003,-0.806034,-0.150605,-0.173827,-0.249528,-0.236854,-0.358954,-0.0106038
35,65,-0.654498,-0.814493,-0.174533,-0.174533,-0.652003,-0.806034,-0.150605,-0.173827,-0.249528,-0.236854,-0.358954,-0.0106038
35,65,-0.654498,-0.814493,-0.174533,-0.174533,-0.652003,-0.806034,-0.150605,-0.173827,-0.249528,-0.236854,-0.358954,-0.0106038
35,65,-0.654498,-0.814493,-0.174533,-0.174533,-0.652003,-0.806034,-0.150605,-0.173827,-0.249528,-0.236854,-0.358954,-0.0106038
35,65,-0.654498,-0.814493,-0.174533,-0.174533,-0.652003,-0.806034,-0.150605,-0.173827,-0.249528,-0.236854,-0.358954,-0.0106038
35,65,-0.654498,-0.814493,-0.174533,-0.174533,-0.652003,-0.806034,-0.150605,-0.173827,-0.249528,-0.236854,-0.358954,-0.0106038
35,65,-0.654498,-0.814493,-0.174533,-0.174533,-0.652003,-0.806034,-0.150605,-0.173827,-0.249528,-0.236854,-0.358954,-0.0106038
35,65,-0.654498,-0.814493,-0.174533,-0.174533,-0.652003,-0.806034,-0.150605,-0.173827,-0.249528,-0.236854,-0.358954,-0.0106038
35,65,-0.654498,-0.814493,-0.174533,-0.174533,-0.652003,-0.806034,-0.150605,-0.173827,-0.249528,-0.236854,-0.358954,-0.0106038
35,65,-0.654498,-0.814493,-0.174533,-0.174533,-0.652003,-0.806034,-0.150605,-0.173827,-0.249528,-0.236854,-0.358954,-0.0106038
35,65,-0.654498,-0.814493,-0.174533,-0.174533,-0.652003,-0.806034,-0.150605,-0.173827,-0.249528,-0.236854,-0.358954,-0.0106038
35,65,-0.654498,-0.814493,-0.174533,-0.174533,-0.652003,-0.806034,-0.150605,-0.173827,-0.249528,-0.236854,-0.358954,-0.0106038
35,65,-0.654498,-0.814493,-0.174533,-0.174533,-0.652003,-0.806034,-0.150605,-0.173827,-0.249528,-0.236854,-0.358954,-0.0106038
35,65,-0.654498,-0.814493,-0.174533,-0.174533,-0.652003,-0.806034,-0.150605,-0.173827,-0.249528,-0.236854,-0.358954,-0.0106038
35,65,-0.654498,-0.814493,-0.174533,-0.174533,-0.652003,-0.806034,-0.150605,-0.173827,-0.249528,-0.236854,-0.358954,-0.0106038
35,65,-0.654498,-0.814493,-0.174533,-0.174533,-0.652003,-0.806034,-0.150605,-0.173827,-0.249528,-0.236854,-0.358954,-0.0106038
35,65,-0.654498,-0.814493,-0.174533,-0.174533,-0.652003,-0.806034,-0.150605,-0.173827,-0.249528,-0.236854,-0.358954,-0.0106038
35,65,-0.654498,-0.814493,-0.174533,-0.174533,-0.652003,-0.806034,-0.150605,-0.173827,-0.249528,-0.236854,-0.358954,-0.0106038
35,65,-0.654498,-0.814493,-0.174533,-0.174533,-0.652003,-0.806034,-0.150605,-0.173827,-0.249528,-0.236854,-0.358954,-0.0106038
35,65,-0.654498,-0.814493,-0.174533,-0.174533,-0.652003,-0.806034,-0.150605,-0.173827,-0.249528,-0.236854,-0.358954,-0.0106038
35,65,-0.654498,-0.814493,-0.174533,-0.174533,-0.652003,-0.806034,-0.150605,-0.173827,-0.249528,-0.236854,-0.358954,-0.0106038
35,65,-0.654498,-0.814493,-0.174533,-0.174533,-0.652003,-0.806034,-0.150605,-0.173827,-0.249528,-0.236854,-0.358954,-0.0106038
35,65,-0.654498,-0.814493,-0.174533,-0.174533,-0.652003,-0.806034,-0.150605,-0.173827,-0.249528,-0.236854,-0.358954,-0.0106038
35,65,-0.654498,-0.814493,-0.174533,-0.174533,-0.652003,-0.806034,-0.150605,-0.173827,-0.249528,-0.236854,-0.358954,-0.0106038
35,65,-0.654498,-0.814493,-0.174533,-0.174533,-0.652003,-0.806034,-0.150605,-0.173827,-0.249528,-0.236854,-0.358954,-0.0106038
35,65,-0.654498,-0.814493,-0.174533,-0.174533,-0.652003,-0.806034,-0.150605,-0.173827,-0.249528,-0.236854,-0.358954,-0.0106038
35,65,-0.654498,-0.814493,-0.174533,-0.174533,-0.652003,-0.806034,-0.150605,-0.173827,-0.249528,-0.236854,-0.358954,-0.0106038
35,65,-0.654498,-0.814493,-0.174533,-0.174533,-0.652003,-0.806034,-0.150605,-0.173827,-0.249528,-0.236854,-0.358954,-0.0106038
35,65,-0.654498,-0.814493,-0.174533,-0.174533,-0.652003,-0.806034,-0.150605,-0.173827,-0.249528,-0.236854,-0.358954,-0.0106038
35,65,-0.654498,-0.814493,-0.174533,-0.174533,-0.652003,-0.806034,-0.150605,-0.173827,-0.249528,-0.236854,-0.358954,-0.0106038
35,65,-0.654498,-0.814493,-0.174533,-0.174533,-0.652003,-0.806034,-0.150605,-0.173827,-0.249528,-0.236854,-0.358954,-0.0106038
35,65,-0.654498,-0.814493,-0.174533,-0.174533,-0.652003,-0.806034,-0.150605,-0.173827,-0.249528,-0.236854,-0.358954,-0.0106038
35,65,-0.654498,-0.814493,-0.174533,-0.174533,-0.652003,-0.806034,-0.150605,-0.173827,-0.249528,-0.236854,-0.358954,-0.0106038
35,65,-0.654498,-0.814493,-0.174533,-0.174533,-0.652003,-0.806034,-0.150605,-0.173827,-0.249528,-0.236854,-0.358954,-0.0106038
35,65,-0.654498,-0.814493,-0.174533,-0.174533,-0.652003,-0.806034,-0.150605,-0.173827,-0.249528,-0.236854,-0.358954,-0.0106038
35,65,-0.654498,-0.814493,-0.174533,-0.174533,-0.652003,-0.806034,-0.150605,-0.173827,-0.249528,-0.236854,-0.358954,-0.0106038
35,65,-0.654498,-0.814493,-0.174533,-0.174533,-0.652003,-0.806034,-0.150605,-0.173827,-0.249528,-0.236854,-0.358954,-0.0106038
35,65,-0.654498,-0.814493,-0.174533,-0.174533,-0.652003,-0.806034,-0.150605,-0.173827,-0.249528,-0.236854,-0.358954,-0.0106038
35,65,-0.654498,-0.814493,-0.174533,-0.174533,-0.652003,-0.806034,-0.150541,-0.173786,-0.249528,-0.236854,-0.359884,-0.0112048
35,65,-0.654498,-0.814493,-0.174533,-0.174533,-0.652003,-0.806034,-0.150541,-0.173786,-0.249528,-0.236854,-0.359884,-0.0112048
35,65,-0.654498,-0.814493,-0.174533,-0.174533,-0.652003,-0.806034,-0.150541,-0.173786,-0.249528,-0.236854,-0.359884,-0.0112048
35,65,-0.654498,-0.814493,-0.174533,-0.174533,-0.652003,-0.806034,-0.150541,-0.173786,-0.249528,-0.236854,-0.359884,-0.0112048
35,65,-0.654498,-0.814493,-0.174533,-0.174533,-0.652003,-0.806034,-0.150541,-0.173786,-0.249528,-0.236854,-0.359884,-0.0112048
35,65,-0.654498,-0.814493,-0.174533,-0.174533,-0.652003,-0.806034,-0.150541,-0.173786,-0.249528,-0.236854,-0.359884,-0.0112048
35,65,-0.654498,-0.814493,-0.174533,-0.174533,-0.652003,-0.806034,-0.150541,-0.173786,-0.249528,-0.236854,-0.359884,-0.0112048
35,65,-0.654498,-0.814493,-0.174533,-0.174533,-0.652003,-0.806034,-0.150541,-0.173786,-0.249528,-0.236854,-0.359884,-0.0112048
35,65,-0.654498,-0.814493,-0.174533,-0.174533,-0.652003,-0.806034,-0.150541,-0.173786,-0.249528,-0.236854,-0.359884,-0.0112048
35,65,-0.654498,-0.814493,-0.174533,-0.174533,-0.652003,-0.806034,-0.150541,-0.173786,-0.249528,-0.236854,-0.359884,-0.0112048
35,65,-0.654498,-0.814493,-0.174533,-0.174533,-0.652003,-0.806034,-0.150541,-0.173786,-0.249528,-0.236854,-0.359884,-0.0112048
35,65,-0.654498,-0.814493,-0.174533,-0.174533,-0.652003,-0.806034,-0.150541,-0.173786,-0.249528,-0.236854,-0.359884,-0.0112048
35,65,-0.654498,-0.814493,-0.174533,-0.174533,-0.652003,-0.806034,-0.150541,-0.173786,-0.249528,-0.236854,-0.359884,-0.0112048
35,65,-0.654498,-0.814493,-0.174533,-0.174533,-0.652003,-0.806034,-0.150541,-0.173786,-0.249528,-0.236854,-0.359884,-0.0112048
35,65,-0.654498,-0.814493,-0.174533,-0.174533,-0.652003,-0.806034,-0.150541,-0.173786,-0.249528,-0.236854,-0.359884,-0.0112048
35,65,-0.654498,-0.814493,-0.174533,-0.174533,-0.652003,-0.806034,-0.150541,-0.173786,-0.249528,-0.236854,-0.359884,-0.0112048
35,65,-0.654498,-0.814493,-0.174533,-0.174533,-0.652003,-0.806034,-0.150541,-0.173786,-0.249528,-0.236854,-0.359884,-0.0112048
35,65,-0.654498,-0.814493,-0.174533,-0.174533,-0.652003,-0.806034,-0.150541,-0.173786,-0.249528,-0.236854,-0.359884,-0.0112048
35,65,-0.654498,-0.814493,-0.174533,-0.174533,-0.652003,-0.806034,-0.150541,-0.173786,-0.249528,-0.236854,-0.359884,-0.0112048
35,65,-0.654498,-0.814493,-0.174533,-0.174533,-0.652003,-0.806034,-0.150541,-0.173786,-0.249528,-0.236854,-0.359884,-0.0112048
35,65,-0.654498,-0.814493,-0.174533,-0.174533,-0.652003,-0.806034,-0.150541,-0.173786,-0.249528,-0.236854,-0.359884,-0.0112048
35,65,-0.654498,-0.814493,-0.174533,-0.174533,-0.652003,-0.806034,-0.150541,-0.173786,-0.249528,-0.236854,-0.359884,-0.0112048
35,65,-0.654498,-0.814493,-0.174533,-0.174533,-0.652003,-0.806034,-0.150541,-0.173786,-0.249528,-0.236854,-0.359884,-0.0112048
35,65,-0.654498,-0.814493,-0.174533,-0.174533,-0.652003,-0.806034,-0.150541,-0.173786,-0.249528,-0.236854,-0.359884,-0.0112048
35,65,-0.654498,-0.814493,-0.174533,-0.174533,-0.652003,-0.806034,-0.150541,-0.173786,-0.249528,-0.236854,-0.359884,-0.0112048
35,65,-0.654498,-0.814493,-0.174533,-0.174533,-0.652003,-0.806034,-0.150541,-0.173786,-0.249528,-0.236854,-0.359884,-0.0112048
35,65,-0.654498,-0.814493,-0.174533,-0.174533,-0.652003,-0.806034,-0.150541,-0.173786,-0.249528,-0.236854,-0.359884,-0.0112048
35,65,-0.654498,-0.814493,-0.174533,-0.174533,-0.652003,-0.806034,-0.150541,-0.173786,-0.249528,-0.236854,-0.359884,-0.0112048
35,65,-0.654498,-0.814493,-0.174533,-0.174533,-0.652003,-0.806034,-0.150541,-0.173786,-0.249528,-0.236854,-0.359884,-0.0112048
35,65,-0.654498,-0.814493,-0.174533,-0.174533,-0.652003,-0.806034,-0.150541,-0.173786,-0.249528,-0.236854,-0.359884,-0.0112048
35,65,-0.654498,-0.814493,-0.174533,-0.174533,-0.652003,-0.806034,-0.150541,-0.173786,-0.249528,-0.236854,-0.359884,-0.0112048
35,65,-0.654498,-0.814493,-0.174533,-0.174533,-0.652003,-0.806034,-0.150541,-0.173786,-0.249528,-0.236854,-0.359884,-0.0112048
35,65,-0.654498,-0.814493,-0.174533,-0.174533,-0.652003,-0.806034,-0.150541,-0.173786,-0.249528,-0.236854,-0.359884,-0.0112048
35,65,-0.654498,-0.814493,-0.174533,-0.174533,-0.652003,-0.806034,-0.150541,-0.173786,-0.249528,-0.236854,-0.359884,-0.0112048
35,65,-0.654498,-0.814493,-0.174533,-0.174533,-0.652003,-0.806034,-0.150541,-0.173786,-0.249528,-0.236854,-0.359884,-0.0112048
35,65,-0.654498,-0.814493,-0.174533,-0.174533,-0.652003,-0.806034,-0.150541,-0.173786,-0.249528,-0.236854,-0.359884,-0.0112048
35,65,-0.654498,-0.814493,-0.174533,-0.174533,-0.652003,-0.806034,-0.150541,-0.173786,-0.249528,-0.236854,-0.359884,-0.0112048
35,65,-0.654498,-0.814493,-0.174533,-0.174533,-0.652003,-0.806034,-0.150541,-0.173786,-0.249528,-0.236854,-0.359884,-0.0112048
35,65,-0.654498,-0.814493,-0.174533,-0.174533,-0.652003,-0.806034,-0.150541,-0.173786,-0.249528,-0.236854,-0.359884,-0.0112048
35,65,-0.654498,-0.814493,-0.174533,-0.174533,-0.652003,-0.806034,-0.150541,-0.173786,-0.249528,-0.236854,-0.359884,-0.0112048
35,65,-0.654498,-0.814493,-0.174533,-0.174533,-0.652003,-0.806034,-0.150541,-0.173786,-0.249528,-0.236854,-0.359884,-0.0112048
35,65,-0.654498,-0.814493,-0.174533,-0.174533,-0.652003,-0.806034,-0.150541,-0.173786,-0.249528,-0.236854,-0.359884,-0.0112048
35,65,-0.654498,-0.814493,-0.174533,-0.174533,-0.652003,-0.806034,-0.150541,-0.173786,-0.249528,-0.236854,-0.359884,-0.0112048
35,65,-0.654498,-0.814493,-0.174533,-0.174533,-0.652003,-0.806034,-0.150541,-0.173786,-0.249528,-0.236854,-0.359884,-0.0112048
35,65,-0.654498,-0.814493,-0.174533,-0.174533,-0.652003,-0.806034,-0.150541,-0.173786,-0.249528,-0.236854,-0.359884,-0.0112048
35,65,-0.654498,-0.814493,-0.174533,-0.174533,-0.652003,-0.806034,-0.150541,-0.173786,-0.249528,-0.236854,-0.359884,-0.0112048
35,65,-0.654498,-0.814493,-0.174533,-0.174533,-0.652003,-0.806034,-0.150541,-0.173786,-0.249528,-0.236854,-0.359884,-0.0112048
35,65,-0.654498,-0.814493,-0.174533,-0.174533,-0.652003,-0.806034,-0.150541,-0.173786,-0.249528,-0.236854,-0.359884,-0.0112048
35,65,-0.654498,-0.814493,-0.174533,-0.174533,-0.652003,-0.806034,-0.150541,-0.173786,-0.249528,-0.236854,-0.359884,-0.0112048
35,65,-0.654498,-0.814493,-0.174533,-0.174533,-0.652003,-0.806034,-0.150541,-0.173786,-0.249528,-0.236854,-0.359884,-0.0112048
35,65,-0.654498,-0.814493,-0.174533,-0.174533,-0.652003,-0.806034,-0.150541,-0.173786,-0.249528,-0.236854,-0.359884,-0.0112048
35,65,-0.654498,-0.814493,-0.174533,-0.174533,-0.652003,-0.806034,-0.150541,-0.173786,-0.249528,-0.236854,-0.359884,-0.0112048
35,65,-0.654498,-0.814493,-0.174533,-0.174533,-0.652003,-0.806085,-0.150541,-0.173786,-0.249528,-0.235431,-0.359884,-0.0112048
35,65,-0.654498,-0.814493,-0.174533,-0.174533,-0.652003,-0.806085,-0.150541,-0.173786,-0.249528,-0.235431,-0.359884,-0.0112048
35,65,-0.654498,-0.814493,-0.174533,-0.174533,-0.652003,-0.806085,-0.150541,-0.173786,-0.249528,-0.235431,-0.359884,-0.0112048
35,65,-0.654498,-0.814493,-0.174533,-0.174533,-0.652003,-0.806085,-0.150541,-0.173786,-0.249528,-0.235431,-0.359884,-0.0112048
35,65,-0.654498,-0.814493,-0.174533,-0.174533,-0.652003,-0.806085,-0.150541,-0.173786,-0.249528,-0.235431,-0.359884,-0.0112048
35,65,-0.654498,-0.814493,-0.174533,-0.174533,-0.652003,-0.806085,-0.150541,-0.173786,-0.249528,-0.235431,-0.359884,-0.0112048
35,65,-0.654498,-0.814493,-0.174533,-0.174533,-0.652003,-0.806085,-0.150541,-0.173786,-0.249528,-0.235431,-0.359884,-0.0112048
35,65,-0.654498,-0.814493,-0.174533,-0.174533,-0.652003,-0.806085,-0.150541,-0.173786,-0.249528,-0.235431,-0.359884,-0.0112048
35,65,-0.654498,-0.814493,-0.174533,-0.174533,-0.652003,-0.806085,-0.150476,-0.173744,-0.249528,-0.235431,-0.360848,-0.0118278
35,65,-0.654498,-0.814493,-0.174533,-0.174533,-0.652003,-0.806085,-0.150476,-0.173744,-0.249528,-0.235431,-0.360848,-0.0118278
35,65,-0.654498,-0.814493,-0.174533,-0.174533,-0.652003,-0.806085,-0.150476,-0.173744,-0.249528,-0.235431,-0.360848,-0.0118278
35,65,-0.654498,-0.814493,-0.174533,-0.174533,-0.652003,-0.806085,-0.150476,-0.173744,-0.249528,-0.235431,-0.360848,-0.0118278
35,65,-0.654498,-0.814493,-0.174533,-0.174533,-0.652003,-0.806085,-0.150476,-0.173744,-0.249528,-0.235431,-0.360848,-0.0118278
35,65,-0.654498,-0.814493,-0.174533,-0.174533,-0.652003,-0.806085,-0.150476,-0.173744,-0.249528,-0.235431,-0.360848,-0.0118278
35,65,-0.654498,-0.814493,-0.174533,-0.174533,-0.652003,-0.806085,-0.150476,-0.173744,-0.249528,-0.235431,-0.360848,-0.0118278
35,65,-0.654498,-0.814493,-0.174533,-0.174533,-0.652003,-0.806085,-0.150476,-0.173744,-0.249528,-0.235431,-0.360848,-0.0118278
35,65,-0.654498,-0.814493,-0.174533,-0.174533,-0.652003,-0.806085,-0.150476,-0.173744,-0.249528,-0.235431,-0.360848,-0.0118278
35,65,-0.654498,-0.814493,-0.174533,-0.174533,-0.652003,-0.806085,-0.150476,-0.173744,-0.249528,-0.235431,-0.360848,-0.0118278
35,65,-0.654498,-0.814493,-0.174533,-0.174533,-0.652003,-0.806085,-0.150476,-0.173744,-0.249528,-0.235431,-0.360848,-0.0118278
35,65,-0.654498,-0.814493,-0.174533,-0.174533,-0.652003,-0.806085,-0.150476,-0.173744,-0.249528,-0.235431,-0.360848,-0.0118278
35,65,-0.654498,-0.814493,-0.174533,-0.174533,-0.652003,-0.806085,-0.150476,-0.173744,-0.249528,-0.235431,-0.360848,-0.0118278
35,65,-0.654498,-0.814493,-0.174533,-0.174533,-0.652003,-0.806085,-0.150476,-0.173744,-0.249528,-0.235431,-0.360848,-0.0118278
35,65,-0.654498,-0.814493,-0.174533,-0.174533,-0.652003,-0.806085,-0.150476,-0.173744,-0.249528,-0.235431,-0.360848,-0.0118278
35,65,-0.654498,-0.814493,-0.174533,-0.174533,-0.652003,-0.806085,-0.150476,-0.173744,-0.249528,-0.235431,-0.360848,-0.0118278
35,65,-0.654498,-0.814493,-0.174533,-0.174533,-0.652003,-0.806085,-0.150476,-0.173744,-0.249528,-0.235431,-0.360848,-0.0118278
35,65,-0.654498,-0.814493,-0.174533,-0.174533,-0.652003,-0.806085,-0.150476,-0.173744,-0.249528,-0.235431,-0.360848,-0.0118278
35,65,-0.654498,-0.814493,-0.174533,-0.174533,-0.652003,-0.806085,-0.150476,-0.173744,-0.249528,-0.235431,-0.360848,-0.0118278
35,65,-0.654498,-0.814493,-0.174533,-0.174533,-0.652003,-0.806085,-0.150476,-0.173744,-0.249528,-0.235431,-0.360848,-0.0118278
35,65,-0.654498,-0.814493,-0.174533,-0.174533,-0.652003,-0.806085,-0.150476,-0.173744,-0.249528,-0.235431,-0.360848,-0.0118278
35,65,-0.654498,-0.814493,-0.174533,-0.174533,-0.652003,-0.806085,-0.150476,-0.173744,-0.249528,-0.235431,-0.360848,-0.0118278
35,65,-0.654498,-0.814493,-0.174533,-0.174533,-0.652003,-0.806085,-0.150476,-0.173744,-0.249528,-0.235431,-0.360848,-0.0118278
35,65,-0.654498,-0.814493,-0.174533,-0.174533,-0.652003,-0.806085,-0.150476,-0.173744,-0.249528,-0.235431,-0.360848,-0.0118278
35,65,-0.654498,-0.814493,-0.174533,-0.174533,-0.652003,-0.806085,-0.150476,-0.173744,-0.249528,-0.235431,-0.360848,-0.0118278
35,65,-0.654498,-0.814493,-0.174533,-0.174533,-0.652003,-0.806085,-0.150476,-0.173744,-0.249528,-0.235431,-0.360848,-0.0118278
35,65,-0.654498,-0.814493,-0.174533,-0.174533,-0.652003,-0.806085,-0.150476,-0.173744,-0.249528,-0.235431,-0.360848,-0.0118278
35,65,-0.654498,-0.814493,-0.174533,-0.174533,-0.652003,-0.806085,-0.150476,-0.173744,-0.249528,-0.235431,-0.360848,-0.0118278
35,65,-0.654498,-0.814493,-0.174533,-0.174533,-0.652003,-0.806085,-0.150476,-0.173744,-0.249528,-0.235431,-0.360848,-0.0118278
35,65,-0.654498,-0.814493,-0.174533,-0.174533,-0.652003,-0.806085,-0.150476,-0.173744,-0.249528,-0.235431,-0.360848,-0.0118278
35,65,-0.654498,-0.814493,-0.174533,-0.174533,-0.652003,-0.806085,-0.150476,-0.173744,-0.249528,-0.235431,-0.360848,-0.0118278
35,65,-0.654498,-0.814493,-0.174533,-0.174533,-0.652003,-0.806085,-0.150476,-0.173744,-0.249528,-0.235431,-0.360848,-0.0118278
35,65,-0.654498,-0.814493,-0.174533,-0.174533,-0.652003,-0.806085,-0.150476,-0.173744,-0.249528,-0.235431,-0.360848,-0.0118278
35,65,-0.654498,-0.814493,-0.174533,-0.174533,-0.652003,-0.806085,-0.150476,-0.173744,-0.249528,-0.235431,-0.360848,-0.0118278
35,65,-0.654498,-0.814493,-0.174533,-0.174533,-0.652003,-0.806085,-0.150476,-0.173744,-0.249528,-0.235431,-0.360848,-0.0118278
35,65,-0.654498,-0.814493,-0.174533,-0.174533,-0.652003,-0.806085,-0.150476,-0.173744,-0.249528,-0.235431,-0.360848,-0.0118278
35,65,-0.654498,-0.814493,-0.174533,-0.174533,-0.652003,-0.806085,-0.150476,-0.173744,-0.249528,-0.235431,-0.360848,-0.0118278
35,65,-0.654498,-0.814493,-0.174533,-0.174533,-0.652003,-0.806085,-0.150412,-0.173703,-0.249528,-0.235431,-0.361812,-0.0124508
35,65,-0.654498,-0.814493,-0.174533,-0.174533,-0.652003,-0.806085,-0.150412,-0.173703,-0.249528,-0.235431,-0.361812,-0.0124508
35,65,-0.654498,-0.814493,-0.174533,-0.174533,-0.652003,-0.806085,-0.150412,-0.173703,-0.249528,-0.235431,-0.361812,-0.0124508
35,65,-0.654498,-0.814493,-0.174533,-0.174533,-0.652003,-0.806085,-0.150412,-0.173703,-0.249528,-0.235431,-0.361812,-0.0124508
35,65,-0.654498,-0.814493,-0.174533,-0.174533,-0.652003,-0.806085,-0.150412,-0.173703,-0.249528,-0.235431,-0.361812,-0.0124508
35,65,-0.654498,-0.814493,-0.174533,-0.174533,-0.652003,-0.806085,-0.150412,-0.173703,-0.249528,-0.235431,-0.361812,-0.0124508
35,65,-0.654498,-0.814493,-0.174533,-0.174533,-0.652003,-0.806085,-0.150348,-0.173661,-0.249528,-0.235431,-0.362776,-0.0130737
35,65,-0.654498,-0.814493,-0.174533,-0.174533,-0.652003,-0.806085,-0.150348,-0.173661,-0.249528,-0.235431,-0.362776,-0.0130737
35,65,-0.654498,-0.814493,-0.174533,-0.174533,-0.652003,-0.806085,-0.150348,-0.173661,-0.249528,-0.235431,-0.362776,-0.0130737
35,65,-0.654498,-0.814493,-0.174533,-0.174533,-0.652003,-0.806085,-0.150348,-0.173661,-0.249528,-0.235431,-0.362776,-0.0130737
35,65,-0.654498,-0.814493,-0.174533,-0.174533,-0.652003,-0.806085,-0.150348,-0.173661,-0.249528,-0.235431,-0.362776,-0.0130737
35,65,-0.654498,-0.814493,-0.174533,-0.174533,-0.652003,-0.806085,-0.150348,-0.173661,-0.249528,-0.235431,-0.362776,-0.0130737
35,65,-0.654498,-0.814493,-0.174533,-0.174533,-0.652003,-0.806085,-0.150348,-0.173661,-0.249528,-0.235431,-0.362776,-0.0130737
35,65,-0.654498,-0.814493,-0.174533,-0.174533,-0.652003,-0.806085,-0.150348,-0.173661,-0.249528,-0.235431,-0.362776,-0.0130737
35,65,-0.654498,-0.814493,-0.174533,-0.174533,-0.652003,-0.806085,-0.150348,-0.173661,-0.249528,-0.235431,-0.362776,-0.0130737
