stim_pw [us],stim_amp [mA],com_elbow_fe [rad],com_forearm_ps [rad],com_wrist_fe [rad],com_wrist_ru [rad],act_elbow_fe [rad],act_forearm_ps [rad],act_wrist_fe [rad],act_wrist_ru [rad],elbow_fe_trq [Nm],forearm_ps_trq [Nm],wrist_fe_trq [Nm],wrist_ru_trq [Nm]
29,65,-0.654498,-0.814493,-0.174533,-0.174533,-0.656155,-0.803034,-0.159501,-0.158339,0.16567,-0.320844,-0.225739,-0.243075
29,65,-0.654498,-0.814493,-0.174533,-0.174533,-0.656155,-0.803034,-0.159501,-0.158339,0.16567,-0.320844,-0.225739,-0.243075
29,65,-0.654498,-0.814493,-0.174533,-0.174533,-0.656155,-0.803034,-0.159437,-0.158298,0.16567,-0.320844,-0.226705,-0.24371
29,65,-0.654498,-0.814493,-0.174533,-0.174533,-0.656155,-0.803034,-0.159437,-0.158298,0.16567,-0.320844,-0.226705,-0.24371
29,65,-0.654498,-0.814493,-0.174533,-0.174533,-0.656155,-0.803034,-0.159374,-0.158256,0.16567,-0.320844,-0.227644,-0.244326
29,65,-0.654498,-0.814493,-0.174533,-0.174533,-0.656155,-0.803034,-0.159374,-0.158256,0.16567,-0.320844,-0.227644,-0.244326
29,65,-0.654498,-0.814493,-0.174533,-0.174533,-0.656155,-0.803034,-0.159374,-0.158256,0.16567,-0.320844,-0.227644,-0.244326
29,65,-0.654498,-0.814493,-0.174533,-0.174533,-0.656155,-0.803034,-0.159311,-0.158214,0.16567,-0.320844,-0.228595,-0.244951
29,65,-0.654498,-0.814493,-0.174533,-0.174533,-0.656155,-0.803034,-0.159311,-0.158214,0.16567,-0.320844,-0.228595,-0.244951
29,65,-0.654498,-0.814493,-0.174533,-0.174533,-0.656155,-0.803034,-0.159311,-0.158214,0.16567,-0.320844,-0.228595,-0.244951
29,65,-0.654498,-0.814493,-0.174533,-0.174533,-0.656155,-0.803034,-0.159311,-0.158214,0.16567,-0.320844,-0.228595,-0.244951
29,65,-0.654498,-0.814493,-0.174533,-0.174533,-0.656155,-0.803034,-0.159247,-0.158173,0.16567,-0.320844,-0.229521,-0.245559
29,65,-0.654498,-0.814493,-0.174533,-0.174533,-0.656155,-0.803034,-0.159247,-0.158173,0.16567,-0.320844,-0.229521,-0.245559
29,65,-0.654498,-0.814493,-0.174533,-0.174533,-0.656155,-0.803034,-0.159247,-0.158173,0.16567,-0.320844,-0.229521,-0.245559
29,65,-0.654498,-0.814493,-0.174533,-0.174533,-0.656155,-0.803034,-0.159247,-0.158173,0.16567,-0.320844,-0.229521,-0.245559
29,65,-0.654498,-0.814493,-0.174533,-0.174533,-0.656155,-0.803034,-0.159247,-0.158173,0.16567,-0.320844,-0.229521,-0.245559
29,65,-0.654498,-0.814493,-0.174533,-0.174533,-0.656155,-0.803034,-0.159247,-0.158173,0.16567,-0.320844,-0.229521,-0.245559
29,65,-0.654498,-0.814493,-0.174533,-0.174533,-0.656155,-0.803034,-0.159247,-0.158173,0.16567,-0.320844,-0.229521,-0.245559
29,65,-0.654498,-0.814493,-0.174533,-0.174533,-0.656155,-0.803034,-0.159247,-0.158173,0.16567,-0.320844,-0.229521,-0.245559
29,65,-0.654498,-0.814493,-0.174533,-0.174533,-0.656155,-0.803034,-0.159247,-0.158173,0.16567,-0.320844,-0.229521,-0.245559
29,65,-0.654498,-0.814493,-0.174533,-0.174533,-0.656155,-0.803034,-0.159247,-0.158173,0.16567,-0.320844,-0.229521,-0.245559
29,65,-0.654498,-0.814493,-0.174533,-0.174533,-0.656155,-0.803034,-0.159247,-0.158173,0.16567,-0.320844,-0.22952,-0.245558
29,65,-0.654498,-0.814493,-0.174533,-0.174533,-0.656155,-0.803034,-0.159247,-0.158173,0.16567,-0.320844,-0.2295,-0.245545
29,65,-0.654498,-0.814493,-0.174533,-0.174533,-0.656155,-0.803034,-0.159247,-0.158173,0.16567,-0.320844,-0.229484,-0.245534
29,65,-0.654498,-0.814493,-0.174533,-0.174533,-0.656155,-0.803034,-0.159247,-0.158173,0.16567,-0.320844,-0.229469,-0.245525
29,65,-0.654498,-0.814493,-0.174533,-0.174533,-0.656155,-0.803034,-0.159247,-0.158173,0.16567,-0.320844,-0.229457,-0.245516
29,65,-0.654498,-0.814493,-0.174533,-0.174533,-0.656155,-0.803034,-0.159184,-0.158131,0.16567,-0.320844,-0.23034,-0.246096
29,65,-0.654498,-0.814493,-0.174533,-0.174533,-0.656155,-0.803034,-0.159184,-0.158131,0.16567,-0.320844,-0.23034,-0.246096
29,65,-0.654498,-0.814493,-0.174533,-0.174533,-0.656155,-0.803034,-0.159184,-0.158131,0.16567,-0.320844,-0.23034,-0.246096
29,65,-0.654498,-0.814493,-0.174533,-0.174533,-0.656155,-0.803034,-0.159184,-0.158131,0.16567,-0.320844,-0.23034,-0.246096
29,65,-0.654498,-0.814493,-0.174533,-0.174533,-0.656155,-0.803034,-0.159184,-0.158131,0.16567,-0.320844,-0.23034,-0.246096
29,65,-0.654498,-0.814493,-0.174533,-0.174533,-0.656155,-0.803034,-0.159184,-0.158131,0.16567,-0.320844,-0.23034,-0.246096
29,65,-0.654498,-0.814493,-0.174533,-0.174533,-0.656155,-0.803034,-0.159184,-0.158131,0.16567,-0.320844,-0.23034,-0.246096
29,65,-0.654498,-0.814493,-0.174533,-0.174533,-0.656155,-0.803034,-0.159184,-0.158131,0.16567,-0.320844,-0.23034,-0.246096
29,65,-0.654498,-0.814493,-0.174533,-0.174533,-0.656155,-0.803034,-0.159184,-0.158131,0.16567,-0.320844,-0.23034,-0.246096
29,65,-0.654498,-0.814493,-0.174533,-0.174533,-0.656155,-0.803034,-0.159184,-0.158131,0.16567,-0.320844,-0.23034,-0.246096
29,65,-0.654498,-0.814493,-0.174533,-0.174533,-0.656155,-0.803034,-0.159184,-0.158131,0.16567,-0.320844,-0.23034,-0.246096
29,65,-0.654498,-0.814493,-0.174533,-0.174533,-0.656155,-0.803034,-0.159184,-0.158131,0.16567,-0.320844,-0.23034,-0.246096
29,65,-0.654498,-0.814493,-0.174533,-0.174533,-0.656155,-0.803034,-0.159184,-0.158131,0.16567,-0.320844,-0.23034,-0.246096
29,65,-0.654498,-0.814493,-0.174533,-0.174533,-0.656155,-0.803034,-0.159184,-0.158131,0.16567,-0.320844,-0.23034,-0.246096
29,65,-0.654498,-0.814493,-0.174533,-0.174533,-0.656155,-0.803034,-0.159184,-0.158131,0.16567,-0.320844,-0.23034,-0.246096
29,65,-0.654498,-0.814493,-0.174533,-0.174533,-0.656155,-0.803034,-0.159184,-0.158131,0.16567,-0.320844,-0.23034,-0.246096
29,65,-0.654498,-0.814493,-0.174533,-0.174533,-0.656155,-0.803034,-0.159184,-0.158131,0.16567,-0.320844,-0.23034,-0.246096
29,65,-0.654498,-0.814493,-0.174533,-0.174533,-0.656155,-0.803034,-0.159184,-0.158131,0.16567,-0.320844,-0.23034,-0.246096
29,65,-0.654498,-0.814493,-0.174533,-0.174533,-0.656155,-0.803034,-0.159184,-0.158131,0.16567,-0.320844,-0.23034,-0.246096
29,65,-0.654498,-0.814493,-0.174533,-0.174533,-0.656155,-0.803034,-0.159184,-0.158131,0.16567,-0.320844,-0.23034,-0.246096
29,65,-0.654498,-0.814493,-0.174533,-0.174533,-0.656155,-0.803034,-0.159184,-0.158131,0.16567,-0.320844,-0.23034,-0.246096
29,65,-0.654498,-0.814493,-0.174533,-0.174533,-0.656155,-0.803034,-0.159184,-0.158131,0.16567,-0.320844,-0.23034,-0.246096
29,65,-0.654498,-0.814493,-0.174533,-0.174533,-0.656155,-0.803034,-0.159184,-0.158131,0.16567,-0.320844,-0.23034,-0.246096
29,65,-0.654498,-0.814493,-0.174533,-0.174533,-0.656155,-0.803034,-0.159184,-0.158131,0.16567,-0.320844,-0.23034,-0.246096
29,65,-0.654498,-0.814493,-0.174533,-0.174533,-0.656155,-0.803034,-0.159184,-0.158131,0.16567,-0.320844,-0.23034,-0.246096
29,65,-0.654498,-0.814493,-0.174533,-0.174533,-0.656155,-0.803034,-0.159184,-0.158131,0.16567,-0.320844,-0.230337,-0.246094
29,65,-0.654498,-0.814493,-0.174533,-0.174533,-0.656155,-0.803034,-0.159184,-0.158131,0.16567,-0.320844,-0.230333,-0.246092
29,65,-0.654498,-0.814493,-0.174533,-0.174533,-0.656155,-0.803034,-0.159184,-0.158131,0.16567,-0.320844,-0.230329,-0.246089
29,65,-0.654498,-0.814493,-0.174533,-0.174533,-0.656155,-0.803034,-0.159184,-0.158131,0.16567,-0.320844,-0.230326,-0.246087
29,65,-0.654498,-0.814493,-0.174533,-0.174533,-0.656155,-0.803034,-0.159184,-0.158131,0.16567,-0.320844,-0.230323,-0.246085
29,65,-0.654498,-0.814493,-0.174533,-0.174533,-0.656155,-0.803034,-0.159184,-0.158131,0.16567,-0.320844,-0.23032,-0.246083
29,65,-0.654498,-0.814493,-0.174533,-0.174533,-0.656155,-0.803034,-0.159184,-0.158131,0.16567,-0.320844,-0.230317,-0.246082
29,65,-0.654498,-0.814493,-0.174533,-0.174533,-0.656155,-0.803034,-0.159184,-0.158131,0.16567,-0.320844,-0.230315,-0.24608
29,65,-0.654498,-0.814493,-0.174533,-0.174533,-0.656155,-0.803034,-0.159184,-0.158131,0.16567,-0.320844,-0.230313,-0.246078
29,65,-0.654498,-0.814493,-0.174533,-0.174533,-0.656155,-0.803034,-0.159184,-0.158131,0.16567,-0.320844,-0.23031,-0.246077
29,65,-0.654498,-0.814493,-0.174533,-0.174533,-0.656155,-0.803034,-0.159184,-0.158131,0.16567,-0.320844,-0.230308,-0.246076
29,65,-0.654498,-0.814493,-0.174533,-0.174533,-0.656155,-0.803034,-0.159184,-0.158131,0.16567,-0.320844,-0.230306,-0.246074
29,65,-0.654498,-0.814493,-0.174533,-0.174533,-0.656155,-0.803034,-0.159184,-0.158131,0.16567,-0.320844,-0.230304,-0.246073
29,65,-0.654498,-0.814493,-0.174533,-0.174533,-0.656155,-0.803034,-0.159184,-0.158131,0.16567,-0.320844,-0.230303,-0.246072
29,65,-0.654498,-0.814493,-0.174533,-0.174533,-0.656155,-0.803034,-0.159184,-0.158131,0.16567,-0.320844,-0.230301,-0.246071
29,65,-0.654498,-0.814493,-0.174533,-0.174533,-0.656155,-0.803034,-0.159184,-0.158131,0.16567,-0.320844,-0.230299,-0.24607
29,65,-0.654498,-0.814493,-0.174533,-0.174533,-0.656155,-0.803034,-0.159184,-0.158131,0.16567,-0.320844,-0.230298,-0.246069
29,65,-0.654498,-0.814493,-0.174533,-0.174533,-0.656155,-0.803034,-0.159184,-0.158131,0.16567,-0.320844,-0.230296,-0.246068
29,65,-0.654498,-0.814493,-0.174533,-0.174533,-0.656155,-0.803034,-0.159184,-0.158131,0.16567,-0.320844,-0.230295,-0.246067
29,65,-0.654498,-0.814493,-0.174533,-0.174533,-0.656155,-0.803034,-0.159184,-0.158131,0.16567,-0.320844,-0.230294,-0.246066
29,65,-0.654498,-0.814493,-0.174533,-0.174533,-0.656155,-0.803034,-0.159184,-0.158131,0.16567,-0.320844,-0.230293,-0.246065
29,65,-0.654498,-0.814493,-0.174533,-0.174533,-0.656155,-0.803034,-0.159184,-0.158131,0.16567,-0.320844,-0.230291,-0.246064
29,65,-0.654498,-0.814493,-0.174533,-0.174533,-0.656155,-0.803034,-0.159184,-0.158131,0.16567,-0.320844,-0.23029,-0.246064
29,65,-0.654498,-0.814493,-0.174533,-0.174533,-0.656155,-0.803034,-0.159184,-0.158131,0.16567,-0.320844,-0.230289,-0.246063
29,65,-0.654498,-0.814493,-0.174533,-0.174533,-0.656155,-0.803034,-0.159184,-0.158131,0.16567,-0.320844,-0.230288,-0.246062
29,65,-0.654498,-0.814493,-0.174533,-0.174533,-0.656155,-0.803034,-0.159184,-0.158131,0.16567,-0.320844,-0.230287,-0.246062
29,65,-0.654498,-0.814493,-0.174533,-0.174533,-0.656155,-0.803034,-0.159184,-0.158131,0.16567,-0.320844,-0.230286,-0.246061
29,65,-0.654498,-0.814493,-0.174533,-0.174533,-0.656155,-0.803034,-0.159184,-0.158131,0.16567,-0.320844,-0.230285,-0.24606
29,65,-0.654498,-0.814493,-0.174533,-0.174533,-0.656155,-0.803034,-0.159184,-0.158131,0.16567,-0.320844,-0.230284,-0.24606
29,65,-0.654498,-0.814493,-0.174533,-0.174533,-0.656155,-0.803034,-0.159184,-0.158131,0.16567,-0.320844,-0.230283,-0.246059
29,65,-0.654498,-0.814493,-0.174533,-0.174533,-0.656155,-0.803034,-0.159184,-0.158131,0.16567,-0.320844,-0.230282,-0.246059
29,65,-0.654498,-0.814493,-0.174533,-0.174533,-0.656155,-0.803034,-0.159184,-0.158131,0.16567,-0.320844,-0.230282,-0.246058
29,65,-0.654498,-0.814493,-0.174533,-0.174533,-0.656155,-0.803034,-0.159184,-0.158131,0.16567,-0.320844,-0.230281,-0.246058
29,65,-0.654498,-0.814493,-0.174533,-0.174533,-0.656155,-0.803034,-0.159184,-0.158131,0.16567,-0.320844,-0.23028,-0.246057
29,65,-0.654498,-0.814493,-0.174533,-0.174533,-0.656155,-0.803034,-0.159184,-0.158131,0.16567,-0.320844,-0.230279,-0.246057
29,65,-0.654498,-0.814493,-0.174533,-0.174533,-0.656155,-0.803034,-0.159184,-0.158131,0.16567,-0.320844,-0.230279,-0.246056
29,65,-0.654498,-0.814493,-0.174533,-0.174533,-0.656155,-0.803034,-0.159184,-0.158131,0.16567,-0.320844,-0.230278,-0.246056
29,65,-0.654498,-0.814493,-0.174533,-0.174533,-0.656155,-0.803034,-0.159184,-0.158131,0.16567,-0.320844,-0.230277,-0.246055
29,65,-0.654498,-0.814493,-0.174533,-0.174533,-0.656155,-0.803034,-0.159184,-0.158131,0.16567,-0.320844,-0.230277,-0.246055
29,65,-0.654498,-0.814493,-0.174533,-0.174533,-0.656155,-0.803034,-0.159184,-0.158131,0.16567,-0.320844,-0.230276,-0.246054
29,65,-0.654498,-0.814493,-0.174533,-0.174533,-0.656155,-0.803034,-0.159184,-0.158131,0.16567,-0.320844,-0.230275,-0.246054
29,65,-0.654498,-0.814493,-0.174533,-0.174533,-0.656155,-0.803034,-0.159184,-0.158131,0.16567,-0.320844,-0.230275,-0.246054
29,65,-0.654498,-0.814493,-0.174533,-0.174533,-0.656155,-0.803034,-0.159184,-0.158131,0.16567,-0.320844,-0.230274,-0.246053
29,65,-0.654498,-0.814493,-0.174533,-0.174533,-0.656155,-0.803034,-0.159184,-0.158131,0.16567,-0.320844,-0.230274,-0.246053
29,65,-0.654498,-0.814493,-0.174533,-0.174533,-0.656155,-0.803034,-0.159184,-0.158131,0.16567,-0.320844,-0.230273,-0.246053
29,65,-0.654498,-0.814493,-0.174533,-0.174533,-0.656155,-0.803034,-0.159184,-0.158131,0.16567,-0.320844,-0.230273,-0.246052
29,65,-0.654498,-0.814493,-0.174533,-0.174533,-0.656155,-0.803034,-0.159184,-0.158131,0.16567,-0.320844,-0.230272,-0.246052
29,65,-0.654498,-0.814493,-0.174533,-0.174533,-0.656155,-0.803034,-0.159184,-0.158131,0.16567,-0.320844,-0.230272,-0.246052
29,65,-0.654498,-0.814493,-0.174533,-0.174533,-0.656155,-0.803034,-0.159184,-0.158131,0.16567,-0.320844,-0.230271,-0.246051
29,65,-0.654498,-0.814493,-0.174533,-0.174533,-0.656155,-0.803034,-0.159184,-0.158131,0.16567,-0.320844,-0.230271,-0.246051
29,65,-0.654498,-0.814493,-0.174533,-0.174533,-0.656155,-0.803034,-0.159184,-0.158131,0.16567,-0.320844,-0.23027,-0.246051
29,65,-0.654498,-0.814493,-0.174533,-0.174533,-0.656155,-0.803034,-0.159184,-0.158131,0.16567,-0.320844,-0.23027,-0.24605
29,65,-0.654498,-0.814493,-0.174533,-0.174533,-0.656155,-0.803034,-0.159184,-0.158131,0.16567,-0.320844,-0.230269,-0.24605
29,65,-0.654498,-0.814493,-0.174533,-0.174533,-0.656155,-0.803034,-0.159184,-0.158131,0.16567,-0.320844,-0.230269,-0.24605
29,65,-0.654498,-0.814493,-0.174533,-0.174533,-0.656155,-0.803034,-0.159184,-0.158131,0.16567,-0.320844,-0.230269,-0.246049
29,65,-0.654498,-0.814493,-0.174533,-0.174533,-0.656155,-0.803034,-0.159184,-0.158131,0.16567,-0.320844,-0.230268,-0.246049
29,65,-0.654498,-0.814493,-0.174533,-0.174533,-0.656155,-0.803034,-0.159184,-0.158131,0.16567,-0.320844,-0.230268,-0.246049
29,65,-0.654498,-0.814493,-0.174533,-0.174533,-0.656155,-0.803034,-0.159184,-0.158131,0.16567,-0.320844,-0.230267,-0.246049
29,65,-0.654498,-0.814493,-0.174533,-0.174533,-0.656155,-0.803034,-0.159184,-0.158131,0.16567,-0.320844,-0.230267,-0.246048
29,65,-0.654498,-0.814493,-0.174533,-0.174533,-0.656155,-0.803034,-0.159184,-0.158131,0.16567,-0.320844,-0.230237,-0.246029
29,65,-0.654498,-0.814493,-0.174533,-0.174533,-0.656155,-0.803034,-0.159184,-0.158131,0.16567,-0.320844,-0.230237,-0.246029
29,65,-0.654498,-0.814493,-0.174533,-0.174533,-0.656155,-0.803034,-0.159184,-0.158131,0.16567,-0.320844,-0.230237,-0.246029
29,65,-0.654498,-0.814493,-0.174533,-0.174533,-0.656155,-0.803034,-0.15912,-0.158089,0.16567,-0.320844,-0.231187,-0.246653
29,65,-0.654498,-0.814493,-0.174533,-0.174533,-0.656155,-0.803034,-0.15912,-0.158089,0.16567,-0.320844,-0.231187,-0.246653
29,65,-0.654498,-0.814493,-0.174533,-0.174533,-0.656155,-0.803034,-0.15912,-0.158089,0.16567,-0.320844,-0.231187,-0.246653
29,65,-0.654498,-0.814493,-0.174533,-0.174533,-0.656155,-0.803034,-0.15912,-0.158089,0.16567,-0.320844,-0.231187,-0.246653
29,65,-0.654498,-0.814493,-0.174533,-0.174533,-0.656155,-0.803034,-0.15912,-0.158089,0.16567,-0.320844,-0.231187,-0.246653
29,65,-0.654498,-0.814493,-0.174533,-0.174533,-0.656155,-0.803034,-0.15912,-0.158089,0.16567,-0.320844,-0.231187,-0.246653
29,65,-0.654498,-0.814493,-0.174533,-0.174533,-0.656155,-0.803034,-0.15912,-0.158089,0.16567,-0.320844,-0.231187,-0.246653
29,65,-0.654498,-0.814493,-0.174533,-0.174533,-0.656155,-0.803034,-0.15912,-0.158089,0.16567,-0.320844,-0.231187,-0.246653
29,65,-0.654498,-0.814493,-0.174533,-0.174533,-0.656155,-0.803034,-0.15912,-0.158089,0.16567,-0.320844,-0.231187,-0.246653
29,65,-0.654498,-0.814493,-0.174533,-0.174533,-0.656155,-0.803034,-0.15912,-0.158089,0.16567,-0.320844,-0.231187,-0.246653
29,65,-0.654498,-0.814493,-0.174533,-0.174533,-0.656155,-0.803034,-0.15912,-0.158089,0.16567,-0.320844,-0.231187,-0.246653
29,65,-0.654498,-0.814493,-0.174533,-0.174533,-0.656155,-0.803034,-0.15912,-0.158089,0.16567,-0.320844,-0.231187,-0.246653
29,65,-0.654498,-0.814493,-0.174533,-0.174533,-0.656155,-0.803034,-0.15912,-0.158089,0.16567,-0.320844,-0.231187,-0.246653
29,65,-0.654498,-0.814493,-0.174533,-0.174533,-0.656155,-0.803034,-0.15912,-0.158089,0.16567,-0.320844,-0.231187,-0.246653
29,65,-0.654498,-0.814493,-0.174533,-0.174533,-0.656155,-0.803034,-0.15912,-0.158089,0.16567,-0.320844,-0.231187,-0.246653
29,65,-0.654498,-0.814493,-0.174533,-0.174533,-0.656155,-0.803034,-0.15912,-0.158089,0.16567,-0.320844,-0.231187,-0.246653
29,65,-0.654498,-0.814493,-0.174533,-0.174533,-0.656155,-0.803034,-0.159057,-0.158048,0.16567,-0.320844,-0.232138,-0.247277
29,65,-0.654498,-0.814493,-0.174533,-0.174533,-0.656155,-0.803034,-0.159057,-0.158048,0.16567,-0.320844,-0.232138,-0.247277
29,65,-0.654498,-0.814493,-0.174533,-0.174533,-0.656155,-0.803034,-0.159057,-0.158048,0.16567,-0.320844,-0.232138,-0.247277
29,65,-0.654498,-0.814493,-0.174533,-0.174533,-0.656155,-0.803034,-0.159057,-0.158048,0.16567,-0.320844,-0.232138,-0.247277
29,65,-0.654498,-0.814493,-0.174533,-0.174533,-0.656155,-0.803034,-0.159057,-0.158048,0.16567,-0.320844,-0.232138,-0.247277
29,65,-0.654498,-0.814493,-0.174533,-0.174533,-0.656155,-0.803034,-0.159057,-0.158048,0.16567,-0.320844,-0.232138,-0.247277
29,65,-0.654498,-0.814493,-0.174533,-0.174533,-0.656155,-0.803034,-0.159057,-0.158048,0.16567,-0.320844,-0.232138,-0.247277
29,65,-0.654498,-0.814493,-0.174533,-0.174533,-0.656155,-0.803034,-0.159057,-0.158048,0.16567,-0.320844,-0.232138,-0.247277
29,65,-0.654498,-0.814493,-0.174533,-0.174533,-0.656155,-0.803034,-0.159057,-0.158048,0.16567,-0.320844,-0.232138,-0.247277
29,65,-0.654498,-0.814493,-0.174533,-0.174533,-0.656155,-0.803034,-0.158994,-0.158006,0.16567,-0.320844,-0.233089,-0.247901
29,65,-0.654498,-0.814493,-0.174533,-0.174533,-0.656155,-0.803034,-0.158994,-0.158006,0.16567,-0.320844,-0.233089,-0.247901
29,65,-0.654498,-0.814493,-0.174533,-0.174533,-0.656155,-0.803034,-0.158994,-0.158006,0.16567,-0.320844,-0.233089,-0.247901
29,65,-0.654498,-0.814493,-0.174533,-0.174533,-0.656155,-0.803034,-0.158994,-0.158006,0.16567,-0.320844,-0.233089,-0.247901
29,65,-0.654498,-0.814493,-0.174533,-0.174533,-0.656155,-0.803034,-0.158994,-0.158006,0.16567,-0.320844,-0.233089,-0.247901
29,65,-0.654498,-0.814493,-0.174533,-0.174533,-0.656155,-0.803034,-0.158994,-0.158006,0.16567,-0.320844,-0.233089,-0.247901
29,65,-0.654498,-0.814493,-0.174533,-0.174533,-0.656155,-0.803034,-0.158994,-0.158006,0.16567,-0.320844,-0.233089,-0.247901
29,65,-0.654498,-0.814493,-0.174533,-0.174533,-0.656155,-0.803034,-0.158994,-0.158006,0.16567,-0.320844,-0.233089,-0.247901
29,65,-0.654498,-0.814493,-0.174533,-0.174533,-0.656155,-0.803034,-0.158994,-0.158006,0.16567,-0.320844,-0.233089,-0.247901
29,65,-0.654498,-0.814493,-0.174533,-0.174533,-0.656155,-0.803034,-0.158994,-0.158006,0.16567,-0.320844,-0.233089,-0.247901
29,65,-0.654498,-0.814493,-0.174533,-0.174533,-0.656155,-0.803034,-0.15893,-0.157965,0.16567,-0.320844,-0.234039,-0.248526
29,65,-0.654498,-0.814493,-0.174533,-0.174533,-0.656155,-0.803034,-0.15893,-0.157965,0.16567,-0.320844,-0.234039,-0.248526
29,65,-0.654498,-0.814493,-0.174533,-0.174533,-0.656155,-0.803034,-0.15893,-0.157965,0.16567,-0.320844,-0.234039,-0.248526
29,65,-0.654498,-0.814493,-0.174533,-0.174533,-0.656155,-0.803034,-0.15893,-0.157965,0.16567,-0.320844,-0.234039,-0.248526
29,65,-0.654498,-0.814493,-0.174533,-0.174533,-0.656155,-0.803034,-0.15893,-0.157965,0.16567,-0.320844,-0.234039,-0.248526
29,65,-0.654498,-0.814493,-0.174533,-0.174533,-0.656155,-0.803034,-0.15893,-0.157965,0.16567,-0.320844,-0.234039,-0.248526
29,65,-0.654498,-0.814493,-0.174533,-0.174533,-0.656155,-0.803034,-0.15893,-0.157965,0.16567,-0.320844,-0.234039,-0.248526
29,65,-0.654498,-0.814493,-0.174533,-0.174533,-0.656155,-0.803034,-0.15893,-0.157965,0.16567,-0.320844,-0.234039,-0.248526
29,65,-0.654498,-0.814493,-0.174533,-0.174533,-0.656155,-0.803034,-0.158867,-0.157923,0.16567,-0.320844,-0.23505,-0.249189
29,65,-0.654498,-0.814493,-0.174533,-0.174533,-0.656155,-0.803034,-0.158867,-0.157923,0.16567,-0.320844,-0.23505,-0.249189
29,65,-0.654498,-0.814493,-0.174533,-0.174533,-0.656155,-0.803034,-0.158867,-0.157923,0.16567,-0.320844,-0.23505,-0.249189
29,65,-0.654498,-0.814493,-0.174533,-0.174533,-0.656155,-0.803034,-0.158867,-0.157923,0.16567,-0.320844,-0.23505,-0.249189
29,65,-0.654498,-0.814493,-0.174533,-0.174533,-0.656155,-0.803034,-0.158867,-0.157923,0.16567,-0.320844,-0.23505,-0.249189
29,65,-0.654498,-0.814493,-0.174533,-0.174533,-0.656155,-0.803034,-0.158867,-0.157923,0.16567,-0.320844,-0.23505,-0.249189
29,65,-0.654498,-0.814493,-0.174533,-0.174533,-0.656155,-0.803034,-0.158867,-0.157923,0.16567,-0.320844,-0.23505,-0.249189
29,65,-0.654498,-0.814493,-0.174533,-0.174533,-0.656155,-0.803034,-0.158867,-0.157923,0.16567,-0.320844,-0.23505,-0.249189
29,65,-0.654498,-0.814493,-0.174533,-0.174533,-0.656155,-0.803034,-0.158867,-0.157923,0.16567,-0.320844,-0.23505,-0.249189
29,65,-0.654498,-0.814493,-0.174533,-0.174533,-0.656155,-0.803034,-0.158867,-0.157923,0.16567,-0.320844,-0.23505,-0.249189
29,65,-0.654498,-0.814493,-0.174533,-0.174533,-0.656155,-0.803034,-0.158804,-0.157881,0.16567,-0.320844,-0.236009,-0.249819
29,65,-0.654498,-0.814493,-0.174533,-0.174533,-0.656155,-0.803034,-0.158802,-0.157822,0.16567,-0.320844,-0.236039,-0.250716
29,65,-0.654498,-0.814493,-0.174533,-0.174533,-0.656155,-0.803034,-0.158802,-0.157822,0.16567,-0.320844,-0.236039,-0.250716
29,65,-0.654498,-0.814493,-0.174533,-0.174533,-0.656155,-0.803034,-0.158802,-0.157822,0.16567,-0.320844,-0.236039,-0.250716
29,65,-0.654498,-0.814493,-0.174533,-0.174533,-0.656155,-0.803034,-0.158802,-0.157822,0.16567,-0.320844,-0.236039,-0.250716
29,65,-0.654498,-0.814493,-0.174533,-0.174533,-0.656155,-0.803034,-0.158802,-0.157822,0.16567,-0.320844,-0.236039,-0.250716
29,65,-0.654498,-0.814493,-0.174533,-0.174533,-0.656155,-0.803034,-0.158802,-0.157822,0.16567,-0.320844,-0.236039,-0.250716
29,65,-0.654498,-0.814493,-0.174533,-0.174533,-0.656155,-0.803034,-0.158802,-0.157822,0.16567,-0.320844,-0.236039,-0.250716
29,65,-0.654498,-0.814493,-0.174533,-0.174533,-0.656155,-0.803034,-0.158802,-0.157822,0.16567,-0.320844,-0.236039,-0.250716
29,65,-0.654498,-0.814493,-0.174533,-0.174533,-0.656155,-0.803034,-0.158802,-0.157822,0.16567,-0.320844,-0.236039,-0.250716
29,65,-0.654498,-0.814493,-0.174533,-0.174533,-0.656155,-0.803034,-0.158802,-0.157822,0.16567,-0.320844,-0.236039,-0.250716
29,65,-0.654498,-0.814493,-0.174533,-0.174533,-0.656155,-0.803034,-0.158802,-0.157822,0.16567,-0.320844,-0.236039,-0.250716
29,65,-0.654498,-0.814493,-0.174533,-0.174533,-0.656155,-0.803034,-0.158802,-0.157822,0.16567,-0.320844,-0.236039,-0.250716
29,65,-0.654498,-0.814493,-0.174533,-0.174533,-0.656155,-0.803034,-0.158802,-0.157822,0.16567,-0.320844,-0.236039,-0.250716
29,65,-0.654498,-0.814493,-0.174533,-0.174533,-0.656155,-0.803034,-0.158802,-0.157822,0.16567,-0.320844,-0.236039,-0.250716
29,65,-0.654498,-0.814493,-0.174533,-0.174533,-0.656155,-0.803034,-0.158802,-0.157822,0.16567,-0.320844,-0.236039,-0.250716
29,65,-0.654498,-0.814493,-0.174533,-0.174533,-0.656155,-0.803034,-0.158802,-0.157822,0.16567,-0.320844,-0.236039,-0.250716
29,65,-0.654498,-0.814493,-0.174533,-0.174533,-0.656155,-0.803034,-0.158802,-0.157822,0.16567,-0.320844,-0.236039,-0.250716
29,65,-0.654498,-0.814493,-0.174533,-0.174533,-0.656155,-0.803034,-0.158802,-0.157822,0.16567,-0.320844,-0.236039,-0.250716
29,65,-0.654498,-0.814493,-0.174533,-0.174533,-0.656155,-0.803034,-0.158802,-0.157822,0.16567,-0.320844,-0.236039,-0.250716
29,65,-0.654498,-0.814493,-0.174533,-0.174533,-0.656155,-0.803034,-0.158802,-0.157822,0.16567,-0.320844,-0.236039,-0.250716
29,65,-0.654498,-0.814493,-0.174533,-0.174533,-0.656155,-0.803034,-0.158802,-0.157822,0.16567,-0.320844,-0.236039,-0.250716
29,65,-0.654498,-0.814493,-0.174533,-0.174533,-0.656155,-0.803034,-0.158802,-0.157822,0.16567,-0.320844,-0.236039,-0.250716
29,65,-0.654498,-0.814493,-0.174533,-0.174533,-0.656155,-0.803034,-0.158802,-0.157822,0.16567,-0.320844,-0.236039,-0.250716
29,65,-0.654498,-0.814493,-0.174533,-0.174533,-0.656155,-0.803034,-0.158802,-0.157822,0.16567,-0.320844,-0.236039,-0.250716
29,65,-0.654498,-0.814493,-0.174533,-0.174533,-0.656155,-0.803034,-0.158802,-0.157822,0.16567,-0.320844,-0.236039,-0.250716
29,65,-0.654498,-0.814493,-0.174533,-0.174533,-0.656155,-0.803034,-0.158802,-0.157822,0.16567,-0.320844,-0.236039,-0.250716
29,65,-0.654498,-0.814493,-0.174533,-0.174533,-0.656155,-0.803034,-0.158802,-0.157822,0.16567,-0.320844,-0.236039,-0.250716
29,65,-0.654498,-0.814493,-0.174533,-0.174533,-0.656155,-0.803034,-0.158802,-0.157822,0.16567,-0.320844,-0.236039,-0.250716
29,65,-0.654498,-0.814493,-0.174533,-0.174533,-0.656155,-0.803034,-0.158802,-0.157822,0.16567,-0.320844,-0.236039,-0.250716
29,65,-0.654498,-0.814493,-0.174533,-0.174533,-0.656155,-0.803034,-0.158802,-0.157822,0.16567,-0.320844,-0.236039,-0.250716
29,65,-0.654498,-0.814493,-0.174533,-0.174533,-0.656155,-0.803034,-0.158802,-0.157822,0.16567,-0.320844,-0.236039,-0.250716
29,65,-0.654498,-0.814493,-0.174533,-0.174533,-0.656155,-0.803034,-0.158802,-0.157822,0.16567,-0.320844,-0.236039,-0.250716
29,65,-0.654498,-0.814493,-0.174533,-0.174533,-0.656155,-0.803034,-0.158802,-0.157822,0.16567,-0.320844,-0.236039,-0.250716
29,65,-0.654498,-0.814493,-0.174533,-0.174533,-0.656155,-0.803034,-0.158802,-0.157822,0.16567,-0.320844,-0.236039,-0.250716
29,65,-0.654498,-0.814493,-0.174533,-0.174533,-0.656155,-0.803034,-0.158802,-0.157822,0.16567,-0.320844,-0.236039,-0.250716
29,65,-0.654498,-0.814493,-0.174533,-0.174533,-0.656155,-0.803034,-0.158802,-0.157822,0.16567,-0.320844,-0.236039,-0.250716
29,65,-0.654498,-0.814493,-0.174533,-0.174533,-0.656155,-0.803034,-0.158802,-0.157822,0.16567,-0.320844,-0.236037,-0.250715
29,65,-0.654498,-0.814493,-0.174533,-0.174533,-0.656155,-0.803034,-0.158802,-0.157822,0.16567,-0.320844,-0.236035,-0.250714
29,65,-0.654498,-0.814493,-0.174533,-0.174533,-0.656155,-0.803034,-0.158802,-0.157822,0.16567,-0.320844,-0.236033,-0.250713
29,65,-0.654498,-0.814493,-0.174533,-0.174533,-0.656155,-0.803034,-0.158802,-0.157822,0.16567,-0.320844,-0.236032,-0.250712
29,65,-0.654498,-0.814493,-0.174533,-0.174533,-0.656155,-0.803034,-0.158802,-0.157822,0.16567,-0.320844,-0.23603,-0.250711
29,65,-0.654498,-0.814493,-0.174533,-0.174533,-0.656155,-0.803034,-0.158802,-0.157822,0.16567,-0.320844,-0.236029,-0.25071
29,65,-0.654498,-0.814493,-0.174533,-0.174533,-0.656155,-0.803034,-0.158802,-0.157822,0.16567,-0.320844,-0.236028,-0.250709
29,65,-0.654498,-0.814493,-0.174533,-0.174533,-0.656155,-0.803034,-0.158802,-0.157822,0.16567,-0.320844,-0.236026,-0.250708
29,65,-0.654498,-0.814493,-0.174533,-0.174533,-0.656155,-0.803034,-0.158802,-0.157822,0.16567,-0.320844,-0.236025,-0.250707
29,65,-0.654498,-0.814493,-0.174533,-0.174533,-0.656155,-0.803034,-0.158802,-0.157822,0.16567,-0.320844,-0.236024,-0.250707
29,65,-0.654498,-0.814493,-0.174533,-0.174533,-0.656155,-0.803034,-0.158802,-0.157822,0.16567,-0.320844,-0.236023,-0.250706
29,65,-0.654498,-0.814493,-0.174533,-0.174533,-0.656155,-0.803034,-0.158802,-0.157822,0.16567,-0.320844,-0.236022,-0.250705
29,65,-0.654498,-0.814493,-0.174533,-0.174533,-0.656155,-0.803034,-0.158802,-0.157822,0.16567,-0.320844,-0.236021,-0.250705
29,65,-0.654498,-0.814493,-0.174533,-0.174533,-0.656155,-0.803034,-0.158802,-0.157822,0.16567,-0.320844,-0.23602,-0.250704
29,65,-0.654498,-0.814493,-0.174533,-0.174533,-0.656155,-0.803034,-0.158802,-0.157822,0.16567,-0.320844,-0.236019,-0.250703
29,65,-0.654498,-0.814493,-0.174533,-0.174533,-0.656155,-0.803034,-0.158802,-0.157822,0.16567,-0.320844,-0.236018,-0.250703
29,65,-0.654498,-0.814493,-0.174533,-0.174533,-0.656155,-0.803034,-0.158802,-0.157822,0.16567,-0.320844,-0.236017,-0.250702
29,65,-0.654498,-0.814493,-0.174533,-0.174533,-0.656155,-0.803034,-0.158802,-0.157822,0.16567,-0.320844,-0.236016,-0.250702
29,65,-0.654498,-0.814493,-0.174533,-0.174533,-0.656155,-0.803034,-0.158802,-0.157822,0.16567,-0.320844,-0.236015,-0.250701
29,65,-0.654498,-0.814493,-0.174533,-0.174533,-0.656155,-0.803034,-0.158802,-0.157822,0.16567,-0.320844,-0.236014,-0.2507
29,65,-0.654498,-0.814493,-0.174533,-0.174533,-0.656155,-0.803034,-0.158802,-0.157822,0.16567,-0.320844,-0.236014,-0.2507
29,65,-0.654498,-0.814493,-0.174533,-0.174533,-0.656155,-0.803034,-0.158802,-0.157822,0.16567,-0.320844,-0.236013,-0.250699
29,65,-0.654498,-0.814493,-0.174533,-0.174533,-0.656155,-0.803034,-0.158802,-0.157822,0.16567,-0.320844,-0.236012,-0.250699
29,65,-0.654498,-0.814493,-0.174533,-0.174533,-0.656155,-0.803034,-0.158802,-0.157822,0.16567,-0.320844,-0.236011,-0.250699
29,65,-0.654498,-0.814493,-0.174533,-0.174533,-0.656155,-0.803034,-0.158802,-0.157822,0.16567,-0.320844,-0.236011,-0.250698
29,65,-0.654498,-0.814493,-0.174533,-0.174533,-0.656155,-0.803034,-0.158802,-0.157822,0.16567,-0.320844,-0.23601,-0.250698
29,65,-0.654498,-0.814493,-0.174533,-0.174533,-0.656155,-0.803034,-0.158738,-0.15778,0.16567,-0.320844,-0.23692,-0.251295
29,65,-0.654498,-0.814493,-0.174533,-0.174533,-0.656155,-0.803034,-0.158738,-0.15778,0.16567,-0.320844,-0.23692,-0.251295
29,65,-0.654498,-0.814493,-0.174533,-0.174533,-0.656155,-0.803034,-0.158738,-0.15778,0.16567,-0.320844,-0.23692,-0.251295
29,65,-0.654498,-0.814493,-0.174533,-0.174533,-0.656155,-0.803034,-0.158738,-0.15778,0.16567,-0.320844,-0.23692,-0.251295
29,65,-0.654498,-0.814493,-0.174533,-0.174533,-0.656155,-0.803034,-0.158738,-0.15778,0.16567,-0.320844,-0.23692,-0.251295
29,65,-0.654498,-0.814493,-0.174533,-0.174533,-0.656155,-0.803034,-0.158738,-0.15778,0.16567,-0.320844,-0.23692,-0.251295
29,65,-0.654498,-0.814493,-0.174533,-0.174533,-0.656155,-0.803034,-0.158738,-0.15778,0.16567,-0.320844,-0.23692,-0.251295
29,65,-0.654498,-0.814493,-0.174533,-0.174533,-0.656155,-0.803034,-0.158738,-0.15778,0.16567,-0.320844,-0.23692,-0.251295
29,65,-0.654498,-0.814493,-0.174533,-0.174533,-0.656155,-0.803034,-0.158738,-0.15778,0.16567,-0.320844,-0.23692,-0.251295
29,65,-0.654498,-0.814493,-0.174533,-0.174533,-0.656155,-0.803034,-0.158738,-0.15778,0.16567,-0.320844,-0.23692,-0.251295
29,65,-0.654498,-0.814493,-0.174533,-0.174533,-0.656155,-0.803034,-0.158738,-0.15778,0.16567,-0.320844,-0.23692,-0.251295
29,65,-0.654498,-0.814493,-0.174533,-0.174533,-0.656155,-0.803034,-0.158738,-0.15778,0.16567,-0.320844,-0.23692,-0.251295
29,65,-0.654498,-0.814493,-0.174533,-0.174533,-0.656155,-0.803034,-0.158738,-0.15778,0.16567,-0.320844,-0.23692,-0.251295
29,65,-0.654498,-0.814493,-0.174533,-0.174533,-0.656155,-0.803034,-0.158738,-0.15778,0.16567,-0.320844,-0.23692,-0.251295
29,65,-0.654498,-0.814493,-0.174533,-0.174533,-0.656155,-0.803034,-0.158738,-0.15778,0.16567,-0.320844,-0.23692,-0.251295
29,65,-0.654498,-0.814493,-0.174533,-0.174533,-0.656155,-0.803034,-0.158738,-0.15778,0.16567,-0.320844,-0.23692,-0.251295
29,65,-0.654498,-0.814493,-0.174533,-0.174533,-0.656155,-0.803034,-0.158738,-0.15778,0.16567,-0.320844,-0.23692,-0.251295
29,65,-0.654498,-0.814493,-0.174533,-0.174533,-0.656155,-0.803034,-0.158738,-0.15778,0.16567,-0.320844,-0.23692,-0.251295
29,65,-0.654498,-0.814493,-0.174533,-0.174533,-0.656155,-0.803034,-0.158738,-0.15778,0.16567,-0.320844,-0.23692,-0.251295
29,65,-0.654498,-0.814493,-0.174533,-0.174533,-0.656155,-0.803034,-0.158738,-0.15778,0.16567,-0.320844,-0.23692,-0.251295
29,65,-0.654498,-0.814493,-0.174533,-0.174533,-0.656155,-0.803034,-0.158738,-0.15778,0.16567,-0.320844,-0.23692,-0.251295
29,65,-0.654498,-0.814493,-0.174533,-0.174533,-0.656155,-0.803034,-0.158738,-0.15778,0.16567,-0.320844,-0.23692,-0.251295
29,65,-0.654498,-0.814493,-0.174533,-0.174533,-0.656155,-0.803034,-0.158738,-0.15778,0.16567,-0.320844,-0.23692,-0.251295
29,65,-0.654498,-0.814493,-0.174533,-0.174533,-0.656155,-0.803034,-0.158738,-0.15778,0.16567,-0.320844,-0.23692,-0.251295
29,65,-0.654498,-0.814493,-0.174533,-0.174533,-0.656155,-0.803034,-0.158675,-0.157738,0.16567,-0.320844,-0.23787,-0.251919
29,65,-0.654498,-0.814493,-0.174533,-0.174533,-0.656155,-0.803034,-0.158675,-0.157738,0.16567,-0.320844,-0.23787,-0.251919
29,65,-0.654498,-0.814493,-0.174533,-0.174533,-0.656155,-0.803034,-0.158675,-0.157738,0.16567,-0.320844,-0.23787,-0.251919
29,65,-0.654498,-0.814493,-0.174533,-0.174533,-0.656155,-0.803034,-0.158675,-0.157738,0.16567,-0.320844,-0.23787,-0.251919
29,65,-0.654498,-0.814493,-0.174533,-0.174533,-0.656155,-0.803034,-0.158675,-0.157738,0.16567,-0.320844,-0.23787,-0.251919
29,65,-0.654498,-0.814493,-0.174533,-0.174533,-0.656155,-0.803034,-0.158675,-0.157738,0.16567,-0.320844,-0.23787,-0.251919
29,65,-0.654498,-0.814493,-0.174533,-0.174533,-0.656155,-0.803034,-0.158675,-0.157738,0.16567,-0.320844,-0.23787,-0.251919
29,65,-0.654498,-0.814493,-0.174533,-0.174533,-0.656155,-0.803034,-0.158675,-0.157738,0.16567,-0.320844,-0.23787,-0.251919
29,65,-0.654498,-0.814493,-0.174533,-0.174533,-0.656155,-0.803034,-0.158675,-0.157738,0.16567,-0.320844,-0.23787,-0.251919
29,65,-0.654498,-0.814493,-0.174533,-0.174533,-0.656155,-0.803034,-0.158675,-0.157738,0.16567,-0.320844,-0.23787,-0.251919
29,65,-0.654498,-0.814493,-0.174533,-0.174533,-0.656155,-0.803034,-0.158612,-0.157697,0.16567,-0.320844,-0.23882,-0.252543
29,65,-0.654498,-0.814493,-0.174533,-0.174533,-0.656155,-0.803034,-0.158612,-0.157697,0.16567,-0.320844,-0.23882,-0.252543
29,65,-0.654498,-0.814493,-0.174533,-0.174533,-0.656155,-0.803034,-0.158612,-0.157697,0.16567,-0.320844,-0.23882,-0.252543
29,65,-0.654498,-0.814493,-0.174533,-0.174533,-0.656155,-0.803034,-0.158612,-0.157697,0.16567,-0.320844,-0.23882,-0.252543
29,65,-0.654498,-0.814493,-0.174533,-0.174533,-0.656155,-0.803034,-0.158612,-0.157697,0.16567,-0.320844,-0.23882,-0.252543
29,65,-0.654498,-0.814493,-0.174533,-0.174533,-0.656155,-0.803034,-0.158612,-0.157697,0.16567,-0.320844,-0.23882,-0.252543
29,65,-0.654498,-0.814493,-0.174533,-0.174533,-0.656155,-0.803034,-0.158612,-0.157697,0.16567,-0.320844,-0.23882,-0.252543
29,65,-0.654498,-0.814493,-0.174533,-0.174533,-0.656155,-0.803034,-0.158612,-0.157697,0.16567,-0.320844,-0.23882,-0.252543
29,65,-0.654498,-0.814493,-0.174533,-0.174533,-0.656155,-0.803034,-0.158612,-0.157697,0.16567,-0.320844,-0.23882,-0.252543
29,65,-0.654498,-0.814493,-0.174533,-0.174533,-0.656155,-0.803034,-0.158612,-0.157697,0.16567,-0.320844,-0.23882,-0.252543
29,65,-0.654498,-0.814493,-0.174533,-0.174533,-0.656155,-0.803034,-0.158612,-0.157697,0.16567,-0.320844,-0.23882,-0.252543
29,65,-0.654498,-0.814493,-0.174533,-0.174533,-0.656155,-0.803034,-0.158612,-0.157697,0.16567,-0.320844,-0.23882,-0.252543
29,65,-0.654498,-0.814493,-0.174533,-0.174533,-0.656155,-0.803034,-0.158612,-0.157697,0.16567,-0.320844,-0.23882,-0.252543
29,65,-0.654498,-0.814493,-0.174533,-0.174533,-0.656155,-0.803034,-0.158612,-0.157697,0.16567,-0.320844,-0.23882,-0.252543
29,65,-0.654498,-0.814493,-0.174533,-0.174533,-0.656155,-0.803034,-0.158612,-0.157697,0.16567,-0.320844,-0.23882,-0.252543
29,65,-0.654498,-0.814493,-0.174533,-0.174533,-0.656155,-0.803034,-0.158612,-0.157697,0.16567,-0.320844,-0.23882,-0.252543
29,65,-0.654498,-0.814493,-0.174533,-0.174533,-0.656155,-0.803034,-0.158612,-0.157697,0.16567,-0.320844,-0.23882,-0.252543
29,65,-0.654498,-0.814493,-0.174533,-0.174533,-0.656155,-0.803034,-0.158612,-0.157697,0.16567,-0.320844,-0.23882,-0.252543
29,65,-0.654498,-0.814493,-0.174533,-0.174533,-0.656155,-0.803034,-0.158612,-0.157697,0.16567,-0.320844,-0.23882,-0.252543
29,65,-0.654498,-0.814493,-0.174533,-0.174533,-0.656155,-0.803034,-0.158612,-0.157697,0.16567,-0.320844,-0.23882,-0.252543
29,65,-0.654498,-0.814493,-0.174533,-0.174533,-0.656155,-0.803034,-0.158612,-0.157697,0.16567,-0.320844,-0.23882,-0.252543
29,65,-0.654498,-0.814493,-0.174533,-0.174533,-0.656155,-0.803034,-0.158612,-0.157697,0.16567,-0.320844,-0.23882,-0.252543
29,65,-0.654498,-0.814493,-0.174533,-0.174533,-0.656155,-0.803034,-0.158612,-0.157697,0.16567,-0.320844,-0.23882,-0.252543
29,65,-0.654498,-0.814493,-0.174533,-0.174533,-0.656155,-0.803034,-0.158612,-0.157697,0.16567,-0.320844,-0.23882,-0.252543
29,65,-0.654498,-0.814493,-0.174533,-0.174533,-0.656155,-0.803034,-0.158612,-0.157697,0.16567,-0.320844,-0.23882,-0.252543
29,65,-0.654498,-0.814493,-0.174533,-0.174533,-0.656155,-0.803034,-0.158612,-0.157697,0.16567,-0.320844,-0.23882,-0.252543
29,65,-0.654498,-0.814493,-0.174533,-0.174533,-0.656155,-0.803034,-0.158612,-0.157697,0.16567,-0.320844,-0.23882,-0.252543
29,65,-0.654498,-0.814493,-0.174533,-0.174533,-0.656155,-0.803034,-0.158612,-0.157697,0.16567,-0.320844,-0.23882,-0.252543
29,65,-0.654498,-0.814493,-0.174533,-0.174533,-0.656155,-0.803034,-0.158612,-0.157697,0.16567,-0.320844,-0.23882,-0.252543
29,65,-0.654498,-0.814493,-0.174533,-0.174533,-0.656155,-0.803034,-0.158612,-0.157697,0.16567,-0.320844,-0.23882,-0.252543
29,65,-0.654498,-0.814493,-0.174533,-0.174533,-0.656155,-0.803034,-0.158612,-0.157697,0.16567,-0.320844,-0.23882,-0.252543
29,65,-0.654498,-0.814493,-0.174533,-0.174533,-0.656155,-0.803034,-0.158612,-0.157697,0.16567,-0.320844,-0.23882,-0.252543
29,65,-0.654498,-0.814493,-0.174533,-0.174533,-0.656155,-0.803034,-0.158612,-0.157697,0.16567,-0.320844,-0.23882,-0.252543
29,65,-0.654498,-0.814493,-0.174533,-0.174533,-0.656155,-0.803034,-0.158612,-0.157697,0.16567,-0.320844,-0.23882,-0.252543
29,65,-0.654498,-0.814493,-0.174533,-0.174533,-0.656155,-0.803034,-0.158612,-0.157697,0.16567,-0.320844,-0.23882,-0.252543
29,65,-0.654498,-0.814493,-0.174533,-0.174533,-0.656155,-0.803034,-0.158612,-0.157697,0.16567,-0.320844,-0.23882,-0.252543
29,65,-0.654498,-0.814493,-0.174533,-0.174533,-0.656155,-0.803034,-0.158548,-0.157655,0.16567,-0.320844,-0.23977,-0.253167
29,65,-0.654498,-0.814493,-0.174533,-0.174533,-0.656155,-0.803034,-0.158548,-0.157655,0.16567,-0.320844,-0.23977,-0.253167
29,65,-0.654498,-0.814493,-0.174533,-0.174533,-0.656155,-0.803034,-0.158548,-0.157655,0.16567,-0.320844,-0.23977,-0.253167
29,65,-0.654498,-0.814493,-0.174533,-0.174533,-0.656155,-0.803034,-0.158548,-0.157655,0.16567,-0.320844,-0.23977,-0.253167
29,65,-0.654498,-0.814493,-0.174533,-0.174533,-0.656155,-0.803034,-0.158548,-0.157655,0.16567,-0.320844,-0.23977,-0.253167
29,65,-0.654498,-0.814493,-0.174533,-0.174533,-0.656155,-0.803034,-0.158548,-0.157655,0.16567,-0.320844,-0.23977,-0.253167
29,65,-0.654498,-0.814493,-0.174533,-0.174533,-0.656155,-0.803034,-0.158548,-0.157655,0.16567,-0.320844,-0.23977,-0.253167
29,65,-0.654498,-0.814493,-0.174533,-0.174533,-0.656155,-0.803034,-0.158548,-0.157655,0.16567,-0.320844,-0.23977,-0.253167
29,65,-0.654498,-0.814493,-0.174533,-0.174533,-0.656155,-0.803034,-0.158548,-0.157655,0.16567,-0.320844,-0.23977,-0.253167
29,65,-0.654498,-0.814493,-0.174533,-0.174533,-0.656155,-0.803034,-0.158548,-0.157655,0.16567,-0.320844,-0.23977,-0.253167
29,65,-0.654498,-0.814493,-0.174533,-0.174533,-0.656155,-0.803034,-0.158548,-0.157655,0.16567,-0.320844,-0.23977,-0.253167
29,65,-0.654498,-0.814493,-0.174533,-0.174533,-0.656155,-0.803034,-0.158548,-0.157655,0.16567,-0.320844,-0.23977,-0.253167
29,65,-0.654498,-0.814493,-0.174533,-0.174533,-0.656155,-0.803034,-0.158548,-0.157655,0.16567,-0.320844,-0.23977,-0.253167
29,65,-0.654498,-0.814493,-0.174533,-0.174533,-0.656155,-0.803034,-0.158548,-0.157655,0.16567,-0.320844,-0.23977,-0.253167
29,65,-0.654498,-0.814493,-0.174533,-0.174533,-0.656155,-0.803034,-0.158548,-0.157655,0.16567,-0.320844,-0.23977,-0.253167
29,65,-0.654498,-0.814493,-0.174533,-0.174533,-0.656155,-0.803034,-0.158548,-0.157655,0.16567,-0.320844,-0.23977,-0.253167
29,65,-0.654498,-0.814493,-0.174533,-0.174533,-0.656155,-0.803034,-0.158548,-0.157655,0.16567,-0.320844,-0.23977,-0.253167
29,65,-0.654498,-0.814493,-0.174533,-0.174533,-0.656155,-0.803034,-0.158548,-0.157655,0.16567,-0.320844,-0.23977,-0.253167
29,65,-0.654498,-0.814493,-0.174533,-0.174533,-0.656155,-0.803034,-0.158548,-0.157655,0.16567,-0.320844,-0.23977,-0.253167
29,65,-0.654498,-0.814493,-0.174533,-0.174533,-0.656155,-0.803034,-0.158548,-0.157655,0.16567,-0.320844,-0.23977,-0.253167
29,65,-0.654498,-0.814493,-0.174533,-0.174533,-0.656155,-0.803034,-0.158548,-0.157655,0.16567,-0.320844,-0.23977,-0.253167
29,65,-0.654498,-0.814493,-0.174533,-0.174533,-0.656155,-0.803034,-0.158548,-0.157655,0.16567,-0.320844,-0.23977,-0.253167
29,65,-0.654498,-0.814493,-0.174533,-0.174533,-0.656155,-0.803034,-0.158548,-0.157655,0.16567,-0.320844,-0.23977,-0.253167
29,65,-0.654498,-0.814493,-0.174533,-0.174533,-0.656155,-0.803034,-0.158548,-0.157655,0.16567,-0.320844,-0.23977,-0.253167
29,65,-0.654498,-0.814493,-0.174533,-0.174533,-0.656155,-0.803034,-0.158548,-0.157655,0.16567,-0.320844,-0.23977,-0.253167
29,65,-0.654498,-0.814493,-0.174533,-0.174533,-0.656155,-0.803034,-0.158548,-0.157655,0.16567,-0.320844,-0.23977,-0.253167
29,65,-0.654498,-0.814493,-0.174533,-0.174533,-0.656155,-0.803034,-0.158548,-0.157655,0.16567,-0.320844,-0.23977,-0.253167
29,65,-0.654498,-0.814493,-0.174533,-0.174533,-0.656155,-0.803034,-0.158548,-0.157655,0.16567,-0.320844,-0.23977,-0.253167
29,65,-0.654498,-0.814493,-0.174533,-0.174533,-0.656155,-0.803034,-0.158548,-0.157655,0.16567,-0.320844,-0.23977,-0.253167
29,65,-0.654498,-0.814493,-0.174533,-0.174533,-0.656155,-0.803034,-0.158548,-0.157655,0.16567,-0.320844,-0.23977,-0.253167
29,65,-0.654498,-0.814493,-0.174533,-0.174533,-0.656155,-0.803034,-0.158548,-0.157655,0.16567,-0.320844,-0.23977,-0.253167
29,65,-0.654498,-0.814493,-0.174533,-0.174533,-0.656155,-0.803034,-0.158548,-0.157655,0.16567,-0.320844,-0.23977,-0.253167
29,65,-0.654498,-0.814493,-0.174533,-0.174533,-0.656155,-0.803034,-0.158548,-0.157655,0.16567,-0.320844,-0.23977,-0.253167
29,65,-0.654498,-0.814493,-0.174533,-0.174533,-0.656155,-0.803034,-0.158548,-0.157655,0.16567,-0.320844,-0.23977,-0.253167
29,65,-0.654498,-0.814493,-0.174533,-0.174533,-0.656155,-0.803034,-0.158548,-0.157655,0.16567,-0.320844,-0.23977,-0.253167
29,65,-0.654498,-0.814493,-0.174533,-0.174533,-0.656155,-0.803034,-0.158548,-0.157655,0.16567,-0.320844,-0.23977,-0.253167
29,65,-0.654498,-0.814493,-0.174533,-0.174533,-0.656155,-0.803034,-0.158548,-0.157655,0.16567,-0.320844,-0.23977,-0.253167
29,65,-0.654498,-0.814493,-0.174533,-0.174533,-0.656155,-0.803034,-0.158548,-0.157655,0.16567,-0.320844,-0.23977,-0.253167
29,65,-0.654498,-0.814493,-0.174533,-0.174533,-0.656155,-0.803034,-0.158548,-0.157655,0.16567,-0.320844,-0.23977,-0.253167
29,65,-0.654498,-0.814493,-0.174533,-0.174533,-0.656155,-0.803034,-0.158548,-0.157655,0.16567,-0.320844,-0.23977,-0.253167
29,65,-0.654498,-0.814493,-0.174533,-0.174533,-0.656155,-0.803034,-0.158548,-0.157655,0.16567,-0.320844,-0.23977,-0.253167
29,65,-0.654498,-0.814493,-0.174533,-0.174533,-0.656155,-0.803034,-0.158548,-0.157655,0.16567,-0.320844,-0.23977,-0.253167
29,65,-0.654498,-0.814493,-0.174533,-0.174533,-0.656155,-0.803034,-0.158548,-0.157655,0.16567,-0.320844,-0.23977,-0.253167
29,65,-0.654498,-0.814493,-0.174533,-0.174533,-0.656155,-0.803034,-0.158485,-0.157614,0.16567,-0.320844,-0.24072,-0.253791
29,65,-0.654498,-0.814493,-0.174533,-0.174533,-0.656155,-0.803034,-0.158485,-0.157614,0.16567,-0.320844,-0.24072,-0.253791
29,65,-0.654498,-0.814493,-0.174533,-0.174533,-0.656155,-0.803034,-0.158485,-0.157614,0.16567,-0.320844,-0.24072,-0.253791
29,65,-0.654498,-0.814493,-0.174533,-0.174533,-0.656155,-0.803034,-0.158485,-0.157614,0.16567,-0.320844,-0.24072,-0.253791
29,65,-0.654498,-0.814493,-0.174533,-0.174533,-0.656155,-0.803034,-0.158485,-0.157614,0.16567,-0.320844,-0.24072,-0.253791
29,65,-0.654498,-0.814493,-0.174533,-0.174533,-0.656155,-0.803034,-0.158485,-0.157614,0.16567,-0.320844,-0.24072,-0.253791
29,65,-0.654498,-0.814493,-0.174533,-0.174533,-0.656155,-0.803034,-0.158485,-0.157614,0.16567,-0.320844,-0.24072,-0.253791
29,65,-0.654498,-0.814493,-0.174533,-0.174533,-0.656155,-0.803034,-0.158485,-0.157614,0.16567,-0.320844,-0.24072,-0.253791
29,65,-0.654498,-0.814493,-0.174533,-0.174533,-0.656155,-0.803034,-0.158422,-0.157572,0.16567,-0.320844,-0.241669,-0.254414
29,65,-0.654498,-0.814493,-0.174533,-0.174533,-0.656155,-0.803034,-0.158422,-0.157572,0.16567,-0.320844,-0.241669,-0.254414
29,65,-0.654498,-0.814493,-0.174533,-0.174533,-0.656155,-0.803034,-0.158422,-0.157572,0.16567,-0.320844,-0.241669,-0.254414
29,65,-0.654498,-0.814493,-0.174533,-0.174533,-0.656155,-0.803034,-0.158422,-0.157572,0.16567,-0.320844,-0.241669,-0.254414
29,65,-0.654498,-0.814493,-0.174533,-0.174533,-0.656155,-0.803034,-0.158422,-0.157572,0.16567,-0.320844,-0.241669,-0.254414
29,65,-0.654498,-0.814493,-0.174533,-0.174533,-0.656155,-0.803034,-0.158358,-0.15753,0.16567,-0.320844,-0.242619,-0.255038
29,65,-0.654498,-0.814493,-0.174533,-0.174533,-0.656155,-0.803034,-0.158358,-0.15753,0.16567,-0.320844,-0.242619,-0.255038
29,65,-0.654498,-0.814493,-0.174533,-0.174533,-0.656155,-0.803034,-0.158358,-0.15753,0.16567,-0.320844,-0.242619,-0.255038
29,65,-0.654498,-0.814493,-0.174533,-0.174533,-0.656155,-0.803034,-0.158358,-0.15753,0.16567,-0.320844,-0.242619,-0.255038
29,65,-0.654498,-0.814493,-0.174533,-0.174533,-0.656155,-0.803034,-0.158358,-0.15753,0.16567,-0.320844,-0.242619,-0.255038
29,65,-0.654498,-0.814493,-0.174533,-0.174533,-0.656084,-0.803034,-0.158295,-0.157489,0.158511,-0.320844,-0.243609,-0.255689
29,65,-0.654498,-0.814493,-0.174533,-0.174533,-0.656084,-0.803034,-0.158295,-0.157489,0.158511,-0.320844,-0.243609,-0.255689
29,65,-0.654498,-0.814493,-0.174533,-0.174533,-0.656084,-0.803034,-0.158295,-0.157489,0.158511,-0.320844,-0.243609,-0.255689
29,65,-0.654498,-0.814493,-0.174533,-0.174533,-0.656084,-0.803034,-0.158295,-0.157489,0.158511,-0.320844,-0.243609,-0.255689
29,65,-0.654498,-0.814493,-0.174533,-0.174533,-0.656012,-0.803034,-0.158295,-0.157489,0.151353,-0.320844,-0.243609,-0.255689
29,65,-0.654498,-0.814493,-0.174533,-0.174533,-0.656012,-0.803034,-0.158295,-0.157489,0.151353,-0.320844,-0.243609,-0.255689
29,65,-0.654498,-0.814493,-0.174533,-0.174533,-0.656012,-0.803034,-0.158295,-0.157489,0.151353,-0.320844,-0.243609,-0.255689
29,65,-0.654498,-0.814493,-0.174533,-0.174533,-0.656012,-0.803034,-0.158295,-0.157489,0.151353,-0.320844,-0.243609,-0.255689
29,65,-0.654498,-0.814493,-0.174533,-0.174533,-0.656012,-0.803034,-0.158295,-0.157489,0.151353,-0.320844,-0.243609,-0.255689
29,65,-0.654498,-0.814493,-0.174533,-0.174533,-0.656012,-0.803034,-0.158295,-0.157489,0.151353,-0.320844,-0.243609,-0.255689
29,65,-0.654498,-0.814493,-0.174533,-0.174533,-0.656012,-0.803034,-0.158295,-0.157489,0.151353,-0.320844,-0.243609,-0.255689
29,65,-0.654498,-0.814493,-0.174533,-0.174533,-0.656012,-0.803034,-0.158295,-0.157489,0.151353,-0.320844,-0.243609,-0.255689
29,65,-0.654498,-0.814493,-0.174533,-0.174533,-0.656012,-0.803034,-0.158295,-0.157489,0.151353,-0.320844,-0.243609,-0.255689
29,65,-0.654498,-0.814493,-0.174533,-0.174533,-0.656012,-0.803034,-0.158293,-0.157429,0.151353,-0.320844,-0.243639,-0.256586
29,65,-0.654498,-0.814493,-0.174533,-0.174533,-0.656012,-0.803034,-0.158293,-0.157429,0.151353,-0.320844,-0.243639,-0.256586
29,65,-0.654498,-0.814493,-0.174533,-0.174533,-0.656012,-0.803034,-0.158293,-0.157429,0.151353,-0.320844,-0.243639,-0.256586
29,65,-0.654498,-0.814493,-0.174533,-0.174533,-0.656012,-0.803034,-0.158293,-0.157429,0.151353,-0.320844,-0.243639,-0.256586
29,65,-0.654498,-0.814493,-0.174533,-0.174533,-0.656012,-0.803034,-0.158293,-0.157429,0.151353,-0.320844,-0.243639,-0.256586
29,65,-0.654498,-0.814493,-0.174533,-0.174533,-0.656012,-0.803034,-0.158293,-0.157429,0.151353,-0.320844,-0.243639,-0.256586
29,65,-0.654498,-0.814493,-0.174533,-0.174533,-0.656012,-0.803034,-0.158293,-0.157429,0.151353,-0.320844,-0.243639,-0.256586
29,65,-0.654498,-0.814493,-0.174533,-0.174533,-0.656012,-0.803034,-0.158293,-0.157429,0.151353,-0.320844,-0.243639,-0.256586
29,65,-0.654498,-0.814493,-0.174533,-0.174533,-0.656012,-0.803034,-0.158293,-0.157429,0.151353,-0.320844,-0.243639,-0.256586
29,65,-0.654498,-0.814493,-0.174533,-0.174533,-0.656012,-0.803034,-0.158293,-0.157429,0.151353,-0.320844,-0.243639,-0.256586
29,65,-0.654498,-0.814493,-0.174533,-0.174533,-0.656012,-0.803034,-0.158293,-0.157429,0.151353,-0.320844,-0.243639,-0.256586
29,65,-0.654498,-0.814493,-0.174533,-0.174533,-0.656012,-0.803034,-0.158293,-0.157429,0.151353,-0.320844,-0.243639,-0.256586
29,65,-0.654498,-0.814493,-0.174533,-0.174533,-0.656012,-0.803034,-0.158293,-0.157429,0.151353,-0.320844,-0.243639,-0.256586
29,65,-0.654498,-0.814493,-0.174533,-0.174533,-0.656012,-0.803034,-0.158293,-0.157429,0.151353,-0.320844,-0.243639,-0.256586
29,65,-0.654498,-0.814493,-0.174533,-0.174533,-0.656012,-0.803034,-0.158293,-0.157429,0.151353,-0.320844,-0.243639,-0.256586
29,65,-0.654498,-0.814493,-0.174533,-0.174533,-0.656012,-0.803034,-0.158293,-0.157429,0.151353,-0.320844,-0.243639,-0.256586
29,65,-0.654498,-0.814493,-0.174533,-0.174533,-0.656012,-0.803034,-0.158293,-0.157429,0.151353,-0.320844,-0.243639,-0.256586
29,65,-0.654498,-0.814493,-0.174533,-0.174533,-0.656012,-0.803034,-0.158293,-0.157429,0.151353,-0.320844,-0.243639,-0.256586
29,65,-0.654498,-0.814493,-0.174533,-0.174533,-0.656012,-0.803034,-0.158293,-0.157429,0.151353,-0.320844,-0.243639,-0.256586
29,65,-0.654498,-0.814493,-0.174533,-0.174533,-0.656012,-0.803034,-0.158293,-0.157429,0.151353,-0.320844,-0.243639,-0.256586
29,65,-0.654498,-0.814493,-0.174533,-0.174533,-0.656012,-0.803034,-0.158293,-0.157429,0.151353,-0.320844,-0.243639,-0.256586
29,65,-0.654498,-0.814493,-0.174533,-0.174533,-0.656012,-0.803034,-0.158293,-0.157429,0.151353,-0.320844,-0.243639,-0.256586
29,65,-0.654498,-0.814493,-0.174533,-0.174533,-0.656012,-0.803034,-0.158293,-0.157429,0.151353,-0.320844,-0.243639,-0.256586
29,65,-0.654498,-0.814493,-0.174533,-0.174533,-0.656012,-0.803034,-0.158293,-0.157429,0.151353,-0.320844,-0.243639,-0.256586
29,65,-0.654498,-0.814493,-0.174533,-0.174533,-0.656012,-0.803034,-0.158293,-0.157429,0.151353,-0.320844,-0.243639,-0.256586
29,65,-0.654498,-0.814493,-0.174533,-0.174533,-0.656012,-0.803034,-0.158293,-0.157429,0.151353,-0.320844,-0.243639,-0.256586
29,65,-0.654498,-0.814493,-0.174533,-0.174533,-0.656012,-0.803034,-0.158293,-0.157429,0.151353,-0.320844,-0.243639,-0.256586
29,65,-0.654498,-0.814493,-0.174533,-0.174533,-0.656012,-0.803034,-0.158293,-0.157429,0.151353,-0.320844,-0.243639,-0.256586
29,65,-0.654498,-0.814493,-0.174533,-0.174533,-0.656012,-0.803034,-0.158293,-0.157429,0.151353,-0.320844,-0.243639,-0.256586
29,65,-0.654498,-0.814493,-0.174533,-0.174533,-0.656012,-0.803034,-0.158293,-0.157429,0.151353,-0.320844,-0.243639,-0.256586
29,65,-0.654498,-0.814493,-0.174533,-0.174533,-0.656012,-0.803034,-0.158293,-0.157429,0.151353,-0.320844,-0.243639,-0.256586
29,65,-0.654498,-0.814493,-0.174533,-0.174533,-0.656012,-0.803034,-0.158293,-0.157429,0.151353,-0.320844,-0.243639,-0.256586
29,65,-0.654498,-0.814493,-0.174533,-0.174533,-0.656012,-0.803034,-0.158293,-0.157429,0.151353,-0.320844,-0.243639,-0.256586
29,65,-0.654498,-0.814493,-0.174533,-0.174533,-0.656012,-0.803034,-0.158293,-0.157429,0.151353,-0.320844,-0.243639,-0.256586
29,65,-0.654498,-0.814493,-0.174533,-0.174533,-0.656012,-0.803034,-0.158293,-0.157429,0.151353,-0.320844,-0.243639,-0.256586
29,65,-0.654498,-0.814493,-0.174533,-0.174533,-0.656012,-0.803034,-0.158293,-0.157429,0.151353,-0.320844,-0.243639,-0.256586
29,65,-0.654498,-0.814493,-0.174533,-0.174533,-0.656012,-0.803034,-0.158293,-0.157429,0.151353,-0.320844,-0.243639,-0.256586
29,65,-0.654498,-0.814493,-0.174533,-0.174533,-0.656012,-0.803034,-0.158293,-0.157429,0.151353,-0.320844,-0.243639,-0.256586
29,65,-0.654498,-0.814493,-0.174533,-0.174533,-0.656012,-0.803034,-0.158293,-0.157429,0.151353,-0.320844,-0.243639,-0.256586
29,65,-0.654498,-0.814493,-0.174533,-0.174533,-0.656012,-0.803034,-0.158293,-0.157429,0.151353,-0.320844,-0.243639,-0.256586
29,65,-0.654498,-0.814493,-0.174533,-0.174533,-0.656012,-0.803034,-0.158293,-0.157429,0.151353,-0.320844,-0.243639,-0.256586
29,65,-0.654498,-0.814493,-0.174533,-0.174533,-0.656012,-0.803034,-0.158293,-0.157429,0.151353,-0.320844,-0.243639,-0.256586
29,65,-0.654498,-0.814493,-0.174533,-0.174533,-0.656012,-0.803034,-0.158293,-0.157429,0.151353,-0.320844,-0.243639,-0.256586
29,65,-0.654498,-0.814493,-0.174533,-0.174533,-0.656012,-0.803034,-0.158293,-0.157429,0.151353,-0.320844,-0.243639,-0.256586
29,65,-0.654498,-0.814493,-0.174533,-0.174533,-0.656012,-0.803034,-0.158293,-0.157429,0.151353,-0.320844,-0.243639,-0.256586
29,65,-0.654498,-0.814493,-0.174533,-0.174533,-0.656012,-0.803034,-0.158293,-0.157429,0.151353,-0.320844,-0.243639,-0.256586
29,65,-0.654498,-0.814493,-0.174533,-0.174533,-0.656012,-0.803034,-0.158293,-0.157429,0.151353,-0.320844,-0.243639,-0.256586
29,65,-0.654498,-0.814493,-0.174533,-0.174533,-0.656012,-0.803034,-0.158293,-0.157429,0.151353,-0.320844,-0.243639,-0.256586
29,65,-0.654498,-0.814493,-0.174533,-0.174533,-0.656012,-0.803034,-0.158293,-0.157429,0.151353,-0.320844,-0.243639,-0.256586
29,65,-0.654498,-0.814493,-0.174533,-0.174533,-0.656012,-0.803034,-0.158293,-0.157429,0.151353,-0.320844,-0.243638,-0.256586
29,65,-0.654498,-0.814493,-0.174533,-0.174533,-0.656012,-0.803034,-0.158293,-0.157429,0.151353,-0.320844,-0.243638,-0.256585
29,65,-0.654498,-0.814493,-0.174533,-0.174533,-0.656012,-0.803034,-0.158293,-0.157429,0.151353,-0.320844,-0.243637,-0.256585
29,65,-0.654498,-0.814493,-0.174533,-0.174533,-0.656012,-0.803034,-0.158293,-0.157429,0.151353,-0.320844,-0.243636,-0.256585
29,65,-0.654498,-0.814493,-0.174533,-0.174533,-0.656012,-0.803034,-0.158293,-0.157429,0.151353,-0.320844,-0.243636,-0.256584
29,65,-0.654498,-0.814493,-0.174533,-0.174533,-0.656012,-0.803034,-0.158293,-0.157429,0.151353,-0.320844,-0.243635,-0.256584
29,65,-0.654498,-0.814493,-0.174533,-0.174533,-0.656012,-0.803034,-0.158293,-0.157429,0.151353,-0.320844,-0.243635,-0.256584
29,65,-0.654498,-0.814493,-0.174533,-0.174533,-0.656012,-0.803034,-0.158293,-0.157429,0.151353,-0.320844,-0.243634,-0.256583
29,65,-0.654498,-0.814493,-0.174533,-0.174533,-0.656012,-0.803034,-0.158293,-0.157429,0.151353,-0.320844,-0.243634,-0.256583
29,65,-0.654498,-0.814493,-0.174533,-0.174533,-0.656012,-0.803034,-0.158293,-0.157429,0.151353,-0.320844,-0.243633,-0.256583
29,65,-0.654498,-0.814493,-0.174533,-0.174533,-0.656012,-0.803034,-0.158293,-0.157429,0.151353,-0.320844,-0.243633,-0.256582
29,65,-0.654498,-0.814493,-0.174533,-0.174533,-0.656012,-0.803034,-0.158293,-0.157429,0.151353,-0.320844,-0.243632,-0.256582
29,65,-0.654498,-0.814493,-0.174533,-0.174533,-0.656012,-0.803034,-0.158293,-0.157429,0.151353,-0.320844,-0.243632,-0.256582
29,65,-0.654498,-0.814493,-0.174533,-0.174533,-0.656012,-0.803034,-0.158293,-0.157429,0.151353,-0.320844,-0.243631,-0.256581
29,65,-0.654498,-0.814493,-0.174533,-0.174533,-0.656012,-0.803034,-0.158293,-0.157429,0.151353,-0.320844,-0.243631,-0.256581
29,65,-0.654498,-0.814493,-0.174533,-0.174533,-0.656012,-0.803034,-0.158293,-0.157429,0.151353,-0.320844,-0.24363,-0.256581
29,65,-0.654498,-0.814493,-0.174533,-0.174533,-0.656012,-0.803034,-0.158293,-0.157429,0.151353,-0.320844,-0.24363,-0.25658
29,65,-0.654498,-0.814493,-0.174533,-0.174533,-0.656012,-0.803034,-0.158293,-0.157429,0.151353,-0.320844,-0.24363,-0.25658
29,65,-0.654498,-0.814493,-0.174533,-0.174533,-0.656012,-0.803034,-0.158293,-0.157429,0.151353,-0.320844,-0.243629,-0.25658
29,65,-0.654498,-0.814493,-0.174533,-0.174533,-0.656012,-0.803034,-0.158293,-0.157429,0.151353,-0.320844,-0.243629,-0.25658
29,65,-0.654498,-0.814493,-0.174533,-0.174533,-0.656012,-0.803034,-0.158293,-0.157429,0.151353,-0.320844,-0.243628,-0.256579
29,65,-0.654498,-0.814493,-0.174533,-0.174533,-0.656012,-0.803034,-0.158293,-0.157429,0.151353,-0.320844,-0.243628,-0.256579
29,65,-0.654498,-0.814493,-0.174533,-0.174533,-0.656012,-0.803034,-0.158293,-0.157429,0.151353,-0.320844,-0.243628,-0.256579
29,65,-0.654498,-0.814493,-0.174533,-0.174533,-0.656012,-0.803034,-0.158293,-0.157429,0.151353,-0.320844,-0.243598,-0.256559
29,65,-0.654498,-0.814493,-0.174533,-0.174533,-0.656012,-0.803034,-0.158293,-0.157429,0.151353,-0.320844,-0.243598,-0.256559
29,65,-0.654498,-0.814493,-0.174533,-0.174533,-0.656012,-0.803034,-0.158293,-0.157429,0.151353,-0.320844,-0.243598,-0.256559
29,65,-0.654498,-0.814493,-0.174533,-0.174533,-0.656012,-0.803034,-0.158293,-0.157429,0.151353,-0.320844,-0.243598,-0.256559
29,65,-0.654498,-0.814493,-0.174533,-0.174533,-0.656012,-0.803034,-0.158293,-0.157429,0.151353,-0.320844,-0.243598,-0.256559
29,65,-0.654498,-0.814493,-0.174533,-0.174533,-0.656012,-0.803034,-0.158293,-0.157429,0.151353,-0.320844,-0.243598,-0.256559
29,65,-0.654498,-0.814493,-0.174533,-0.174533,-0.656012,-0.803034,-0.158293,-0.157429,0.151353,-0.320844,-0.243598,-0.256559
29,65,-0.654498,-0.814493,-0.174533,-0.174533,-0.656012,-0.803034,-0.158293,-0.157429,0.151353,-0.320844,-0.243598,-0.256559
29,65,-0.654498,-0.814493,-0.174533,-0.174533,-0.656012,-0.803034,-0.158293,-0.157429,0.151353,-0.320844,-0.243598,-0.256559
29,65,-0.654498,-0.814493,-0.174533,-0.174533,-0.656012,-0.803034,-0.158293,-0.157429,0.151353,-0.320844,-0.243598,-0.256559
29,65,-0.654498,-0.814493,-0.174533,-0.174533,-0.656012,-0.803034,-0.158293,-0.157429,0.151353,-0.320844,-0.243598,-0.256559
29,65,-0.654498,-0.814493,-0.174533,-0.174533,-0.656012,-0.803034,-0.158293,-0.157429,0.151353,-0.320844,-0.243598,-0.256559
29,65,-0.654498,-0.814493,-0.174533,-0.174533,-0.656012,-0.803034,-0.158293,-0.157429,0.151353,-0.320844,-0.243598,-0.256559
29,65,-0.654498,-0.814493,-0.174533,-0.174533,-0.656012,-0.803034,-0.158293,-0.157429,0.151353,-0.320844,-0.243598,-0.256559
29,65,-0.654498,-0.814493,-0.174533,-0.174533,-0.656012,-0.803034,-0.158293,-0.157429,0.151353,-0.320844,-0.243598,-0.256559
29,65,-0.654498,-0.814493,-0.174533,-0.174533,-0.656012,-0.803034,-0.158293,-0.157429,0.151353,-0.320844,-0.243598,-0.256559
29,65,-0.654498,-0.814493,-0.174533,-0.174533,-0.656012,-0.803034,-0.158293,-0.157429,0.151353,-0.320844,-0.243598,-0.256559
29,65,-0.654498,-0.814493,-0.174533,-0.174533,-0.656012,-0.803034,-0.158293,-0.157429,0.151353,-0.320844,-0.243598,-0.256559
29,65,-0.654498,-0.814493,-0.174533,-0.174533,-0.656012,-0.803034,-0.158293,-0.157429,0.151353,-0.320844,-0.243598,-0.256559
29,65,-0.654498,-0.814493,-0.174533,-0.174533,-0.656012,-0.803034,-0.158293,-0.157429,0.151353,-0.320844,-0.243598,-0.256559
29,65,-0.654498,-0.814493,-0.174533,-0.174533,-0.656012,-0.803034,-0.158293,-0.157429,0.151353,-0.320844,-0.243598,-0.256559
29,65,-0.654498,-0.814493,-0.174533,-0.174533,-0.656012,-0.803034,-0.158293,-0.157429,0.151353,-0.320844,-0.243598,-0.256559
29,65,-0.654498,-0.814493,-0.174533,-0.174533,-0.656012,-0.803034,-0.158293,-0.157429,0.151353,-0.320844,-0.243598,-0.256559
29,65,-0.654498,-0.814493,-0.174533,-0.174533,-0.656012,-0.803034,-0.158293,-0.157429,0.151353,-0.320844,-0.243598,-0.256559
29,65,-0.654498,-0.814493,-0.174533,-0.174533,-0.656012,-0.803034,-0.158293,-0.157429,0.151353,-0.320844,-0.243598,-0.256559
29,65,-0.654498,-0.814493,-0.174533,-0.174533,-0.656012,-0.803034,-0.158293,-0.157429,0.151353,-0.320844,-0.243598,-0.256559
29,65,-0.654498,-0.814493,-0.174533,-0.174533,-0.656012,-0.803034,-0.158293,-0.157429,0.151353,-0.320844,-0.243598,-0.256559
29,65,-0.654498,-0.814493,-0.174533,-0.174533,-0.656012,-0.803034,-0.158293,-0.157429,0.151353,-0.320844,-0.243598,-0.256559
29,65,-0.654498,-0.814493,-0.174533,-0.174533,-0.656012,-0.803034,-0.158293,-0.157429,0.151353,-0.320844,-0.243598,-0.256559
29,65,-0.654498,-0.814493,-0.174533,-0.174533,-0.656012,-0.803034,-0.158293,-0.157429,0.151353,-0.320844,-0.243598,-0.256559
29,65,-0.654498,-0.814493,-0.174533,-0.174533,-0.656012,-0.803034,-0.158293,-0.157429,0.151353,-0.320844,-0.243598,-0.256559
29,65,-0.654498,-0.814493,-0.174533,-0.174533,-0.656012,-0.803034,-0.158293,-0.157429,0.151353,-0.320844,-0.243598,-0.256559
29,65,-0.654498,-0.814493,-0.174533,-0.174533,-0.656012,-0.803034,-0.15823,-0.157387,0.151353,-0.320844,-0.244547,-0.257183
29,65,-0.654498,-0.814493,-0.174533,-0.174533,-0.656012,-0.803034,-0.15823,-0.157387,0.151353,-0.320844,-0.244547,-0.257183
29,65,-0.654498,-0.814493,-0.174533,-0.174533,-0.656012,-0.803034,-0.15823,-0.157387,0.151353,-0.320844,-0.244547,-0.257183
29,65,-0.654498,-0.814493,-0.174533,-0.174533,-0.656012,-0.803034,-0.15823,-0.157387,0.151353,-0.320844,-0.244547,-0.257183
29,65,-0.654498,-0.814493,-0.174533,-0.174533,-0.656012,-0.803034,-0.15823,-0.157387,0.151353,-0.320844,-0.244547,-0.257183
29,65,-0.654498,-0.814493,-0.174533,-0.174533,-0.656012,-0.803034,-0.15823,-0.157387,0.151353,-0.320844,-0.244547,-0.257183
29,65,-0.654498,-0.814493,-0.174533,-0.174533,-0.65594,-0.803034,-0.15823,-0.157387,0.144194,-0.320844,-0.244547,-0.257183
29,65,-0.654498,-0.814493,-0.174533,-0.174533,-0.65594,-0.803034,-0.15823,-0.157387,0.144194,-0.320844,-0.244547,-0.257183
29,65,-0.654498,-0.814493,-0.174533,-0.174533,-0.65594,-0.803034,-0.15823,-0.157387,0.144194,-0.320844,-0.244547,-0.257183
29,65,-0.654498,-0.814493,-0.174533,-0.174533,-0.65594,-0.803034,-0.15823,-0.157387,0.144194,-0.320844,-0.244547,-0.257183
29,65,-0.654498,-0.814493,-0.174533,-0.174533,-0.65594,-0.803034,-0.15823,-0.157387,0.144194,-0.320844,-0.244547,-0.257183
29,65,-0.654498,-0.814493,-0.174533,-0.174533,-0.65594,-0.803034,-0.15823,-0.157387,0.144194,-0.320844,-0.244547,-0.257183
29,65,-0.654498,-0.814493,-0.174533,-0.174533,-0.65594,-0.803034,-0.158167,-0.157346,0.144194,-0.320844,-0.245496,-0.257806
29,65,-0.654498,-0.814493,-0.174533,-0.174533,-0.65594,-0.803034,-0.158167,-0.157346,0.144194,-0.320844,-0.245496,-0.257806
29,65,-0.654498,-0.814493,-0.174533,-0.174533,-0.65594,-0.803034,-0.158167,-0.157346,0.144194,-0.320844,-0.245496,-0.257806
29,65,-0.654498,-0.814493,-0.174533,-0.174533,-0.65594,-0.803034,-0.158167,-0.157346,0.144194,-0.320844,-0.245496,-0.257806
29,65,-0.654498,-0.814493,-0.174533,-0.174533,-0.65594,-0.803034,-0.158167,-0.157346,0.144194,-0.320844,-0.245496,-0.257806
29,65,-0.654498,-0.814493,-0.174533,-0.174533,-0.65594,-0.803034,-0.158167,-0.157346,0.144194,-0.320844,-0.245496,-0.257806
29,65,-0.654498,-0.814493,-0.174533,-0.174533,-0.65594,-0.803034,-0.158167,-0.157346,0.144194,-0.320844,-0.245496,-0.257806
29,65,-0.654498,-0.814493,-0.174533,-0.174533,-0.655869,-0.803034,-0.158167,-0.157346,0.137036,-0.320844,-0.245496,-0.257806
29,65,-0.654498,-0.814493,-0.174533,-0.174533,-0.655869,-0.803034,-0.158167,-0.157346,0.137036,-0.320844,-0.245496,-0.257806
29,65,-0.654498,-0.814493,-0.174533,-0.174533,-0.655869,-0.803034,-0.158167,-0.157346,0.137036,-0.320844,-0.245496,-0.257806
29,65,-0.654498,-0.814493,-0.174533,-0.174533,-0.655869,-0.803034,-0.158167,-0.157346,0.137036,-0.320844,-0.245496,-0.257806
29,65,-0.654498,-0.814493,-0.174533,-0.174533,-0.655869,-0.803034,-0.158167,-0.157346,0.137036,-0.320844,-0.245496,-0.257806
29,65,-0.654498,-0.814493,-0.174533,-0.174533,-0.655869,-0.803034,-0.158167,-0.157346,0.137036,-0.320844,-0.245496,-0.257806
29,65,-0.654498,-0.814493,-0.174533,-0.174533,-0.655869,-0.803034,-0.158167,-0.157346,0.137036,-0.320844,-0.245496,-0.257806
29,65,-0.654498,-0.814493,-0.174533,-0.174533,-0.655869,-0.803034,-0.158167,-0.157346,0.137036,-0.320844,-0.245496,-0.257806
29,65,-0.654498,-0.814493,-0.174533,-0.174533,-0.655869,-0.803034,-0.158167,-0.157346,0.137036,-0.320844,-0.245496,-0.257806
29,65,-0.654498,-0.814493,-0.174533,-0.174533,-0.655869,-0.803034,-0.158167,-0.157346,0.137036,-0.320844,-0.245496,-0.257806
29,65,-0.654498,-0.814493,-0.174533,-0.174533,-0.655869,-0.803034,-0.158167,-0.157346,0.137036,-0.320844,-0.245496,-0.257806
29,65,-0.654498,-0.814493,-0.174533,-0.174533,-0.655869,-0.803034,-0.158167,-0.157346,0.137036,-0.320844,-0.245496,-0.257806
29,65,-0.654498,-0.814493,-0.174533,-0.174533,-0.655869,-0.803034,-0.158167,-0.157346,0.137036,-0.320844,-0.245496,-0.257806
29,65,-0.654498,-0.814493,-0.174533,-0.174533,-0.655869,-0.803034,-0.158167,-0.157346,0.137036,-0.320844,-0.245496,-0.257806
29,65,-0.654498,-0.814493,-0.174533,-0.174533,-0.655869,-0.803034,-0.158167,-0.157346,0.137036,-0.320844,-0.245496,-0.257806
29,65,-0.654498,-0.814493,-0.174533,-0.174533,-0.655869,-0.803034,-0.158167,-0.157346,0.137036,-0.320844,-0.245496,-0.257806
29,65,-0.654498,-0.814493,-0.174533,-0.174533,-0.655869,-0.803034,-0.158167,-0.157346,0.137036,-0.320844,-0.245496,-0.257806
29,65,-0.654498,-0.814493,-0.174533,-0.174533,-0.655869,-0.803034,-0.158167,-0.157346,0.137036,-0.320844,-0.245496,-0.257806
29,65,-0.654498,-0.814493,-0.174533,-0.174533,-0.655869,-0.803034,-0.158167,-0.157346,0.137036,-0.320844,-0.245496,-0.257806
29,65,-0.654498,-0.814493,-0.174533,-0.174533,-0.655869,-0.803034,-0.158167,-0.157346,0.137036,-0.320844,-0.245496,-0.257806
29,65,-0.654498,-0.814493,-0.174533,-0.174533,-0.655869,-0.803034,-0.158167,-0.157346,0.137036,-0.320844,-0.245496,-0.257806
29,65,-0.654498,-0.814493,-0.174533,-0.174533,-0.655869,-0.803034,-0.158167,-0.157346,0.137036,-0.320844,-0.245496,-0.257806
29,65,-0.654498,-0.814493,-0.174533,-0.174533,-0.655869,-0.803034,-0.158167,-0.157346,0.137036,-0.320844,-0.245496,-0.257806
29,65,-0.654498,-0.814493,-0.174533,-0.174533,-0.655869,-0.803034,-0.158167,-0.157346,0.137036,-0.320844,-0.245496,-0.257806
29,65,-0.654498,-0.814493,-0.174533,-0.174533,-0.655869,-0.803034,-0.158167,-0.157346,0.137036,-0.320844,-0.245496,-0.257806
29,65,-0.654498,-0.814493,-0.174533,-0.174533,-0.655869,-0.803034,-0.158167,-0.157346,0.137036,-0.320844,-0.245496,-0.257806
29,65,-0.654498,-0.814493,-0.174533,-0.174533,-0.655869,-0.803034,-0.158167,-0.157346,0.137036,-0.320844,-0.245496,-0.257806
29,65,-0.654498,-0.814493,-0.174533,-0.174533,-0.655869,-0.803034,-0.158167,-0.157346,0.137036,-0.320844,-0.245496,-0.257806
29,65,-0.654498,-0.814493,-0.174533,-0.174533,-0.655869,-0.803034,-0.158167,-0.157346,0.137036,-0.320844,-0.245496,-0.257806
29,65,-0.654498,-0.814493,-0.174533,-0.174533,-0.655869,-0.803034,-0.158167,-0.157346,0.137036,-0.320844,-0.245496,-0.257806
29,65,-0.654498,-0.814493,-0.174533,-0.174533,-0.655869,-0.803034,-0.158167,-0.157346,0.137036,-0.320844,-0.245496,-0.257806
29,65,-0.654498,-0.814493,-0.174533,-0.174533,-0.655869,-0.803034,-0.158167,-0.157346,0.137036,-0.320844,-0.245496,-0.257806
29,65,-0.654498,-0.814493,-0.174533,-0.174533,-0.655869,-0.803034,-0.158167,-0.157346,0.137036,-0.320844,-0.245496,-0.257806
29,65,-0.654498,-0.814493,-0.174533,-0.174533,-0.655869,-0.803034,-0.158167,-0.157346,0.137036,-0.320844,-0.245496,-0.257806
29,65,-0.654498,-0.814493,-0.174533,-0.174533,-0.655869,-0.803034,-0.158167,-0.157346,0.137036,-0.320844,-0.245496,-0.257806
29,65,-0.654498,-0.814493,-0.174533,-0.174533,-0.655869,-0.803034,-0.158167,-0.157346,0.137036,-0.320844,-0.245496,-0.257806
29,65,-0.654498,-0.814493,-0.174533,-0.174533,-0.655869,-0.803034,-0.158167,-0.157346,0.137036,-0.320844,-0.245496,-0.257806
29,65,-0.654498,-0.814493,-0.174533,-0.174533,-0.655869,-0.803034,-0.158167,-0.157346,0.137036,-0.320844,-0.245496,-0.257806
29,65,-0.654498,-0.814493,-0.174533,-0.174533,-0.655869,-0.803034,-0.158167,-0.157346,0.137036,-0.320844,-0.245496,-0.257806
29,65,-0.654498,-0.814493,-0.174533,-0.174533,-0.655869,-0.803034,-0.158167,-0.157346,0.137036,-0.320844,-0.245496,-0.257806
29,65,-0.654498,-0.814493,-0.174533,-0.174533,-0.655869,-0.803034,-0.158167,-0.157346,0.137036,-0.320844,-0.245496,-0.257806
29,65,-0.654498,-0.814493,-0.174533,-0.174533,-0.655869,-0.803034,-0.158167,-0.157346,0.137036,-0.320844,-0.245496,-0.257806
29,65,-0.654498,-0.814493,-0.174533,-0.174533,-0.655869,-0.803034,-0.158167,-0.157346,0.137036,-0.320844,-0.245496,-0.257806
29,65,-0.654498,-0.814493,-0.174533,-0.174533,-0.655869,-0.803034,-0.158167,-0.157346,0.137036,-0.320844,-0.245496,-0.257806
29,65,-0.654498,-0.814493,-0.174533,-0.174533,-0.655869,-0.803034,-0.158167,-0.157346,0.137036,-0.320844,-0.245496,-0.257806
29,65,-0.654498,-0.814493,-0.174533,-0.174533,-0.655869,-0.803034,-0.158167,-0.157346,0.137036,-0.320844,-0.245496,-0.257806
29,65,-0.654498,-0.814493,-0.174533,-0.174533,-0.655869,-0.803034,-0.158167,-0.157346,0.137036,-0.320844,-0.245496,-0.257806
29,65,-0.654498,-0.814493,-0.174533,-0.174533,-0.655869,-0.803034,-0.158167,-0.157346,0.137036,-0.320844,-0.245496,-0.257806
29,65,-0.654498,-0.814493,-0.174533,-0.174533,-0.655869,-0.803034,-0.158167,-0.157346,0.137036,-0.320844,-0.245496,-0.257806
29,65,-0.654498,-0.814493,-0.174533,-0.174533,-0.655869,-0.803034,-0.158167,-0.157346,0.137036,-0.320844,-0.245496,-0.257806
29,65,-0.654498,-0.814493,-0.174533,-0.174533,-0.655869,-0.803034,-0.158167,-0.157346,0.137036,-0.320844,-0.245496,-0.257806
29,65,-0.654498,-0.814493,-0.174533,-0.174533,-0.655869,-0.803034,-0.158167,-0.157346,0.137036,-0.320844,-0.245496,-0.257806
29,65,-0.654498,-0.814493,-0.174533,-0.174533,-0.655869,-0.803034,-0.158167,-0.157346,0.137036,-0.320844,-0.245496,-0.257806
29,65,-0.654498,-0.814493,-0.174533,-0.174533,-0.655869,-0.803034,-0.158167,-0.157346,0.137036,-0.320844,-0.245496,-0.257806
29,65,-0.654498,-0.814493,-0.174533,-0.174533,-0.655869,-0.803034,-0.158167,-0.157346,0.137036,-0.320844,-0.245496,-0.257806
29,65,-0.654498,-0.814493,-0.174533,-0.174533,-0.655869,-0.803034,-0.158167,-0.157346,0.137036,-0.320844,-0.245496,-0.257806
29,65,-0.654498,-0.814493,-0.174533,-0.174533,-0.655869,-0.803034,-0.158167,-0.157346,0.137036,-0.320844,-0.245496,-0.257806
29,65,-0.654498,-0.814493,-0.174533,-0.174533,-0.655869,-0.803034,-0.158167,-0.157346,0.137036,-0.320844,-0.245496,-0.257806
29,65,-0.654498,-0.814493,-0.174533,-0.174533,-0.655869,-0.803034,-0.158167,-0.157346,0.137036,-0.320844,-0.245496,-0.257806
29,65,-0.654498,-0.814493,-0.174533,-0.174533,-0.655869,-0.803034,-0.158167,-0.157346,0.137036,-0.320844,-0.245496,-0.257806
29,65,-0.654498,-0.814493,-0.174533,-0.174533,-0.655869,-0.803034,-0.158167,-0.157346,0.137036,-0.320844,-0.245496,-0.257806
29,65,-0.654498,-0.814493,-0.174533,-0.174533,-0.655869,-0.803034,-0.158167,-0.157346,0.137036,-0.320844,-0.245496,-0.257806
29,65,-0.654498,-0.814493,-0.174533,-0.174533,-0.655869,-0.803034,-0.158167,-0.157346,0.137036,-0.320844,-0.245496,-0.257806
29,65,-0.654498,-0.814493,-0.174533,-0.174533,-0.655869,-0.803034,-0.158167,-0.157346,0.137036,-0.320844,-0.245496,-0.257806
29,65,-0.654498,-0.814493,-0.174533,-0.174533,-0.655869,-0.803034,-0.158167,-0.157346,0.137036,-0.320844,-0.245496,-0.257806
29,65,-0.654498,-0.814493,-0.174533,-0.174533,-0.655869,-0.803034,-0.158167,-0.157346,0.137036,-0.320844,-0.245496,-0.257806
29,65,-0.654498,-0.814493,-0.174533,-0.174533,-0.655869,-0.803034,-0.158167,-0.157346,0.137036,-0.320844,-0.245496,-0.257806
29,65,-0.654498,-0.814493,-0.174533,-0.174533,-0.655869,-0.803034,-0.158167,-0.157346,0.137036,-0.320844,-0.245496,-0.257806
29,65,-0.654498,-0.814493,-0.174533,-0.174533,-0.655869,-0.803034,-0.158167,-0.157346,0.137036,-0.320844,-0.245496,-0.257806
29,65,-0.654498,-0.814493,-0.174533,-0.174533,-0.655869,-0.803034,-0.158167,-0.157346,0.137036,-0.320844,-0.245496,-0.257806
29,65,-0.654498,-0.814493,-0.174533,-0.174533,-0.655869,-0.803034,-0.158167,-0.157346,0.137036,-0.320844,-0.245496,-0.257806
29,65,-0.654498,-0.814493,-0.174533,-0.174533,-0.655869,-0.803034,-0.158167,-0.157346,0.137036,-0.320844,-0.245496,-0.257806
29,65,-0.654498,-0.814493,-0.174533,-0.174533,-0.655869,-0.803034,-0.158167,-0.157346,0.137036,-0.320844,-0.245496,-0.257806
29,65,-0.654498,-0.814493,-0.174533,-0.174533,-0.655869,-0.803034,-0.158167,-0.157346,0.137036,-0.320844,-0.245496,-0.257806
29,65,-0.654498,-0.814493,-0.174533,-0.174533,-0.655869,-0.803034,-0.158167,-0.157346,0.137036,-0.320844,-0.245496,-0.257806
29,65,-0.654498,-0.814493,-0.174533,-0.174533,-0.655869,-0.803034,-0.158167,-0.157346,0.137036,-0.320844,-0.245496,-0.257806
29,65,-0.654498,-0.814493,-0.174533,-0.174533,-0.655869,-0.803034,-0.158167,-0.157346,0.137036,-0.320844,-0.245496,-0.257806
29,65,-0.654498,-0.814493,-0.174533,-0.174533,-0.655869,-0.803034,-0.158167,-0.157346,0.137036,-0.320844,-0.245496,-0.257806
29,65,-0.654498,-0.814493,-0.174533,-0.174533,-0.655869,-0.803034,-0.158167,-0.157346,0.137036,-0.320844,-0.245496,-0.257806
29,65,-0.654498,-0.814493,-0.174533,-0.174533,-0.655869,-0.803034,-0.158167,-0.157346,0.137036,-0.320844,-0.245496,-0.257806
29,65,-0.654498,-0.814493,-0.174533,-0.174533,-0.655869,-0.803034,-0.158167,-0.157346,0.137036,-0.320844,-0.245496,-0.257806
29,65,-0.654498,-0.814493,-0.174533,-0.174533,-0.655869,-0.803034,-0.158167,-0.157346,0.137036,-0.320844,-0.245496,-0.257806
29,65,-0.654498,-0.814493,-0.174533,-0.174533,-0.655869,-0.803034,-0.158167,-0.157346,0.137036,-0.320844,-0.245496,-0.257806
29,65,-0.654498,-0.814493,-0.174533,-0.174533,-0.655869,-0.803034,-0.158167,-0.157346,0.137036,-0.320844,-0.245496,-0.257806
29,65,-0.654498,-0.814493,-0.174533,-0.174533,-0.655869,-0.803034,-0.158167,-0.157346,0.137036,-0.320844,-0.245496,-0.257806
29,65,-0.654498,-0.814493,-0.174533,-0.174533,-0.655869,-0.803034,-0.158167,-0.157346,0.137036,-0.320844,-0.245496,-0.257806
29,65,-0.654498,-0.814493,-0.174533,-0.174533,-0.655869,-0.803034,-0.158167,-0.157346,0.137036,-0.320844,-0.245496,-0.257806
29,65,-0.654498,-0.814493,-0.174533,-0.174533,-0.655869,-0.803034,-0.158167,-0.157346,0.137036,-0.320844,-0.245496,-0.257806
29,65,-0.654498,-0.814493,-0.174533,-0.174533,-0.655869,-0.803034,-0.158167,-0.157346,0.137036,-0.320844,-0.245496,-0.257806
29,65,-0.654498,-0.814493,-0.174533,-0.174533,-0.655869,-0.803034,-0.158167,-0.157346,0.137036,-0.320844,-0.245496,-0.257806
29,65,-0.654498,-0.814493,-0.174533,-0.174533,-0.655869,-0.803034,-0.158167,-0.157346,0.137036,-0.320844,-0.245496,-0.257806
29,65,-0.654498,-0.814493,-0.174533,-0.174533,-0.655869,-0.803034,-0.158167,-0.157346,0.137036,-0.320844,-0.245496,-0.257806
29,65,-0.654498,-0.814493,-0.174533,-0.174533,-0.655869,-0.803034,-0.158167,-0.157346,0.137036,-0.320844,-0.245496,-0.257806
29,65,-0.654498,-0.814493,-0.174533,-0.174533,-0.655869,-0.803034,-0.158167,-0.157346,0.137036,-0.320844,-0.245496,-0.257806
29,65,-0.654498,-0.814493,-0.174533,-0.174533,-0.655869,-0.803034,-0.158167,-0.157346,0.137036,-0.320844,-0.245496,-0.257806
29,65,-0.654498,-0.814493,-0.174533,-0.174533,-0.655869,-0.803034,-0.158167,-0.157346,0.137036,-0.320844,-0.245496,-0.257806
29,65,-0.654498,-0.814493,-0.174533,-0.174533,-0.655869,-0.803034,-0.158167,-0.157346,0.137036,-0.320844,-0.245496,-0.257806
29,65,-0.654498,-0.814493,-0.174533,-0.174533,-0.655869,-0.803034,-0.158167,-0.157346,0.137036,-0.320844,-0.245496,-0.257806
29,65,-0.654498,-0.814493,-0.174533,-0.174533,-0.655869,-0.803034,-0.158167,-0.157346,0.137036,-0.320844,-0.245496,-0.257806
29,65,-0.654498,-0.814493,-0.174533,-0.174533,-0.655869,-0.803034,-0.158167,-0.157346,0.137036,-0.320844,-0.245496,-0.257806
29,65,-0.654498,-0.814493,-0.174533,-0.174533,-0.655869,-0.803034,-0.158167,-0.157346,0.137036,-0.320844,-0.245496,-0.257806
29,65,-0.654498,-0.814493,-0.174533,-0.174533,-0.655869,-0.803034,-0.158167,-0.157346,0.137036,-0.320844,-0.245496,-0.257806
29,65,-0.654498,-0.814493,-0.174533,-0.174533,-0.655869,-0.803034,-0.158167,-0.157346,0.137036,-0.320844,-0.245496,-0.257806
29,65,-0.654498,-0.814493,-0.174533,-0.174533,-0.655869,-0.803034,-0.158167,-0.157346,0.137036,-0.320844,-0.245496,-0.257806
29,65,-0.654498,-0.814493,-0.174533,-0.174533,-0.655869,-0.803034,-0.158167,-0.157346,0.137036,-0.320844,-0.245496,-0.257806
29,65,-0.654498,-0.814493,-0.174533,-0.174533,-0.655869,-0.803034,-0.158167,-0.157346,0.137036,-0.320844,-0.245496,-0.257806
29,65,-0.654498,-0.814493,-0.174533,-0.174533,-0.655869,-0.803034,-0.158167,-0.157346,0.137036,-0.320844,-0.245496,-0.257806
29,65,-0.654498,-0.814493,-0.174533,-0.174533,-0.655869,-0.803034,-0.158167,-0.157346,0.137036,-0.320844,-0.245496,-0.257806
29,65,-0.654498,-0.814493,-0.174533,-0.174533,-0.655869,-0.803034,-0.158167,-0.157346,0.137036,-0.320844,-0.245496,-0.257806
29,65,-0.654498,-0.814493,-0.174533,-0.174533,-0.655869,-0.803034,-0.158167,-0.157346,0.137036,-0.320844,-0.245496,-0.257806
29,65,-0.654498,-0.814493,-0.174533,-0.174533,-0.655869,-0.803034,-0.158167,-0.157346,0.137036,-0.320844,-0.245496,-0.257806
29,65,-0.654498,-0.814493,-0.174533,-0.174533,-0.655869,-0.803034,-0.158167,-0.157346,0.137036,-0.320844,-0.245496,-0.257806
29,65,-0.654498,-0.814493,-0.174533,-0.174533,-0.655869,-0.803034,-0.158167,-0.157346,0.137036,-0.320844,-0.245496,-0.257806
29,65,-0.654498,-0.814493,-0.174533,-0.174533,-0.655869,-0.803034,-0.158167,-0.157346,0.137036,-0.320844,-0.245496,-0.257806
29,65,-0.654498,-0.814493,-0.174533,-0.174533,-0.655869,-0.803034,-0.158167,-0.157346,0.137036,-0.320844,-0.245496,-0.257806
29,65,-0.654498,-0.814493,-0.174533,-0.174533,-0.655869,-0.803034,-0.158167,-0.157346,0.137036,-0.320844,-0.245496,-0.257806
29,65,-0.654498,-0.814493,-0.174533,-0.174533,-0.655869,-0.803034,-0.158167,-0.157346,0.137036,-0.320844,-0.245496,-0.257806
29,65,-0.654498,-0.814493,-0.174533,-0.174533,-0.655869,-0.803034,-0.158167,-0.157346,0.137036,-0.320844,-0.245496,-0.257806
29,65,-0.654498,-0.814493,-0.174533,-0.174533,-0.655869,-0.803034,-0.158167,-0.157346,0.137036,-0.320844,-0.245496,-0.257806
29,65,-0.654498,-0.814493,-0.174533,-0.174533,-0.655869,-0.803034,-0.158167,-0.157346,0.137036,-0.320844,-0.245496,-0.257806
29,65,-0.654498,-0.814493,-0.174533,-0.174533,-0.655869,-0.803034,-0.158167,-0.157346,0.137036,-0.320844,-0.245496,-0.257806
29,65,-0.654498,-0.814493,-0.174533,-0.174533,-0.655869,-0.803034,-0.158103,-0.157304,0.137036,-0.320844,-0.246445,-0.25843
29,65,-0.654498,-0.814493,-0.174533,-0.174533,-0.655869,-0.803034,-0.158103,-0.157304,0.137036,-0.320844,-0.246445,-0.25843
29,65,-0.654498,-0.814493,-0.174533,-0.174533,-0.655869,-0.803034,-0.158103,-0.157304,0.137036,-0.320844,-0.246445,-0.25843
29,65,-0.654498,-0.814493,-0.174533,-0.174533,-0.655869,-0.803034,-0.158103,-0.157304,0.137036,-0.320844,-0.246445,-0.25843
29,65,-0.654498,-0.814493,-0.174533,-0.174533,-0.655869,-0.803034,-0.158103,-0.157304,0.137036,-0.320844,-0.246445,-0.25843
29,65,-0.654498,-0.814493,-0.174533,-0.174533,-0.655869,-0.803034,-0.158103,-0.157304,0.137036,-0.320844,-0.246445,-0.25843
29,65,-0.654498,-0.814493,-0.174533,-0.174533,-0.655869,-0.803034,-0.158103,-0.157304,0.137036,-0.320844,-0.246445,-0.25843
29,65,-0.654498,-0.814493,-0.174533,-0.174533,-0.655869,-0.803034,-0.158103,-0.157304,0.137036,-0.320844,-0.246445,-0.25843
29,65,-0.654498,-0.814493,-0.174533,-0.174533,-0.655869,-0.803034,-0.158103,-0.157304,0.137036,-0.320844,-0.246445,-0.25843
29,65,-0.654498,-0.814493,-0.174533,-0.174533,-0.655869,-0.803034,-0.158103,-0.157304,0.137036,-0.320844,-0.246445,-0.25843
29,65,-0.654498,-0.814493,-0.174533,-0.174533,-0.655869,-0.803034,-0.158103,-0.157304,0.137036,-0.320844,-0.246445,-0.25843
29,65,-0.654498,-0.814493,-0.174533,-0.174533,-0.655869,-0.803034,-0.158103,-0.157304,0.137036,-0.320844,-0.246445,-0.25843
29,65,-0.654498,-0.814493,-0.174533,-0.174533,-0.655869,-0.803034,-0.158103,-0.157304,0.137036,-0.320844,-0.246445,-0.25843
29,65,-0.654498,-0.814493,-0.174533,-0.174533,-0.655869,-0.803034,-0.158103,-0.157304,0.137036,-0.320844,-0.246445,-0.25843
29,65,-0.654498,-0.814493,-0.174533,-0.174533,-0.655869,-0.803034,-0.158103,-0.157304,0.137036,-0.320844,-0.246445,-0.25843
29,65,-0.654498,-0.814493,-0.174533,-0.174533,-0.655869,-0.803034,-0.158103,-0.157304,0.137036,-0.320844,-0.246445,-0.25843
29,65,-0.654498,-0.814493,-0.174533,-0.174533,-0.655869,-0.803034,-0.158103,-0.157304,0.137036,-0.320844,-0.246445,-0.25843
29,65,-0.654498,-0.814493,-0.174533,-0.174533,-0.655869,-0.803034,-0.158103,-0.157304,0.137036,-0.320844,-0.246445,-0.25843
29,65,-0.654498,-0.814493,-0.174533,-0.174533,-0.655869,-0.803034,-0.158103,-0.157304,0.137036,-0.320844,-0.246445,-0.25843
29,65,-0.654498,-0.814493,-0.174533,-0.174533,-0.655869,-0.803034,-0.158103,-0.157304,0.137036,-0.320844,-0.246445,-0.25843
29,65,-0.654498,-0.814493,-0.174533,-0.174533,-0.655869,-0.803034,-0.158101,-0.157244,0.137036,-0.320844,-0.246474,-0.259327
29,65,-0.654498,-0.814493,-0.174533,-0.174533,-0.655869,-0.803034,-0.158101,-0.157244,0.137036,-0.320844,-0.246474,-0.259327
29,65,-0.654498,-0.814493,-0.174533,-0.174533,-0.655869,-0.803034,-0.158101,-0.157244,0.137036,-0.320844,-0.246474,-0.259327
29,65,-0.654498,-0.814493,-0.174533,-0.174533,-0.655869,-0.803034,-0.158101,-0.157244,0.137036,-0.320844,-0.246474,-0.259327
29,65,-0.654498,-0.814493,-0.174533,-0.174533,-0.655869,-0.803034,-0.158101,-0.157244,0.137036,-0.320844,-0.246474,-0.259327
29,65,-0.654498,-0.814493,-0.174533,-0.174533,-0.655869,-0.803034,-0.158101,-0.157244,0.137036,-0.320844,-0.246474,-0.259327
29,65,-0.654498,-0.814493,-0.174533,-0.174533,-0.655869,-0.803034,-0.158101,-0.157244,0.137036,-0.320844,-0.246474,-0.259327
29,65,-0.654498,-0.814493,-0.174533,-0.174533,-0.655869,-0.803034,-0.158101,-0.157244,0.137036,-0.320844,-0.246474,-0.259327
29,65,-0.654498,-0.814493,-0.174533,-0.174533,-0.655869,-0.803034,-0.158101,-0.157244,0.137036,-0.320844,-0.246474,-0.259327
29,65,-0.654498,-0.814493,-0.174533,-0.174533,-0.655869,-0.803034,-0.158101,-0.157244,0.137036,-0.320844,-0.246474,-0.259327
29,65,-0.654498,-0.814493,-0.174533,-0.174533,-0.655869,-0.803034,-0.158101,-0.157244,0.137036,-0.320844,-0.246474,-0.259327
29,65,-0.654498,-0.814493,-0.174533,-0.174533,-0.655869,-0.803034,-0.158101,-0.157244,0.137036,-0.320844,-0.246474,-0.259327
29,65,-0.654498,-0.814493,-0.174533,-0.174533,-0.655869,-0.803034,-0.158101,-0.157244,0.137036,-0.320844,-0.246474,-0.259327
29,65,-0.654498,-0.814493,-0.174533,-0.174533,-0.655869,-0.803034,-0.158101,-0.157244,0.137036,-0.320844,-0.246474,-0.259327
29,65,-0.654498,-0.814493,-0.174533,-0.174533,-0.655869,-0.803034,-0.158101,-0.157244,0.137036,-0.320844,-0.246474,-0.259327
29,65,-0.654498,-0.814493,-0.174533,-0.174533,-0.655869,-0.803034,-0.158101,-0.157244,0.137036,-0.320844,-0.246474,-0.259327
29,65,-0.654498,-0.814493,-0.174533,-0.174533,-0.655869,-0.803034,-0.158101,-0.157244,0.137036,-0.320844,-0.246474,-0.259327
29,65,-0.654498,-0.814493,-0.174533,-0.174533,-0.655869,-0.803034,-0.158101,-0.157244,0.137036,-0.320844,-0.246474,-0.259327
29,65,-0.654498,-0.814493,-0.174533,-0.174533,-0.655869,-0.803034,-0.158101,-0.157244,0.137036,-0.320844,-0.246474,-0.259327
29,65,-0.654498,-0.814493,-0.174533,-0.174533,-0.655869,-0.803034,-0.158101,-0.157244,0.137036,-0.320844,-0.246474,-0.259327
29,65,-0.654498,-0.814493,-0.174533,-0.174533,-0.655869,-0.803034,-0.158101,-0.157244,0.137036,-0.320844,-0.246474,-0.259327
29,65,-0.654498,-0.814493,-0.174533,-0.174533,-0.655869,-0.803034,-0.158101,-0.157244,0.137036,-0.320844,-0.246474,-0.259327
29,65,-0.654498,-0.814493,-0.174533,-0.174533,-0.655869,-0.803034,-0.158101,-0.157244,0.137036,-0.320844,-0.246474,-0.259327
29,65,-0.654498,-0.814493,-0.174533,-0.174533,-0.655869,-0.803034,-0.158101,-0.157244,0.137036,-0.320844,-0.246474,-0.259327
29,65,-0.654498,-0.814493,-0.174533,-0.174533,-0.655869,-0.803034,-0.158101,-0.157244,0.137036,-0.320844,-0.246474,-0.259327
29,65,-0.654498,-0.814493,-0.174533,-0.174533,-0.655869,-0.803034,-0.158101,-0.157244,0.137036,-0.320844,-0.246474,-0.259327
29,65,-0.654498,-0.814493,-0.174533,-0.174533,-0.655869,-0.803034,-0.158101,-0.157244,0.137036,-0.320844,-0.246474,-0.259327
29,65,-0.654498,-0.814493,-0.174533,-0.174533,-0.655869,-0.803034,-0.158101,-0.157244,0.137036,-0.320844,-0.246474,-0.259327
29,65,-0.654498,-0.814493,-0.174533,-0.174533,-0.655869,-0.803034,-0.158101,-0.157244,0.137036,-0.320844,-0.246474,-0.259327
29,65,-0.654498,-0.814493,-0.174533,-0.174533,-0.655869,-0.803034,-0.158101,-0.157244,0.137036,-0.320844,-0.246474,-0.259327
29,65,-0.654498,-0.814493,-0.174533,-0.174533,-0.655869,-0.803034,-0.158101,-0.157244,0.137036,-0.320844,-0.246474,-0.259327
29,65,-0.654498,-0.814493,-0.174533,-0.174533,-0.655869,-0.803034,-0.158101,-0.157244,0.137036,-0.320844,-0.246474,-0.259327
29,65,-0.654498,-0.814493,-0.174533,-0.174533,-0.655869,-0.803034,-0.158101,-0.157244,0.137036,-0.320844,-0.246474,-0.259327
29,65,-0.654498,-0.814493,-0.174533,-0.174533,-0.655869,-0.803034,-0.158101,-0.157244,0.137036,-0.320844,-0.246474,-0.259327
29,65,-0.654498,-0.814493,-0.174533,-0.174533,-0.655869,-0.803034,-0.158101,-0.157244,0.137036,-0.320844,-0.246474,-0.259327
29,65,-0.654498,-0.814493,-0.174533,-0.174533,-0.655869,-0.803034,-0.158101,-0.157244,0.137036,-0.320844,-0.246474,-0.259327
29,65,-0.654498,-0.814493,-0.174533,-0.174533,-0.655869,-0.803034,-0.158101,-0.157244,0.137036,-0.320844,-0.246474,-0.259327
29,65,-0.654498,-0.814493,-0.174533,-0.174533,-0.655869,-0.803034,-0.158101,-0.157244,0.137036,-0.320844,-0.246474,-0.259327
29,65,-0.654498,-0.814493,-0.174533,-0.174533,-0.655869,-0.803034,-0.158101,-0.157244,0.137036,-0.320844,-0.246474,-0.259327
29,65,-0.654498,-0.814493,-0.174533,-0.174533,-0.655869,-0.803034,-0.158101,-0.157244,0.137036,-0.320844,-0.246474,-0.259327
29,65,-0.654498,-0.814493,-0.174533,-0.174533,-0.655869,-0.803034,-0.158101,-0.157244,0.137036,-0.320844,-0.246474,-0.259327
29,65,-0.654498,-0.814493,-0.174533,-0.174533,-0.655869,-0.803034,-0.158101,-0.157244,0.137036,-0.320844,-0.246474,-0.259327
29,65,-0.654498,-0.814493,-0.174533,-0.174533,-0.655869,-0.803034,-0.158101,-0.157244,0.137036,-0.320844,-0.246474,-0.259327
29,65,-0.654498,-0.814493,-0.174533,-0.174533,-0.655869,-0.803034,-0.158101,-0.157244,0.137036,-0.320844,-0.246474,-0.259327
29,65,-0.654498,-0.814493,-0.174533,-0.174533,-0.655869,-0.803034,-0.158101,-0.157244,0.137036,-0.320844,-0.246474,-0.259327
29,65,-0.654498,-0.814493,-0.174533,-0.174533,-0.655869,-0.803034,-0.158101,-0.157244,0.137036,-0.320844,-0.246474,-0.259327
29,65,-0.654498,-0.814493,-0.174533,-0.174533,-0.655869,-0.803034,-0.158101,-0.157244,0.137036,-0.320844,-0.246474,-0.259327
29,65,-0.654498,-0.814493,-0.174533,-0.174533,-0.655869,-0.803034,-0.158101,-0.157244,0.137036,-0.320844,-0.246474,-0.259327
29,65,-0.654498,-0.814493,-0.174533,-0.174533,-0.655869,-0.803034,-0.158101,-0.157244,0.137036,-0.320844,-0.246474,-0.259327
29,65,-0.654498,-0.814493,-0.174533,-0.174533,-0.655869,-0.803034,-0.158101,-0.157244,0.137036,-0.320844,-0.246474,-0.259327
29,65,-0.654498,-0.814493,-0.174533,-0.174533,-0.655869,-0.803034,-0.158101,-0.157244,0.137036,-0.320844,-0.246474,-0.259327
29,65,-0.654498,-0.814493,-0.174533,-0.174533,-0.655869,-0.803034,-0.158101,-0.157244,0.137036,-0.320844,-0.246474,-0.259327
29,65,-0.654498,-0.814493,-0.174533,-0.174533,-0.655869,-0.803034,-0.158101,-0.157244,0.137036,-0.320844,-0.246474,-0.259327
29,65,-0.654498,-0.814493,-0.174533,-0.174533,-0.655869,-0.803034,-0.158101,-0.157244,0.137036,-0.320844,-0.246474,-0.259327
29,65,-0.654498,-0.814493,-0.174533,-0.174533,-0.655869,-0.803034,-0.158101,-0.157244,0.137036,-0.320844,-0.246474,-0.259327
29,65,-0.654498,-0.814493,-0.174533,-0.174533,-0.655869,-0.803034,-0.158101,-0.157244,0.137036,-0.320844,-0.246474,-0.259327
29,65,-0.654498,-0.814493,-0.174533,-0.174533,-0.655869,-0.803034,-0.158101,-0.157244,0.137036,-0.320844,-0.246474,-0.259327
29,65,-0.654498,-0.814493,-0.174533,-0.174533,-0.655869,-0.803034,-0.158101,-0.157244,0.137036,-0.320844,-0.246474,-0.259327
29,65,-0.654498,-0.814493,-0.174533,-0.174533,-0.655869,-0.803034,-0.158101,-0.157244,0.137036,-0.320844,-0.246474,-0.259327
29,65,-0.654498,-0.814493,-0.174533,-0.174533,-0.655869,-0.803034,-0.158101,-0.157244,0.137036,-0.320844,-0.246474,-0.259327
29,65,-0.654498,-0.814493,-0.174533,-0.174533,-0.655869,-0.803034,-0.158101,-0.157244,0.137036,-0.320844,-0.246474,-0.259327
29,65,-0.654498,-0.814493,-0.174533,-0.174533,-0.655869,-0.803034,-0.158101,-0.157244,0.137036,-0.320844,-0.246474,-0.259327
29,65,-0.654498,-0.814493,-0.174533,-0.174533,-0.655869,-0.803034,-0.158101,-0.157244,0.137036,-0.320844,-0.246474,-0.259327
29,65,-0.654498,-0.814493,-0.174533,-0.174533,-0.655869,-0.803034,-0.158101,-0.157244,0.137036,-0.320844,-0.246474,-0.259327
29,65,-0.654498,-0.814493,-0.174533,-0.174533,-0.655869,-0.803034,-0.158101,-0.157244,0.137036,-0.320844,-0.246474,-0.259327
29,65,-0.654498,-0.814493,-0.174533,-0.174533,-0.655869,-0.803034,-0.158101,-0.157244,0.137036,-0.320844,-0.246474,-0.259327
29,65,-0.654498,-0.814493,-0.174533,-0.174533,-0.655869,-0.803034,-0.158101,-0.157244,0.137036,-0.320844,-0.246474,-0.259327
29,65,-0.654498,-0.814493,-0.174533,-0.174533,-0.655869,-0.803034,-0.158101,-0.157244,0.137036,-0.320844,-0.246474,-0.259327
29,65,-0.654498,-0.814493,-0.174533,-0.174533,-0.655869,-0.803034,-0.158101,-0.157244,0.137036,-0.320844,-0.246474,-0.259327
29,65,-0.654498,-0.814493,-0.174533,-0.174533,-0.655869,-0.803034,-0.158101,-0.157244,0.137036,-0.320844,-0.246474,-0.259327
29,65,-0.654498,-0.814493,-0.174533,-0.174533,-0.655869,-0.803034,-0.158101,-0.157244,0.137036,-0.320844,-0.246474,-0.259327
29,65,-0.654498,-0.814493,-0.174533,-0.174533,-0.655869,-0.803034,-0.158101,-0.157244,0.137036,-0.320844,-0.246474,-0.259327
29,65,-0.654498,-0.814493,-0.174533,-0.174533,-0.655869,-0.803034,-0.158101,-0.157244,0.137036,-0.320844,-0.246474,-0.259327
29,65,-0.654498,-0.814493,-0.174533,-0.174533,-0.655869,-0.803034,-0.158101,-0.157244,0.137036,-0.320844,-0.246474,-0.259327
29,65,-0.654498,-0.814493,-0.174533,-0.174533,-0.655869,-0.803034,-0.158101,-0.157244,0.137036,-0.320844,-0.246474,-0.259327
29,65,-0.654498,-0.814493,-0.174533,-0.174533,-0.655869,-0.803034,-0.158101,-0.157244,0.137036,-0.320844,-0.246474,-0.259327
29,65,-0.654498,-0.814493,-0.174533,-0.174533,-0.655869,-0.803034,-0.158101,-0.157244,0.137036,-0.320844,-0.246474,-0.259327
29,65,-0.654498,-0.814493,-0.174533,-0.174533,-0.655869,-0.803034,-0.158101,-0.157244,0.137036,-0.320844,-0.246474,-0.259327
29,65,-0.654498,-0.814493,-0.174533,-0.174533,-0.655869,-0.803034,-0.158101,-0.157244,0.137036,-0.320844,-0.246474,-0.259327
29,65,-0.654498,-0.814493,-0.174533,-0.174533,-0.655869,-0.803034,-0.158101,-0.157244,0.137036,-0.320844,-0.246474,-0.259327
29,65,-0.654498,-0.814493,-0.174533,-0.174533,-0.655869,-0.803034,-0.158101,-0.157244,0.137036,-0.320844,-0.246474,-0.259327
29,65,-0.654498,-0.814493,-0.174533,-0.174533,-0.655869,-0.803034,-0.158101,-0.157244,0.137036,-0.320844,-0.246474,-0.259327
29,65,-0.654498,-0.814493,-0.174533,-0.174533,-0.655869,-0.803034,-0.158101,-0.157244,0.137036,-0.320844,-0.246474,-0.259327
29,65,-0.654498,-0.814493,-0.174533,-0.174533,-0.655869,-0.803034,-0.158101,-0.157244,0.137036,-0.320844,-0.246474,-0.259327
29,65,-0.654498,-0.814493,-0.174533,-0.174533,-0.655869,-0.803034,-0.158101,-0.157244,0.137036,-0.320844,-0.246474,-0.259327
29,65,-0.654498,-0.814493,-0.174533,-0.174533,-0.655869,-0.803034,-0.158101,-0.157244,0.137036,-0.320844,-0.246474,-0.259327
29,65,-0.654498,-0.814493,-0.174533,-0.174533,-0.655869,-0.803034,-0.158101,-0.157244,0.137036,-0.320844,-0.246474,-0.259327
29,65,-0.654498,-0.814493,-0.174533,-0.174533,-0.655869,-0.803034,-0.158101,-0.157244,0.137036,-0.320844,-0.246474,-0.259327
29,65,-0.654498,-0.814493,-0.174533,-0.174533,-0.655869,-0.803034,-0.158101,-0.157244,0.137036,-0.320844,-0.246474,-0.259327
29,65,-0.654498,-0.814493,-0.174533,-0.174533,-0.655869,-0.803034,-0.158101,-0.157244,0.137036,-0.320844,-0.246474,-0.259327
29,65,-0.654498,-0.814493,-0.174533,-0.174533,-0.655869,-0.803034,-0.158101,-0.157244,0.137036,-0.320844,-0.246474,-0.259327
29,65,-0.654498,-0.814493,-0.174533,-0.174533,-0.655869,-0.803034,-0.158101,-0.157244,0.137036,-0.320844,-0.246474,-0.259327
29,65,-0.654498,-0.814493,-0.174533,-0.174533,-0.655869,-0.803034,-0.158101,-0.157244,0.137036,-0.320844,-0.246474,-0.259327
29,65,-0.654498,-0.814493,-0.174533,-0.174533,-0.655869,-0.803034,-0.158101,-0.157244,0.137036,-0.320844,-0.246474,-0.259327
29,65,-0.654498,-0.814493,-0.174533,-0.174533,-0.655869,-0.803034,-0.158101,-0.157244,0.137036,-0.320844,-0.246474,-0.259327
29,65,-0.654498,-0.814493,-0.174533,-0.174533,-0.655869,-0.803034,-0.158101,-0.157244,0.137036,-0.320844,-0.246474,-0.259327
29,65,-0.654498,-0.814493,-0.174533,-0.174533,-0.655869,-0.803034,-0.158101,-0.157244,0.137036,-0.320844,-0.246474,-0.259327
29,65,-0.654498,-0.814493,-0.174533,-0.174533,-0.655869,-0.803034,-0.158101,-0.157244,0.137036,-0.320844,-0.246474,-0.259327
29,65,-0.654498,-0.814493,-0.174533,-0.174533,-0.655869,-0.803034,-0.158101,-0.157244,0.137036,-0.320844,-0.246474,-0.259327
29,65,-0.654498,-0.814493,-0.174533,-0.174533,-0.655869,-0.803034,-0.158101,-0.157244,0.137036,-0.320844,-0.246474,-0.259327
29,65,-0.654498,-0.814493,-0.174533,-0.174533,-0.655869,-0.803034,-0.158101,-0.157244,0.137036,-0.320844,-0.246474,-0.259327
29,65,-0.654498,-0.814493,-0.174533,-0.174533,-0.655869,-0.803034,-0.158101,-0.157244,0.137036,-0.320844,-0.246474,-0.259327
29,65,-0.654498,-0.814493,-0.174533,-0.174533,-0.655869,-0.803034,-0.158101,-0.157244,0.137036,-0.320844,-0.246474,-0.259327
29,65,-0.654498,-0.814493,-0.174533,-0.174533,-0.655869,-0.803034,-0.158101,-0.157244,0.137036,-0.320844,-0.246474,-0.259327
29,65,-0.654498,-0.814493,-0.174533,-0.174533,-0.655869,-0.803034,-0.158101,-0.157244,0.137036,-0.320844,-0.246474,-0.259327
29,65,-0.654498,-0.814493,-0.174533,-0.174533,-0.655869,-0.803034,-0.158101,-0.157244,0.137036,-0.320844,-0.246474,-0.259327
29,65,-0.654498,-0.814493,-0.174533,-0.174533,-0.655869,-0.803034,-0.158101,-0.157244,0.137036,-0.320844,-0.246474,-0.259327
29,65,-0.654498,-0.814493,-0.174533,-0.174533,-0.655869,-0.803034,-0.158101,-0.157244,0.137036,-0.320844,-0.246474,-0.259327
29,65,-0.654498,-0.814493,-0.174533,-0.174533,-0.655869,-0.803034,-0.158101,-0.157244,0.137036,-0.320844,-0.246474,-0.259327
29,65,-0.654498,-0.814493,-0.174533,-0.174533,-0.655869,-0.803034,-0.158101,-0.157244,0.137036,-0.320844,-0.246474,-0.259327
29,65,-0.654498,-0.814493,-0.174533,-0.174533,-0.655869,-0.803034,-0.158101,-0.157244,0.137036,-0.320844,-0.246474,-0.259327
29,65,-0.654498,-0.814493,-0.174533,-0.174533,-0.655869,-0.803034,-0.158101,-0.157244,0.137036,-0.320844,-0.246474,-0.259327
29,65,-0.654498,-0.814493,-0.174533,-0.174533,-0.655869,-0.803034,-0.158101,-0.157244,0.137036,-0.320844,-0.246474,-0.259327
29,65,-0.654498,-0.814493,-0.174533,-0.174533,-0.655869,-0.803034,-0.158101,-0.157244,0.137036,-0.320844,-0.246474,-0.259327
29,65,-0.654498,-0.814493,-0.174533,-0.174533,-0.655869,-0.803034,-0.158101,-0.157244,0.137036,-0.320844,-0.246474,-0.259327
29,65,-0.654498,-0.814493,-0.174533,-0.174533,-0.655869,-0.803034,-0.158038,-0.157203,0.137036,-0.320844,-0.247423,-0.259951
29,65,-0.654498,-0.814493,-0.174533,-0.174533,-0.655869,-0.803034,-0.158038,-0.157203,0.137036,-0.320844,-0.247423,-0.259951
29,65,-0.654498,-0.814493,-0.174533,-0.174533,-0.655869,-0.803034,-0.158038,-0.157203,0.137036,-0.320844,-0.247423,-0.259951
29,65,-0.654498,-0.814493,-0.174533,-0.174533,-0.655869,-0.803034,-0.158038,-0.157203,0.137036,-0.320844,-0.247423,-0.259951
29,65,-0.654498,-0.814493,-0.174533,-0.174533,-0.655869,-0.803034,-0.158038,-0.157203,0.137036,-0.320844,-0.247423,-0.259951
29,65,-0.654498,-0.814493,-0.174533,-0.174533,-0.655869,-0.803034,-0.158038,-0.157203,0.137036,-0.320844,-0.247423,-0.259951
29,65,-0.654498,-0.814493,-0.174533,-0.174533,-0.655869,-0.803034,-0.158038,-0.157203,0.137036,-0.320844,-0.247423,-0.259951
29,65,-0.654498,-0.814493,-0.174533,-0.174533,-0.655869,-0.803034,-0.158038,-0.157203,0.137036,-0.320844,-0.247423,-0.259951
29,65,-0.654498,-0.814493,-0.174533,-0.174533,-0.655869,-0.803034,-0.158038,-0.157203,0.137036,-0.320844,-0.247423,-0.259951
29,65,-0.654498,-0.814493,-0.174533,-0.174533,-0.655869,-0.803034,-0.158038,-0.157203,0.137036,-0.320844,-0.247423,-0.259951
29,65,-0.654498,-0.814493,-0.174533,-0.174533,-0.655869,-0.803034,-0.158038,-0.157203,0.137036,-0.320844,-0.247423,-0.259951
29,65,-0.654498,-0.814493,-0.174533,-0.174533,-0.655869,-0.803034,-0.158038,-0.157203,0.137036,-0.320844,-0.247423,-0.259951
29,65,-0.654498,-0.814493,-0.174533,-0.174533,-0.655869,-0.803034,-0.158038,-0.157203,0.137036,-0.320844,-0.247423,-0.259951
29,65,-0.654498,-0.814493,-0.174533,-0.174533,-0.655869,-0.803034,-0.158038,-0.157203,0.137036,-0.320844,-0.247423,-0.259951
29,65,-0.654498,-0.814493,-0.174533,-0.174533,-0.655869,-0.803034,-0.158038,-0.157203,0.137036,-0.320844,-0.247423,-0.259951
29,65,-0.654498,-0.814493,-0.174533,-0.174533,-0.655869,-0.803034,-0.158038,-0.157203,0.137036,-0.320844,-0.247423,-0.259951
29,65,-0.654498,-0.814493,-0.174533,-0.174533,-0.655869,-0.803034,-0.158038,-0.157203,0.137036,-0.320844,-0.247423,-0.259951
29,65,-0.654498,-0.814493,-0.174533,-0.174533,-0.655869,-0.803034,-0.158038,-0.157203,0.137036,-0.320844,-0.247423,-0.259951
29,65,-0.654498,-0.814493,-0.174533,-0.174533,-0.655869,-0.803034,-0.158038,-0.157203,0.137036,-0.320844,-0.247423,-0.259951
29,65,-0.654498,-0.814493,-0.174533,-0.174533,-0.655869,-0.803034,-0.158038,-0.157203,0.137036,-0.320844,-0.247423,-0.259951
29,65,-0.654498,-0.814493,-0.174533,-0.174533,-0.655869,-0.803034,-0.158038,-0.157203,0.137036,-0.320844,-0.247423,-0.259951
29,65,-0.654498,-0.814493,-0.174533,-0.174533,-0.655869,-0.803034,-0.158038,-0.157203,0.137036,-0.320844,-0.247423,-0.259951
29,65,-0.654498,-0.814493,-0.174533,-0.174533,-0.655869,-0.803034,-0.158038,-0.157203,0.137036,-0.320844,-0.247423,-0.259951
29,65,-0.654498,-0.814493,-0.174533,-0.174533,-0.655869,-0.803034,-0.158038,-0.157203,0.137036,-0.320844,-0.247423,-0.259951
29,65,-0.654498,-0.814493,-0.174533,-0.174533,-0.655869,-0.803034,-0.158038,-0.157203,0.137036,-0.320844,-0.247423,-0.259951
29,65,-0.654498,-0.814493,-0.174533,-0.174533,-0.655869,-0.803034,-0.158038,-0.157203,0.137036,-0.320844,-0.247423,-0.259951
29,65,-0.654498,-0.814493,-0.174533,-0.174533,-0.655869,-0.803034,-0.158038,-0.157203,0.137036,-0.320844,-0.247423,-0.259951
29,65,-0.654498,-0.814493,-0.174533,-0.174533,-0.655869,-0.803034,-0.158038,-0.157203,0.137036,-0.320844,-0.247423,-0.259951
29,65,-0.654498,-0.814493,-0.174533,-0.174533,-0.655869,-0.803034,-0.158038,-0.157203,0.137036,-0.320844,-0.247423,-0.259951
29,65,-0.654498,-0.814493,-0.174533,-0.174533,-0.655869,-0.803034,-0.158038,-0.157203,0.137036,-0.320844,-0.247423,-0.259951
29,65,-0.654498,-0.814493,-0.174533,-0.174533,-0.655869,-0.803034,-0.158038,-0.157203,0.137036,-0.320844,-0.247423,-0.259951
29,65,-0.654498,-0.814493,-0.174533,-0.174533,-0.655869,-0.803034,-0.158038,-0.157203,0.137036,-0.320844,-0.247423,-0.259951
29,65,-0.654498,-0.814493,-0.174533,-0.174533,-0.655869,-0.803034,-0.158038,-0.157203,0.137036,-0.320844,-0.247423,-0.259951
29,65,-0.654498,-0.814493,-0.174533,-0.174533,-0.655869,-0.803034,-0.158038,-0.157203,0.137036,-0.320844,-0.247423,-0.259951
29,65,-0.654498,-0.814493,-0.174533,-0.174533,-0.655797,-0.803034,-0.158038,-0.157203,0.129877,-0.320844,-0.247423,-0.259951
29,65,-0.654498,-0.814493,-0.174533,-0.174533,-0.655797,-0.803034,-0.158038,-0.157203,0.129877,-0.320844,-0.247423,-0.259951
29,65,-0.654498,-0.814493,-0.174533,-0.174533,-0.655797,-0.803034,-0.158038,-0.157203,0.129877,-0.320844,-0.247423,-0.259951
29,65,-0.654498,-0.814493,-0.174533,-0.174533,-0.655797,-0.803034,-0.158038,-0.157203,0.129877,-0.320844,-0.247423,-0.259951
29,65,-0.654498,-0.814493,-0.174533,-0.174533,-0.655797,-0.803034,-0.158038,-0.157203,0.129877,-0.320844,-0.247423,-0.259951
29,65,-0.654498,-0.814493,-0.174533,-0.174533,-0.655797,-0.803034,-0.158038,-0.157203,0.129877,-0.320844,-0.247423,-0.259951
29,65,-0.654498,-0.814493,-0.174533,-0.174533,-0.655797,-0.803034,-0.157975,-0.157161,0.129877,-0.320844,-0.248372,-0.260574
29,65,-0.654498,-0.814493,-0.174533,-0.174533,-0.655797,-0.803034,-0.157975,-0.157161,0.129877,-0.320844,-0.248372,-0.260574
29,65,-0.654498,-0.814493,-0.174533,-0.174533,-0.655797,-0.803034,-0.157975,-0.157161,0.129877,-0.320844,-0.248372,-0.260574
29,65,-0.654498,-0.814493,-0.174533,-0.174533,-0.655797,-0.803034,-0.157975,-0.157161,0.129877,-0.320844,-0.248372,-0.260574
29,65,-0.654498,-0.814493,-0.174533,-0.174533,-0.655797,-0.803034,-0.157975,-0.157161,0.129877,-0.320844,-0.248372,-0.260574
29,65,-0.654498,-0.814493,-0.174533,-0.174533,-0.655797,-0.803034,-0.157975,-0.157161,0.129877,-0.320844,-0.248372,-0.260574
29,65,-0.654498,-0.814493,-0.174533,-0.174533,-0.655797,-0.803034,-0.157975,-0.157161,0.129877,-0.320844,-0.248372,-0.260574
29,65,-0.654498,-0.814493,-0.174533,-0.174533,-0.655797,-0.803034,-0.157975,-0.157161,0.129877,-0.320844,-0.248372,-0.260574
29,65,-0.654498,-0.814493,-0.174533,-0.174533,-0.655797,-0.803034,-0.157975,-0.157161,0.129877,-0.320844,-0.248372,-0.260574
29,65,-0.654498,-0.814493,-0.174533,-0.174533,-0.655797,-0.803034,-0.157975,-0.157161,0.129877,-0.320844,-0.248372,-0.260574
29,65,-0.654498,-0.814493,-0.174533,-0.174533,-0.655797,-0.803034,-0.157975,-0.157161,0.129877,-0.320844,-0.248372,-0.260574
29,65,-0.654498,-0.814493,-0.174533,-0.174533,-0.655797,-0.803034,-0.157975,-0.157161,0.129877,-0.320844,-0.248372,-0.260574
29,65,-0.654498,-0.814493,-0.174533,-0.174533,-0.655797,-0.803034,-0.157975,-0.157161,0.129877,-0.320844,-0.248372,-0.260574
29,65,-0.654498,-0.814493,-0.174533,-0.174533,-0.655797,-0.803034,-0.157975,-0.157161,0.129877,-0.320844,-0.248372,-0.260574
29,65,-0.654498,-0.814493,-0.174533,-0.174533,-0.655797,-0.803034,-0.157975,-0.157161,0.129877,-0.320844,-0.248372,-0.260574
29,65,-0.654498,-0.814493,-0.174533,-0.174533,-0.655797,-0.803034,-0.157975,-0.157161,0.129877,-0.320844,-0.248372,-0.260574
29,65,-0.654498,-0.814493,-0.174533,-0.174533,-0.655797,-0.803034,-0.157975,-0.157161,0.129877,-0.320844,-0.248372,-0.260574
29,65,-0.654498,-0.814493,-0.174533,-0.174533,-0.655797,-0.803034,-0.157975,-0.157161,0.129877,-0.320844,-0.248372,-0.260574
29,65,-0.654498,-0.814493,-0.174533,-0.174533,-0.655797,-0.803034,-0.157975,-0.157161,0.129877,-0.320844,-0.248372,-0.260574
29,65,-0.654498,-0.814493,-0.174533,-0.174533,-0.655797,-0.803034,-0.157975,-0.157161,0.129877,-0.320844,-0.248372,-0.260574
29,65,-0.654498,-0.814493,-0.174533,-0.174533,-0.655797,-0.803034,-0.157975,-0.157161,0.129877,-0.320844,-0.248372,-0.260574
29,65,-0.654498,-0.814493,-0.174533,-0.174533,-0.655726,-0.803034,-0.157975,-0.157161,0.122718,-0.320844,-0.248372,-0.260574
29,65,-0.654498,-0.814493,-0.174533,-0.174533,-0.655726,-0.803034,-0.157975,-0.157161,0.122718,-0.320844,-0.248372,-0.260574
29,65,-0.654498,-0.814493,-0.174533,-0.174533,-0.655726,-0.803034,-0.157975,-0.157161,0.122718,-0.320844,-0.248372,-0.260574
29,65,-0.654498,-0.814493,-0.174533,-0.174533,-0.655726,-0.803034,-0.157975,-0.157161,0.122718,-0.320844,-0.248372,-0.260574
29,65,-0.654498,-0.814493,-0.174533,-0.174533,-0.655726,-0.803034,-0.157975,-0.157161,0.122718,-0.320844,-0.248372,-0.260574
29,65,-0.654498,-0.814493,-0.174533,-0.174533,-0.655726,-0.803034,-0.157975,-0.157161,0.122718,-0.320844,-0.248372,-0.260574
29,65,-0.654498,-0.814493,-0.174533,-0.174533,-0.655726,-0.803034,-0.157912,-0.15712,0.122718,-0.320844,-0.249321,-0.261197
29,65,-0.654498,-0.814493,-0.174533,-0.174533,-0.655726,-0.803034,-0.157912,-0.15712,0.122718,-0.320844,-0.249321,-0.261197
29,65,-0.654498,-0.814493,-0.174533,-0.174533,-0.655726,-0.803034,-0.157912,-0.15712,0.122718,-0.320844,-0.249321,-0.261197
29,65,-0.654498,-0.814493,-0.174533,-0.174533,-0.655726,-0.803034,-0.157912,-0.15712,0.122718,-0.320844,-0.249321,-0.261197
29,65,-0.654498,-0.814493,-0.174533,-0.174533,-0.655726,-0.803034,-0.157912,-0.15712,0.122718,-0.320844,-0.249321,-0.261197
29,65,-0.654498,-0.814493,-0.174533,-0.174533,-0.655726,-0.803034,-0.157912,-0.15712,0.122718,-0.320844,-0.249321,-0.261197
29,65,-0.654498,-0.814493,-0.174533,-0.174533,-0.655726,-0.803034,-0.157912,-0.15712,0.122718,-0.320844,-0.249321,-0.261197
29,65,-0.654498,-0.814493,-0.174533,-0.174533,-0.655726,-0.803034,-0.157912,-0.15712,0.122718,-0.320844,-0.249321,-0.261197
29,65,-0.654498,-0.814493,-0.174533,-0.174533,-0.655726,-0.803034,-0.157912,-0.15712,0.122718,-0.320844,-0.249321,-0.261197
29,65,-0.654498,-0.814493,-0.174533,-0.174533,-0.655726,-0.803034,-0.157912,-0.15712,0.122718,-0.320844,-0.249321,-0.261197
29,65,-0.654498,-0.814493,-0.174533,-0.174533,-0.655726,-0.803034,-0.157912,-0.15712,0.122718,-0.320844,-0.249321,-0.261197
29,65,-0.654498,-0.814493,-0.174533,-0.174533,-0.655726,-0.803034,-0.157912,-0.15712,0.122718,-0.320844,-0.249321,-0.261197
29,65,-0.654498,-0.814493,-0.174533,-0.174533,-0.655726,-0.803034,-0.157912,-0.15712,0.122718,-0.320844,-0.249321,-0.261197
29,65,-0.654498,-0.814493,-0.174533,-0.174533,-0.655726,-0.803034,-0.157912,-0.15712,0.122718,-0.320844,-0.249321,-0.261197
29,65,-0.654498,-0.814493,-0.174533,-0.174533,-0.655726,-0.803034,-0.157912,-0.15712,0.122718,-0.320844,-0.249321,-0.261197
29,65,-0.654498,-0.814493,-0.174533,-0.174533,-0.655726,-0.803034,-0.157848,-0.157078,0.122718,-0.320844,-0.250269,-0.26182
29,65,-0.654498,-0.814493,-0.174533,-0.174533,-0.655726,-0.803034,-0.157848,-0.157078,0.122718,-0.320844,-0.250269,-0.26182
29,65,-0.654498,-0.814493,-0.174533,-0.174533,-0.655726,-0.803034,-0.157848,-0.157078,0.122718,-0.320844,-0.250269,-0.26182
29,65,-0.654498,-0.814493,-0.174533,-0.174533,-0.655726,-0.803034,-0.157848,-0.157078,0.122718,-0.320844,-0.250269,-0.26182
29,65,-0.654498,-0.814493,-0.174533,-0.174533,-0.655726,-0.803034,-0.157848,-0.157078,0.122718,-0.320844,-0.250269,-0.26182
29,65,-0.654498,-0.814493,-0.174533,-0.174533,-0.655726,-0.803034,-0.157848,-0.157078,0.122718,-0.320844,-0.250269,-0.26182
29,65,-0.654498,-0.814493,-0.174533,-0.174533,-0.655726,-0.803034,-0.157848,-0.157078,0.122718,-0.320844,-0.250269,-0.26182
29,65,-0.654498,-0.814493,-0.174533,-0.174533,-0.655726,-0.803034,-0.157848,-0.157078,0.122718,-0.320844,-0.250269,-0.26182
29,65,-0.654498,-0.814493,-0.174533,-0.174533,-0.655726,-0.803034,-0.157848,-0.157078,0.122718,-0.320844,-0.250269,-0.26182
29,65,-0.654498,-0.814493,-0.174533,-0.174533,-0.655726,-0.803034,-0.157848,-0.157078,0.122718,-0.320844,-0.250269,-0.26182
29,65,-0.654498,-0.814493,-0.174533,-0.174533,-0.655726,-0.803034,-0.157848,-0.157078,0.122718,-0.320844,-0.250269,-0.26182
29,65,-0.654498,-0.814493,-0.174533,-0.174533,-0.655726,-0.803034,-0.157785,-0.157037,0.122718,-0.320844,-0.251218,-0.262444
29,65,-0.654498,-0.814493,-0.174533,-0.174533,-0.655726,-0.803034,-0.157785,-0.157037,0.122718,-0.320844,-0.251218,-0.262444
29,65,-0.654498,-0.814493,-0.174533,-0.174533,-0.655726,-0.803034,-0.157785,-0.157037,0.122718,-0.320844,-0.251218,-0.262444
29,65,-0.654498,-0.814493,-0.174533,-0.174533,-0.655654,-0.803034,-0.157785,-0.157037,0.11556,-0.320844,-0.251218,-0.262444
29,65,-0.654498,-0.814493,-0.174533,-0.174533,-0.655654,-0.803034,-0.157785,-0.157037,0.11556,-0.320844,-0.251218,-0.262444
29,65,-0.654498,-0.814493,-0.174533,-0.174533,-0.655654,-0.803034,-0.157785,-0.157037,0.11556,-0.320844,-0.251218,-0.262444
29,65,-0.654498,-0.814493,-0.174533,-0.174533,-0.655654,-0.803034,-0.157785,-0.157037,0.11556,-0.320844,-0.251218,-0.262444
29,65,-0.654498,-0.814493,-0.174533,-0.174533,-0.655654,-0.803034,-0.157785,-0.157037,0.11556,-0.320844,-0.251218,-0.262444
29,65,-0.654498,-0.814493,-0.174533,-0.174533,-0.655654,-0.803034,-0.157785,-0.157037,0.11556,-0.320844,-0.251218,-0.262444
29,65,-0.654498,-0.814493,-0.174533,-0.174533,-0.655654,-0.803034,-0.157785,-0.157037,0.11556,-0.320844,-0.251218,-0.262444
29,65,-0.654498,-0.814493,-0.174533,-0.174533,-0.655654,-0.803034,-0.157785,-0.157037,0.11556,-0.320844,-0.251218,-0.262444
29,65,-0.654498,-0.814493,-0.174533,-0.174533,-0.655654,-0.803034,-0.157722,-0.156995,0.11556,-0.320844,-0.252206,-0.263093
29,65,-0.654498,-0.814493,-0.174533,-0.174533,-0.655654,-0.803034,-0.157722,-0.156995,0.11556,-0.320844,-0.252206,-0.263093
29,65,-0.654498,-0.814493,-0.174533,-0.174533,-0.655654,-0.803034,-0.157722,-0.156995,0.11556,-0.320844,-0.252206,-0.263093
29,65,-0.654498,-0.814493,-0.174533,-0.174533,-0.655654,-0.803034,-0.157722,-0.156995,0.11556,-0.320844,-0.252206,-0.263093
29,65,-0.654498,-0.814493,-0.174533,-0.174533,-0.655654,-0.803034,-0.157722,-0.156995,0.11556,-0.320844,-0.252206,-0.263093
29,65,-0.654498,-0.814493,-0.174533,-0.174533,-0.655654,-0.803034,-0.157722,-0.156995,0.11556,-0.320844,-0.252206,-0.263093
29,65,-0.654498,-0.814493,-0.174533,-0.174533,-0.655654,-0.803034,-0.157722,-0.156995,0.11556,-0.320844,-0.252206,-0.263093
29,65,-0.654498,-0.814493,-0.174533,-0.174533,-0.655654,-0.803034,-0.157722,-0.156995,0.11556,-0.320844,-0.252206,-0.263093
29,65,-0.654498,-0.814493,-0.174533,-0.174533,-0.655654,-0.803034,-0.157722,-0.156995,0.11556,-0.320844,-0.252206,-0.263093
29,65,-0.654498,-0.814493,-0.174533,-0.174533,-0.655654,-0.803034,-0.157722,-0.156995,0.11556,-0.320844,-0.252206,-0.263093
29,65,-0.654498,-0.814493,-0.174533,-0.174533,-0.655582,-0.803034,-0.157722,-0.156995,0.108401,-0.320844,-0.252206,-0.263093
29,65,-0.654498,-0.814493,-0.174533,-0.174533,-0.655582,-0.803034,-0.157722,-0.156995,0.108401,-0.320844,-0.252206,-0.263093
29,65,-0.654498,-0.814493,-0.174533,-0.174533,-0.655582,-0.803034,-0.157722,-0.156995,0.108401,-0.320844,-0.252206,-0.263093
29,65,-0.654498,-0.814493,-0.174533,-0.174533,-0.655582,-0.803034,-0.157722,-0.156995,0.108401,-0.320844,-0.252206,-0.263093
29,65,-0.654498,-0.814493,-0.174533,-0.174533,-0.655582,-0.803034,-0.157722,-0.156995,0.108401,-0.320844,-0.252206,-0.263093
29,65,-0.654498,-0.814493,-0.174533,-0.174533,-0.655582,-0.803034,-0.157722,-0.156995,0.108401,-0.320844,-0.252206,-0.263093
29,65,-0.654498,-0.814493,-0.174533,-0.174533,-0.655582,-0.803034,-0.157722,-0.156995,0.108401,-0.320844,-0.252206,-0.263093
29,65,-0.654498,-0.814493,-0.174533,-0.174533,-0.655582,-0.803034,-0.157722,-0.156995,0.108401,-0.320844,-0.252206,-0.263093
29,65,-0.654498,-0.814493,-0.174533,-0.174533,-0.655582,-0.803034,-0.157659,-0.156954,0.108401,-0.320844,-0.253161,-0.26372
29,65,-0.654498,-0.814493,-0.174533,-0.174533,-0.655582,-0.803034,-0.157659,-0.156954,0.108401,-0.320844,-0.253161,-0.26372
29,65,-0.654498,-0.814493,-0.174533,-0.174533,-0.655582,-0.803034,-0.157659,-0.156954,0.108401,-0.320844,-0.253161,-0.26372
29,65,-0.654498,-0.814493,-0.174533,-0.174533,-0.655582,-0.803034,-0.157659,-0.156954,0.108401,-0.320844,-0.253161,-0.26372
29,65,-0.654498,-0.814493,-0.174533,-0.174533,-0.655582,-0.803034,-0.157659,-0.156954,0.108401,-0.320844,-0.253161,-0.26372
29,65,-0.654498,-0.814493,-0.174533,-0.174533,-0.655582,-0.803034,-0.157659,-0.156954,0.108401,-0.320844,-0.253161,-0.26372
29,65,-0.654498,-0.814493,-0.174533,-0.174533,-0.655582,-0.803034,-0.157659,-0.156954,0.108401,-0.320844,-0.253161,-0.26372
29,65,-0.654498,-0.814493,-0.174533,-0.174533,-0.655582,-0.803034,-0.157659,-0.156954,0.108401,-0.320844,-0.253161,-0.26372
29,65,-0.654498,-0.814493,-0.174533,-0.174533,-0.655582,-0.803034,-0.157659,-0.156954,0.108401,-0.320844,-0.253161,-0.26372
29,65,-0.654498,-0.814493,-0.174533,-0.174533,-0.655582,-0.803034,-0.157659,-0.156954,0.108401,-0.320844,-0.253161,-0.26372
29,65,-0.654498,-0.814493,-0.174533,-0.174533,-0.655582,-0.803034,-0.157659,-0.156954,0.108401,-0.320844,-0.253161,-0.26372
29,65,-0.654498,-0.814493,-0.174533,-0.174533,-0.655582,-0.803034,-0.157659,-0.156954,0.108401,-0.320844,-0.253161,-0.26372
29,65,-0.654498,-0.814493,-0.174533,-0.174533,-0.655582,-0.803034,-0.157659,-0.156954,0.108401,-0.320844,-0.253161,-0.26372
29,65,-0.654498,-0.814493,-0.174533,-0.174533,-0.655582,-0.803034,-0.157659,-0.156954,0.108401,-0.320844,-0.253161,-0.26372
29,65,-0.654498,-0.814493,-0.174533,-0.174533,-0.655582,-0.803034,-0.157659,-0.156954,0.108401,-0.320844,-0.253161,-0.26372
29,65,-0.654498,-0.814493,-0.174533,-0.174533,-0.655582,-0.803034,-0.157659,-0.156954,0.108401,-0.320844,-0.253161,-0.26372
29,65,-0.654498,-0.814493,-0.174533,-0.174533,-0.655582,-0.803034,-0.157659,-0.156954,0.108401,-0.320844,-0.253161,-0.26372
29,65,-0.654498,-0.814493,-0.174533,-0.174533,-0.655582,-0.803034,-0.157659,-0.156954,0.108401,-0.320844,-0.253161,-0.26372
29,65,-0.654498,-0.814493,-0.174533,-0.174533,-0.655582,-0.803034,-0.157659,-0.156954,0.108401,-0.320844,-0.253161,-0.26372
29,65,-0.654498,-0.814493,-0.174533,-0.174533,-0.655582,-0.803034,-0.157659,-0.156954,0.108401,-0.320844,-0.253161,-0.26372
29,65,-0.654498,-0.814493,-0.174533,-0.174533,-0.655582,-0.803034,-0.157659,-0.156954,0.108401,-0.320844,-0.253161,-0.26372
29,65,-0.654498,-0.814493,-0.174533,-0.174533,-0.655582,-0.803034,-0.157659,-0.156954,0.108401,-0.320844,-0.253161,-0.26372
29,65,-0.654498,-0.814493,-0.174533,-0.174533,-0.655582,-0.803034,-0.157659,-0.156954,0.108401,-0.320844,-0.253161,-0.26372
29,65,-0.654498,-0.814493,-0.174533,-0.174533,-0.655582,-0.803034,-0.157659,-0.156954,0.108401,-0.320844,-0.253161,-0.26372
29,65,-0.654498,-0.814493,-0.174533,-0.174533,-0.655582,-0.803034,-0.157659,-0.156954,0.108401,-0.320844,-0.253161,-0.26372
29,65,-0.654498,-0.814493,-0.174533,-0.174533,-0.655582,-0.803034,-0.157659,-0.156954,0.108401,-0.320844,-0.253161,-0.26372
29,65,-0.654498,-0.814493,-0.174533,-0.174533,-0.655582,-0.803034,-0.157659,-0.156954,0.108401,-0.320844,-0.253161,-0.26372
29,65,-0.654498,-0.814493,-0.174533,-0.174533,-0.655582,-0.803034,-0.157659,-0.156954,0.108401,-0.320844,-0.253161,-0.26372
29,65,-0.654498,-0.814493,-0.174533,-0.174533,-0.655582,-0.803034,-0.157659,-0.156954,0.108401,-0.320844,-0.253161,-0.26372
29,65,-0.654498,-0.814493,-0.174533,-0.174533,-0.655582,-0.803034,-0.157659,-0.156954,0.108401,-0.320844,-0.253161,-0.26372
29,65,-0.654498,-0.814493,-0.174533,-0.174533,-0.655582,-0.803034,-0.157659,-0.156954,0.108401,-0.320844,-0.253161,-0.26372
29,65,-0.654498,-0.814493,-0.174533,-0.174533,-0.655582,-0.803034,-0.157659,-0.156954,0.108401,-0.320844,-0.253161,-0.26372
29,65,-0.654498,-0.814493,-0.174533,-0.174533,-0.655582,-0.803034,-0.157659,-0.156954,0.108401,-0.320844,-0.253161,-0.26372
29,65,-0.654498,-0.814493,-0.174533,-0.174533,-0.655582,-0.803034,-0.157659,-0.156954,0.108401,-0.320844,-0.253161,-0.26372
29,65,-0.654498,-0.814493,-0.174533,-0.174533,-0.655582,-0.803034,-0.157659,-0.156954,0.108401,-0.320844,-0.253161,-0.26372
29,65,-0.654498,-0.814493,-0.174533,-0.174533,-0.655582,-0.803034,-0.157659,-0.156954,0.108401,-0.320844,-0.253161,-0.26372
29,65,-0.654498,-0.814493,-0.174533,-0.174533,-0.655582,-0.803034,-0.157659,-0.156954,0.108401,-0.320844,-0.253161,-0.26372
29,65,-0.654498,-0.814493,-0.174533,-0.174533,-0.655582,-0.803034,-0.157659,-0.156954,0.108401,-0.320844,-0.253161,-0.26372
29,65,-0.654498,-0.814493,-0.174533,-0.174533,-0.655582,-0.803034,-0.157659,-0.156954,0.108401,-0.320844,-0.253161,-0.26372
29,65,-0.654498,-0.814493,-0.174533,-0.174533,-0.655582,-0.803034,-0.157659,-0.156954,0.108401,-0.320844,-0.253161,-0.26372
29,65,-0.654498,-0.814493,-0.174533,-0.174533,-0.655582,-0.803034,-0.157659,-0.156954,0.108401,-0.320844,-0.253161,-0.26372
29,65,-0.654498,-0.814493,-0.174533,-0.174533,-0.655582,-0.803034,-0.157659,-0.156954,0.108401,-0.320844,-0.253161,-0.26372
29,65,-0.654498,-0.814493,-0.174533,-0.174533,-0.655582,-0.803034,-0.157659,-0.156954,0.108401,-0.320844,-0.253161,-0.26372
29,65,-0.654498,-0.814493,-0.174533,-0.174533,-0.655582,-0.803034,-0.157659,-0.156954,0.108401,-0.320844,-0.253161,-0.26372
29,65,-0.654498,-0.814493,-0.174533,-0.174533,-0.655582,-0.803034,-0.157659,-0.156954,0.108401,-0.320844,-0.253161,-0.26372
29,65,-0.654498,-0.814493,-0.174533,-0.174533,-0.655582,-0.803034,-0.157659,-0.156954,0.108401,-0.320844,-0.253161,-0.26372
29,65,-0.654498,-0.814493,-0.174533,-0.174533,-0.655582,-0.803034,-0.157659,-0.156954,0.108401,-0.320844,-0.253161,-0.26372
29,65,-0.654498,-0.814493,-0.174533,-0.174533,-0.655582,-0.803034,-0.157659,-0.156954,0.108401,-0.320844,-0.253161,-0.26372
29,65,-0.654498,-0.814493,-0.174533,-0.174533,-0.655582,-0.803034,-0.157659,-0.156954,0.108401,-0.320844,-0.253161,-0.26372
29,65,-0.654498,-0.814493,-0.174533,-0.174533,-0.655582,-0.803034,-0.157659,-0.156954,0.108401,-0.320844,-0.253161,-0.26372
29,65,-0.654498,-0.814493,-0.174533,-0.174533,-0.655582,-0.803034,-0.157659,-0.156954,0.108401,-0.320844,-0.253161,-0.26372
29,65,-0.654498,-0.814493,-0.174533,-0.174533,-0.655582,-0.803034,-0.157659,-0.156954,0.108401,-0.320844,-0.253161,-0.26372
29,65,-0.654498,-0.814493,-0.174533,-0.174533,-0.655582,-0.803034,-0.157659,-0.156954,0.108401,-0.320844,-0.253161,-0.26372
29,65,-0.654498,-0.814493,-0.174533,-0.174533,-0.655582,-0.803034,-0.157659,-0.156954,0.108401,-0.320844,-0.253161,-0.26372
29,65,-0.654498,-0.814493,-0.174533,-0.174533,-0.655582,-0.803034,-0.157659,-0.156954,0.108401,-0.320844,-0.253161,-0.26372
29,65,-0.654498,-0.814493,-0.174533,-0.174533,-0.655582,-0.803034,-0.157659,-0.156954,0.108401,-0.320844,-0.25316,-0.263719
29,65,-0.654498,-0.814493,-0.174533,-0.174533,-0.655582,-0.803034,-0.157659,-0.156954,0.108401,-0.320844,-0.253159,-0.263719
29,65,-0.654498,-0.814493,-0.174533,-0.174533,-0.655582,-0.803034,-0.157659,-0.156954,0.108401,-0.320844,-0.253159,-0.263718
29,65,-0.654498,-0.814493,-0.174533,-0.174533,-0.655582,-0.803034,-0.157659,-0.156954,0.108401,-0.320844,-0.253158,-0.263718
29,65,-0.654498,-0.814493,-0.174533,-0.174533,-0.655582,-0.803034,-0.157659,-0.156954,0.108401,-0.320844,-0.253157,-0.263718
29,65,-0.654498,-0.814493,-0.174533,-0.174533,-0.655582,-0.803034,-0.157659,-0.156954,0.108401,-0.320844,-0.253156,-0.263717
29,65,-0.654498,-0.814493,-0.174533,-0.174533,-0.655582,-0.803034,-0.157659,-0.156954,0.108401,-0.320844,-0.253156,-0.263717
29,65,-0.654498,-0.814493,-0.174533,-0.174533,-0.655582,-0.803034,-0.157659,-0.156954,0.108401,-0.320844,-0.253155,-0.263716
29,65,-0.654498,-0.814493,-0.174533,-0.174533,-0.655582,-0.803034,-0.157659,-0.156954,0.108401,-0.320844,-0.253154,-0.263716
29,65,-0.654498,-0.814493,-0.174533,-0.174533,-0.655582,-0.803034,-0.157659,-0.156954,0.108401,-0.320844,-0.253154,-0.263715
29,65,-0.654498,-0.814493,-0.174533,-0.174533,-0.655582,-0.803034,-0.157659,-0.156954,0.108401,-0.320844,-0.253153,-0.263715
29,65,-0.654498,-0.814493,-0.174533,-0.174533,-0.655582,-0.803034,-0.157659,-0.156954,0.108401,-0.320844,-0.253153,-0.263715
29,65,-0.654498,-0.814493,-0.174533,-0.174533,-0.655582,-0.803034,-0.157595,-0.156912,0.108401,-0.320844,-0.254063,-0.264313
29,65,-0.654498,-0.814493,-0.174533,-0.174533,-0.655582,-0.803034,-0.157595,-0.156912,0.108401,-0.320844,-0.254063,-0.264313
29,65,-0.654498,-0.814493,-0.174533,-0.174533,-0.655582,-0.803034,-0.157595,-0.156912,0.108401,-0.320844,-0.254063,-0.264313
29,65,-0.654498,-0.814493,-0.174533,-0.174533,-0.655582,-0.803034,-0.157595,-0.156912,0.108401,-0.320844,-0.254063,-0.264313
29,65,-0.654498,-0.814493,-0.174533,-0.174533,-0.655582,-0.803034,-0.157595,-0.156912,0.108401,-0.320844,-0.254063,-0.264313
29,65,-0.654498,-0.814493,-0.174533,-0.174533,-0.655582,-0.803034,-0.157595,-0.156912,0.108401,-0.320844,-0.254063,-0.264313
29,65,-0.654498,-0.814493,-0.174533,-0.174533,-0.655582,-0.803034,-0.157595,-0.156912,0.108401,-0.320844,-0.254063,-0.264313
29,65,-0.654498,-0.814493,-0.174533,-0.174533,-0.655582,-0.803034,-0.157595,-0.156912,0.108401,-0.320844,-0.254063,-0.264313
29,65,-0.654498,-0.814493,-0.174533,-0.174533,-0.655511,-0.803034,-0.157595,-0.156912,0.101243,-0.320844,-0.254063,-0.264313
29,65,-0.654498,-0.814493,-0.174533,-0.174533,-0.655511,-0.803034,-0.157595,-0.156912,0.101243,-0.320844,-0.254063,-0.264313
29,65,-0.654498,-0.814493,-0.174533,-0.174533,-0.655511,-0.803034,-0.157595,-0.156912,0.101243,-0.320844,-0.254063,-0.264313
29,65,-0.654498,-0.814493,-0.174533,-0.174533,-0.655511,-0.803034,-0.157595,-0.156912,0.101243,-0.320844,-0.254063,-0.264313
29,65,-0.654498,-0.814493,-0.174533,-0.174533,-0.655511,-0.803034,-0.157595,-0.156912,0.101243,-0.320844,-0.254063,-0.264313
29,65,-0.654498,-0.814493,-0.174533,-0.174533,-0.655511,-0.803034,-0.157595,-0.156912,0.101243,-0.320844,-0.254063,-0.264313
29,65,-0.654498,-0.814493,-0.174533,-0.174533,-0.655511,-0.803034,-0.157595,-0.156912,0.101243,-0.320844,-0.254063,-0.264313
29,65,-0.654498,-0.814493,-0.174533,-0.174533,-0.655511,-0.803034,-0.157595,-0.156912,0.101243,-0.320844,-0.254063,-0.264313
29,65,-0.654498,-0.814493,-0.174533,-0.174533,-0.655511,-0.803085,-0.157595,-0.156912,0.101243,-0.31942,-0.254063,-0.264313
29,65,-0.654498,-0.814493,-0.174533,-0.174533,-0.655511,-0.803085,-0.157595,-0.156912,0.101243,-0.31942,-0.254063,-0.264313
29,65,-0.654498,-0.814493,-0.174533,-0.174533,-0.655511,-0.803085,-0.157595,-0.156912,0.101243,-0.31942,-0.254063,-0.264313
29,65,-0.654498,-0.814493,-0.174533,-0.174533,-0.655511,-0.803085,-0.157595,-0.156912,0.101243,-0.31942,-0.254063,-0.264313
29,65,-0.654498,-0.814493,-0.174533,-0.174533,-0.655511,-0.803085,-0.157595,-0.156912,0.101243,-0.31942,-0.254063,-0.264313
29,65,-0.654498,-0.814493,-0.174533,-0.174533,-0.655511,-0.803085,-0.157595,-0.156912,0.101243,-0.31942,-0.254063,-0.264313
29,65,-0.654498,-0.814493,-0.174533,-0.174533,-0.655511,-0.803085,-0.157595,-0.156912,0.101243,-0.31942,-0.254063,-0.264313
29,65,-0.654498,-0.814493,-0.174533,-0.174533,-0.655511,-0.803085,-0.157595,-0.156912,0.101243,-0.31942,-0.254063,-0.264313
29,65,-0.654498,-0.814493,-0.174533,-0.174533,-0.655511,-0.803085,-0.157595,-0.156912,0.101243,-0.31942,-0.254063,-0.264313
29,65,-0.654498,-0.814493,-0.174533,-0.174533,-0.655511,-0.803085,-0.157595,-0.156912,0.101243,-0.31942,-0.254063,-0.264313
29,65,-0.654498,-0.814493,-0.174533,-0.174533,-0.655511,-0.803085,-0.157595,-0.156912,0.101243,-0.31942,-0.254063,-0.264313
29,65,-0.654498,-0.814493,-0.174533,-0.174533,-0.655511,-0.803085,-0.157595,-0.156912,0.101243,-0.31942,-0.254063,-0.264313
29,65,-0.654498,-0.814493,-0.174533,-0.174533,-0.655511,-0.803085,-0.157595,-0.156912,0.101243,-0.31942,-0.254063,-0.264313
29,65,-0.654498,-0.814493,-0.174533,-0.174533,-0.655511,-0.803085,-0.157595,-0.156912,0.101243,-0.31942,-0.254063,-0.264313
29,65,-0.654498,-0.814493,-0.174533,-0.174533,-0.655511,-0.803085,-0.157595,-0.156912,0.101243,-0.31942,-0.254063,-0.264313
29,65,-0.654498,-0.814493,-0.174533,-0.174533,-0.655511,-0.803085,-0.157595,-0.156912,0.101243,-0.31942,-0.254063,-0.264313
29,65,-0.654498,-0.814493,-0.174533,-0.174533,-0.655511,-0.803085,-0.157595,-0.156912,0.101243,-0.31942,-0.254063,-0.264313
29,65,-0.654498,-0.814493,-0.174533,-0.174533,-0.655511,-0.803085,-0.157595,-0.156912,0.101243,-0.31942,-0.254063,-0.264313
29,65,-0.654498,-0.814493,-0.174533,-0.174533,-0.655511,-0.803085,-0.157595,-0.156912,0.101243,-0.31942,-0.254063,-0.264313
29,65,-0.654498,-0.814493,-0.174533,-0.174533,-0.655511,-0.803085,-0.157595,-0.156912,0.101243,-0.31942,-0.254063,-0.264313
29,65,-0.654498,-0.814493,-0.174533,-0.174533,-0.655511,-0.803085,-0.157595,-0.156912,0.101243,-0.31942,-0.254063,-0.264313
29,65,-0.654498,-0.814493,-0.174533,-0.174533,-0.655511,-0.803085,-0.157595,-0.156912,0.101243,-0.31942,-0.254063,-0.264313
29,65,-0.654498,-0.814493,-0.174533,-0.174533,-0.655511,-0.803085,-0.157595,-0.156912,0.101243,-0.31942,-0.254063,-0.264313
29,65,-0.654498,-0.814493,-0.174533,-0.174533,-0.655511,-0.803085,-0.157595,-0.156912,0.101243,-0.31942,-0.254063,-0.264313
29,65,-0.654498,-0.814493,-0.174533,-0.174533,-0.655511,-0.803085,-0.157595,-0.156912,0.101243,-0.31942,-0.254063,-0.264313
29,65,-0.654498,-0.814493,-0.174533,-0.174533,-0.655511,-0.803085,-0.157595,-0.156912,0.101243,-0.31942,-0.254063,-0.264313
29,65,-0.654498,-0.814493,-0.174533,-0.174533,-0.655511,-0.803085,-0.157595,-0.156912,0.101243,-0.31942,-0.254063,-0.264313
29,65,-0.654498,-0.814493,-0.174533,-0.174533,-0.655511,-0.803085,-0.157595,-0.156912,0.101243,-0.31942,-0.254063,-0.264313
29,65,-0.654498,-0.814493,-0.174533,-0.174533,-0.655511,-0.803085,-0.157595,-0.156912,0.101243,-0.31942,-0.254063,-0.264313
29,65,-0.654498,-0.814493,-0.174533,-0.174533,-0.655511,-0.803085,-0.157595,-0.156912,0.101243,-0.31942,-0.254063,-0.264313
29,65,-0.654498,-0.814493,-0.174533,-0.174533,-0.655511,-0.803085,-0.157595,-0.156912,0.101243,-0.31942,-0.254063,-0.264313
29,65,-0.654498,-0.814493,-0.174533,-0.174533,-0.655511,-0.803085,-0.157595,-0.156912,0.101243,-0.31942,-0.254063,-0.264313
29,65,-0.654498,-0.814493,-0.174533,-0.174533,-0.655511,-0.803085,-0.157595,-0.156912,0.101243,-0.31942,-0.254063,-0.264313
29,65,-0.654498,-0.814493,-0.174533,-0.174533,-0.655511,-0.803085,-0.157595,-0.156912,0.101243,-0.31942,-0.254063,-0.264313
29,65,-0.654498,-0.814493,-0.174533,-0.174533,-0.655511,-0.803085,-0.157595,-0.156912,0.101243,-0.31942,-0.254063,-0.264313
29,65,-0.654498,-0.814493,-0.174533,-0.174533,-0.655511,-0.803085,-0.157595,-0.156912,0.101243,-0.31942,-0.254063,-0.264313
29,65,-0.654498,-0.814493,-0.174533,-0.174533,-0.655511,-0.803085,-0.157595,-0.156912,0.101243,-0.31942,-0.254063,-0.264313
29,65,-0.654498,-0.814493,-0.174533,-0.174533,-0.655511,-0.803085,-0.157595,-0.156912,0.101243,-0.31942,-0.254063,-0.264313
29,65,-0.654498,-0.814493,-0.174533,-0.174533,-0.655511,-0.803085,-0.157595,-0.156912,0.101243,-0.31942,-0.254063,-0.264313
29,65,-0.654498,-0.814493,-0.174533,-0.174533,-0.655511,-0.803085,-0.157595,-0.156912,0.101243,-0.31942,-0.254063,-0.264313
29,65,-0.654498,-0.814493,-0.174533,-0.174533,-0.655511,-0.803085,-0.157595,-0.156912,0.101243,-0.31942,-0.254063,-0.264313
29,65,-0.654498,-0.814493,-0.174533,-0.174533,-0.655511,-0.803085,-0.157595,-0.156912,0.101243,-0.31942,-0.254063,-0.264313
29,65,-0.654498,-0.814493,-0.174533,-0.174533,-0.655511,-0.803085,-0.157595,-0.156912,0.101243,-0.31942,-0.254063,-0.264313
