stim_pw [us],stim_amp [mA],com_elbow_fe [rad],com_forearm_ps [rad],com_wrist_fe [rad],com_wrist_ru [rad],act_elbow_fe [rad],act_forearm_ps [rad],act_wrist_fe [rad],act_wrist_ru [rad],elbow_fe_trq [Nm],forearm_ps_trq [Nm],wrist_fe_trq [Nm],wrist_ru_trq [Nm]
31,65,-0.654498,-0.814493,-0.174533,-0.174533,-0.651144,-0.80156,-0.151847,-0.167343,-0.33543,-0.362127,-0.340289,-0.107852
31,65,-0.654498,-0.814493,-0.174533,-0.174533,-0.651144,-0.80156,-0.151847,-0.167343,-0.33543,-0.362127,-0.340289,-0.107852
31,65,-0.654498,-0.814493,-0.174533,-0.174533,-0.651144,-0.80156,-0.151847,-0.167343,-0.33543,-0.362127,-0.340289,-0.107852
31,65,-0.654498,-0.814493,-0.174533,-0.174533,-0.651144,-0.80156,-0.151847,-0.167343,-0.33543,-0.362127,-0.340289,-0.107852
31,65,-0.654498,-0.814493,-0.174533,-0.174533,-0.651144,-0.80156,-0.151788,-0.167363,-0.33543,-0.362127,-0.341181,-0.107553
31,65,-0.654498,-0.814493,-0.174533,-0.174533,-0.651144,-0.80156,-0.151788,-0.167363,-0.33543,-0.362127,-0.341181,-0.107553
31,65,-0.654498,-0.814493,-0.174533,-0.174533,-0.651144,-0.80156,-0.151788,-0.167363,-0.33543,-0.362127,-0.341181,-0.107553
31,65,-0.654498,-0.814493,-0.174533,-0.174533,-0.651144,-0.80156,-0.151788,-0.167363,-0.33543,-0.362127,-0.341181,-0.107553
31,65,-0.654498,-0.814493,-0.174533,-0.174533,-0.651144,-0.80156,-0.151788,-0.167363,-0.33543,-0.362127,-0.341181,-0.107553
31,65,-0.654498,-0.814493,-0.174533,-0.174533,-0.651144,-0.80156,-0.151788,-0.167363,-0.33543,-0.362127,-0.341181,-0.107553
31,65,-0.654498,-0.814493,-0.174533,-0.174533,-0.651144,-0.80156,-0.151788,-0.167363,-0.33543,-0.362127,-0.341181,-0.107553
31,65,-0.654498,-0.814493,-0.174533,-0.174533,-0.651144,-0.80156,-0.151788,-0.167363,-0.33543,-0.362127,-0.341181,-0.107553
31,65,-0.654498,-0.814493,-0.174533,-0.174533,-0.651144,-0.80156,-0.151788,-0.167363,-0.33543,-0.362127,-0.341181,-0.107553
31,65,-0.654498,-0.814493,-0.174533,-0.174533,-0.651144,-0.80156,-0.151788,-0.167363,-0.33543,-0.362127,-0.341181,-0.107553
31,65,-0.654498,-0.814493,-0.174533,-0.174533,-0.651144,-0.80156,-0.151788,-0.167363,-0.33543,-0.362127,-0.341181,-0.107553
31,65,-0.654498,-0.814493,-0.174533,-0.174533,-0.651144,-0.80156,-0.151788,-0.167363,-0.33543,-0.362127,-0.341181,-0.107553
31,65,-0.654498,-0.814493,-0.174533,-0.174533,-0.651144,-0.80156,-0.151788,-0.167363,-0.33543,-0.362127,-0.341181,-0.107553
31,65,-0.654498,-0.814493,-0.174533,-0.174533,-0.651144,-0.80156,-0.151788,-0.167363,-0.33543,-0.362127,-0.341181,-0.107553
31,65,-0.654498,-0.814493,-0.174533,-0.174533,-0.651144,-0.80156,-0.151788,-0.167363,-0.33543,-0.362127,-0.341181,-0.107553
31,65,-0.654498,-0.814493,-0.174533,-0.174533,-0.651144,-0.80156,-0.151788,-0.167363,-0.33543,-0.362127,-0.341181,-0.107553
31,65,-0.654498,-0.814493,-0.174533,-0.174533,-0.651144,-0.80156,-0.151788,-0.167363,-0.33543,-0.362127,-0.341181,-0.107553
31,65,-0.654498,-0.814493,-0.174533,-0.174533,-0.651144,-0.80156,-0.151788,-0.167363,-0.33543,-0.362127,-0.341181,-0.107553
31,65,-0.654498,-0.814493,-0.174533,-0.174533,-0.651144,-0.80156,-0.151788,-0.167363,-0.33543,-0.362127,-0.341181,-0.107553
31,65,-0.654498,-0.814493,-0.174533,-0.174533,-0.651144,-0.80156,-0.151788,-0.167363,-0.33543,-0.362127,-0.341181,-0.107553
31,65,-0.654498,-0.814493,-0.174533,-0.174533,-0.651144,-0.80156,-0.151788,-0.167363,-0.33543,-0.362127,-0.341181,-0.107553
31,65,-0.654498,-0.814493,-0.174533,-0.174533,-0.651144,-0.80156,-0.151788,-0.167363,-0.33543,-0.362127,-0.341181,-0.107553
31,65,-0.654498,-0.814493,-0.174533,-0.174533,-0.651144,-0.80156,-0.151788,-0.167363,-0.33543,-0.362127,-0.341181,-0.107553
31,65,-0.654498,-0.814493,-0.174533,-0.174533,-0.651144,-0.80156,-0.151788,-0.167363,-0.33543,-0.362127,-0.341181,-0.107553
31,65,-0.654498,-0.814493,-0.174533,-0.174533,-0.651144,-0.80156,-0.151788,-0.167363,-0.33543,-0.362127,-0.341181,-0.107553
31,65,-0.654498,-0.814493,-0.174533,-0.174533,-0.651144,-0.80156,-0.151788,-0.167363,-0.33543,-0.362127,-0.341181,-0.107553
31,65,-0.654498,-0.814493,-0.174533,-0.174533,-0.651144,-0.80156,-0.151788,-0.167363,-0.33543,-0.362127,-0.341181,-0.107553
31,65,-0.654498,-0.814493,-0.174533,-0.174533,-0.651144,-0.80156,-0.151788,-0.167363,-0.33543,-0.362127,-0.341181,-0.107553
31,65,-0.654498,-0.814493,-0.174533,-0.174533,-0.651144,-0.80156,-0.151788,-0.167363,-0.33543,-0.362127,-0.341181,-0.107553
31,65,-0.654498,-0.814493,-0.174533,-0.174533,-0.651144,-0.80156,-0.151788,-0.167363,-0.33543,-0.362127,-0.341181,-0.107553
31,65,-0.654498,-0.814493,-0.174533,-0.174533,-0.651144,-0.80156,-0.151788,-0.167363,-0.33543,-0.362127,-0.341181,-0.107553
31,65,-0.654498,-0.814493,-0.174533,-0.174533,-0.651144,-0.80156,-0.151788,-0.167363,-0.33543,-0.362127,-0.341181,-0.107553
31,65,-0.654498,-0.814493,-0.174533,-0.174533,-0.651144,-0.80156,-0.151788,-0.167363,-0.33543,-0.362127,-0.341181,-0.107553
31,65,-0.654498,-0.814493,-0.174533,-0.174533,-0.651144,-0.80156,-0.151788,-0.167363,-0.33543,-0.362127,-0.341181,-0.107553
31,65,-0.654498,-0.814493,-0.174533,-0.174533,-0.651144,-0.80156,-0.151788,-0.167363,-0.33543,-0.362127,-0.341181,-0.107553
31,65,-0.654498,-0.814493,-0.174533,-0.174533,-0.651144,-0.80156,-0.151788,-0.167363,-0.33543,-0.362127,-0.341181,-0.107553
31,65,-0.654498,-0.814493,-0.174533,-0.174533,-0.651144,-0.80156,-0.151788,-0.167363,-0.33543,-0.362127,-0.341181,-0.107553
31,65,-0.654498,-0.814493,-0.174533,-0.174533,-0.651144,-0.80156,-0.151788,-0.167363,-0.33543,-0.362127,-0.341181,-0.107553
31,65,-0.654498,-0.814493,-0.174533,-0.174533,-0.651144,-0.80156,-0.151788,-0.167363,-0.33543,-0.362127,-0.341181,-0.107553
31,65,-0.654498,-0.814493,-0.174533,-0.174533,-0.651144,-0.80156,-0.151788,-0.167363,-0.33543,-0.362127,-0.341181,-0.107553
31,65,-0.654498,-0.814493,-0.174533,-0.174533,-0.651144,-0.80156,-0.151788,-0.167363,-0.33543,-0.362127,-0.341181,-0.107553
31,65,-0.654498,-0.814493,-0.174533,-0.174533,-0.651144,-0.80156,-0.151788,-0.167363,-0.33543,-0.362127,-0.341181,-0.107553
31,65,-0.654498,-0.814493,-0.174533,-0.174533,-0.651144,-0.80156,-0.151788,-0.167363,-0.33543,-0.362127,-0.341181,-0.107553
31,65,-0.654498,-0.814493,-0.174533,-0.174533,-0.651144,-0.80156,-0.151788,-0.167363,-0.33543,-0.362127,-0.341181,-0.107553
31,65,-0.654498,-0.814493,-0.174533,-0.174533,-0.651144,-0.80156,-0.151788,-0.167363,-0.33543,-0.362127,-0.341181,-0.107553
31,65,-0.654498,-0.814493,-0.174533,-0.174533,-0.651144,-0.80156,-0.151788,-0.167363,-0.33543,-0.362127,-0.341181,-0.107553
31,65,-0.654498,-0.814493,-0.174533,-0.174533,-0.651144,-0.80156,-0.151788,-0.167363,-0.33543,-0.362127,-0.341181,-0.107553
31,65,-0.654498,-0.814493,-0.174533,-0.174533,-0.651144,-0.80156,-0.151788,-0.167363,-0.33543,-0.362127,-0.341181,-0.107553
31,65,-0.654498,-0.814493,-0.174533,-0.174533,-0.651144,-0.80156,-0.151788,-0.167363,-0.33543,-0.362127,-0.341181,-0.107553
31,65,-0.654498,-0.814493,-0.174533,-0.174533,-0.651144,-0.80156,-0.151728,-0.167383,-0.33543,-0.362127,-0.342073,-0.107254
31,65,-0.654498,-0.814493,-0.174533,-0.174533,-0.651144,-0.80156,-0.151728,-0.167383,-0.33543,-0.362127,-0.342073,-0.107254
31,65,-0.654498,-0.814493,-0.174533,-0.174533,-0.651144,-0.80156,-0.151728,-0.167383,-0.33543,-0.362127,-0.342073,-0.107254
31,65,-0.654498,-0.814493,-0.174533,-0.174533,-0.651144,-0.80156,-0.151728,-0.167383,-0.33543,-0.362127,-0.342073,-0.107254
31,65,-0.654498,-0.814493,-0.174533,-0.174533,-0.651144,-0.80156,-0.151728,-0.167383,-0.33543,-0.362127,-0.342073,-0.107254
31,65,-0.654498,-0.814493,-0.174533,-0.174533,-0.651144,-0.80156,-0.151728,-0.167383,-0.33543,-0.362127,-0.342073,-0.107254
31,65,-0.654498,-0.814493,-0.174533,-0.174533,-0.651144,-0.80156,-0.151728,-0.167383,-0.33543,-0.362127,-0.342073,-0.107254
31,65,-0.654498,-0.814493,-0.174533,-0.174533,-0.651144,-0.80156,-0.151728,-0.167383,-0.33543,-0.362127,-0.342073,-0.107254
31,65,-0.654498,-0.814493,-0.174533,-0.174533,-0.651144,-0.80156,-0.151728,-0.167383,-0.33543,-0.362127,-0.342073,-0.107254
31,65,-0.654498,-0.814493,-0.174533,-0.174533,-0.651144,-0.80156,-0.151728,-0.167383,-0.33543,-0.362127,-0.342073,-0.107254
31,65,-0.654498,-0.814493,-0.174533,-0.174533,-0.651144,-0.80156,-0.151728,-0.167383,-0.33543,-0.362127,-0.342073,-0.107254
31,65,-0.654498,-0.814493,-0.174533,-0.174533,-0.651144,-0.80156,-0.151728,-0.167383,-0.33543,-0.362127,-0.342073,-0.107254
31,65,-0.654498,-0.814493,-0.174533,-0.174533,-0.651144,-0.80156,-0.151728,-0.167383,-0.33543,-0.362127,-0.342073,-0.107254
31,65,-0.654498,-0.814493,-0.174533,-0.174533,-0.651144,-0.80156,-0.151728,-0.167383,-0.33543,-0.362127,-0.342073,-0.107254
31,65,-0.654498,-0.814493,-0.174533,-0.174533,-0.651144,-0.80156,-0.151728,-0.167383,-0.33543,-0.362127,-0.342073,-0.107254
31,65,-0.654498,-0.814493,-0.174533,-0.174533,-0.651144,-0.80156,-0.151728,-0.167383,-0.33543,-0.362127,-0.342073,-0.107254
31,65,-0.654498,-0.814493,-0.174533,-0.174533,-0.651144,-0.80156,-0.151728,-0.167383,-0.33543,-0.362127,-0.342073,-0.107254
31,65,-0.654498,-0.814493,-0.174533,-0.174533,-0.651144,-0.80156,-0.151728,-0.167383,-0.33543,-0.362127,-0.342073,-0.107254
31,65,-0.654498,-0.814493,-0.174533,-0.174533,-0.651144,-0.80156,-0.151728,-0.167383,-0.33543,-0.362127,-0.342073,-0.107254
31,65,-0.654498,-0.814493,-0.174533,-0.174533,-0.651144,-0.80156,-0.151728,-0.167383,-0.33543,-0.362127,-0.342073,-0.107254
31,65,-0.654498,-0.814493,-0.174533,-0.174533,-0.651144,-0.80156,-0.151728,-0.167383,-0.33543,-0.362127,-0.342073,-0.107254
31,65,-0.654498,-0.814493,-0.174533,-0.174533,-0.651144,-0.80156,-0.151728,-0.167383,-0.33543,-0.362127,-0.342073,-0.107254
31,65,-0.654498,-0.814493,-0.174533,-0.174533,-0.651144,-0.80156,-0.151728,-0.167383,-0.33543,-0.362127,-0.342073,-0.107254
31,65,-0.654498,-0.814493,-0.174533,-0.174533,-0.651144,-0.80156,-0.151728,-0.167383,-0.33543,-0.362127,-0.342073,-0.107254
31,65,-0.654498,-0.814493,-0.174533,-0.174533,-0.651144,-0.80156,-0.151728,-0.167383,-0.33543,-0.362127,-0.342073,-0.107254
31,65,-0.654498,-0.814493,-0.174533,-0.174533,-0.651144,-0.80156,-0.151728,-0.167383,-0.33543,-0.362127,-0.342073,-0.107254
31,65,-0.654498,-0.814493,-0.174533,-0.174533,-0.651144,-0.80156,-0.151728,-0.167383,-0.33543,-0.362127,-0.342073,-0.107254
31,65,-0.654498,-0.814493,-0.174533,-0.174533,-0.651144,-0.80156,-0.151728,-0.167383,-0.33543,-0.362127,-0.342073,-0.107254
31,65,-0.654498,-0.814493,-0.174533,-0.174533,-0.651144,-0.80156,-0.151728,-0.167383,-0.33543,-0.362127,-0.342073,-0.107254
31,65,-0.654498,-0.814493,-0.174533,-0.174533,-0.651144,-0.80156,-0.151728,-0.167383,-0.33543,-0.362127,-0.342073,-0.107254
31,65,-0.654498,-0.814493,-0.174533,-0.174533,-0.651144,-0.80156,-0.151728,-0.167383,-0.33543,-0.362127,-0.342073,-0.107254
31,65,-0.654498,-0.814493,-0.174533,-0.174533,-0.651144,-0.80156,-0.151728,-0.167383,-0.33543,-0.362127,-0.342073,-0.107254
31,65,-0.654498,-0.814493,-0.174533,-0.174533,-0.651144,-0.80156,-0.151728,-0.167383,-0.33543,-0.362127,-0.342073,-0.107254
31,65,-0.654498,-0.814493,-0.174533,-0.174533,-0.651144,-0.80156,-0.151728,-0.167383,-0.33543,-0.362127,-0.342073,-0.107254
31,65,-0.654498,-0.814493,-0.174533,-0.174533,-0.651144,-0.80156,-0.151728,-0.167383,-0.33543,-0.362127,-0.342073,-0.107254
31,65,-0.654498,-0.814493,-0.174533,-0.174533,-0.651144,-0.80156,-0.151728,-0.167383,-0.33543,-0.362127,-0.342073,-0.107254
31,65,-0.654498,-0.814493,-0.174533,-0.174533,-0.651144,-0.80156,-0.151728,-0.167383,-0.33543,-0.362127,-0.342073,-0.107254
31,65,-0.654498,-0.814493,-0.174533,-0.174533,-0.651144,-0.80156,-0.151728,-0.167383,-0.33543,-0.362127,-0.342073,-0.107254
31,65,-0.654498,-0.814493,-0.174533,-0.174533,-0.651144,-0.80156,-0.151728,-0.167383,-0.33543,-0.362127,-0.342073,-0.107254
31,65,-0.654498,-0.814493,-0.174533,-0.174533,-0.651144,-0.80156,-0.151728,-0.167383,-0.33543,-0.362127,-0.342073,-0.107254
31,65,-0.654498,-0.814493,-0.174533,-0.174533,-0.651144,-0.80156,-0.151728,-0.167383,-0.33543,-0.362127,-0.342073,-0.107254
31,65,-0.654498,-0.814493,-0.174533,-0.174533,-0.651144,-0.80156,-0.151728,-0.167383,-0.33543,-0.362127,-0.342073,-0.107254
31,65,-0.654498,-0.814493,-0.174533,-0.174533,-0.651144,-0.80156,-0.151728,-0.167383,-0.33543,-0.362127,-0.342073,-0.107254
31,65,-0.654498,-0.814493,-0.174533,-0.174533,-0.651144,-0.80156,-0.151728,-0.167383,-0.33543,-0.362127,-0.342073,-0.107254
31,65,-0.654498,-0.814493,-0.174533,-0.174533,-0.651144,-0.80156,-0.151728,-0.167383,-0.33543,-0.362127,-0.342073,-0.107254
31,65,-0.654498,-0.814493,-0.174533,-0.174533,-0.651144,-0.80156,-0.151728,-0.167383,-0.33543,-0.362127,-0.342073,-0.107254
31,65,-0.654498,-0.814493,-0.174533,-0.174533,-0.651144,-0.80156,-0.151728,-0.167383,-0.33543,-0.362127,-0.342073,-0.107254
31,65,-0.654498,-0.814493,-0.174533,-0.174533,-0.651144,-0.80156,-0.151792,-0.167424,-0.33543,-0.362127,-0.341118,-0.106633
31,65,-0.654498,-0.814493,-0.174533,-0.174533,-0.651144,-0.80156,-0.151792,-0.167424,-0.33543,-0.362127,-0.341118,-0.106633
31,65,-0.654498,-0.814493,-0.174533,-0.174533,-0.651144,-0.80156,-0.151792,-0.167424,-0.33543,-0.362127,-0.341118,-0.106633
31,65,-0.654498,-0.814493,-0.174533,-0.174533,-0.651144,-0.80156,-0.151792,-0.167424,-0.33543,-0.362127,-0.341118,-0.106633
31,65,-0.654498,-0.814493,-0.174533,-0.174533,-0.651144,-0.80156,-0.151792,-0.167424,-0.33543,-0.362127,-0.341118,-0.106633
31,65,-0.654498,-0.814493,-0.174533,-0.174533,-0.651144,-0.80156,-0.151792,-0.167424,-0.33543,-0.362127,-0.341118,-0.106633
31,65,-0.654498,-0.814493,-0.174533,-0.174533,-0.651144,-0.80156,-0.151732,-0.167444,-0.33543,-0.362127,-0.342011,-0.106334
31,65,-0.654498,-0.814493,-0.174533,-0.174533,-0.651144,-0.80156,-0.151732,-0.167444,-0.33543,-0.362127,-0.342011,-0.106334
31,65,-0.654498,-0.814493,-0.174533,-0.174533,-0.651144,-0.80156,-0.151732,-0.167444,-0.33543,-0.362127,-0.342011,-0.106334
31,65,-0.654498,-0.814493,-0.174533,-0.174533,-0.651144,-0.80156,-0.151732,-0.167444,-0.33543,-0.362127,-0.342011,-0.106334
31,65,-0.654498,-0.814493,-0.174533,-0.174533,-0.651144,-0.80156,-0.151732,-0.167444,-0.33543,-0.362127,-0.342011,-0.106334
31,65,-0.654498,-0.814493,-0.174533,-0.174533,-0.651144,-0.80156,-0.151732,-0.167444,-0.33543,-0.362127,-0.342011,-0.106334
31,65,-0.654498,-0.814493,-0.174533,-0.174533,-0.651144,-0.80156,-0.151732,-0.167444,-0.33543,-0.362127,-0.342011,-0.106334
31,65,-0.654498,-0.814493,-0.174533,-0.174533,-0.651144,-0.80156,-0.151732,-0.167444,-0.33543,-0.362127,-0.342011,-0.106334
31,65,-0.654498,-0.814493,-0.174533,-0.174533,-0.651144,-0.80156,-0.151732,-0.167444,-0.33543,-0.362127,-0.342011,-0.106334
31,65,-0.654498,-0.814493,-0.174533,-0.174533,-0.651144,-0.80156,-0.151732,-0.167444,-0.33543,-0.362127,-0.342011,-0.106334
31,65,-0.654498,-0.814493,-0.174533,-0.174533,-0.651144,-0.80156,-0.151732,-0.167444,-0.33543,-0.362127,-0.342011,-0.106334
31,65,-0.654498,-0.814493,-0.174533,-0.174533,-0.651144,-0.80156,-0.151732,-0.167444,-0.33543,-0.362127,-0.342011,-0.106334
31,65,-0.654498,-0.814493,-0.174533,-0.174533,-0.651144,-0.80156,-0.151732,-0.167444,-0.33543,-0.362127,-0.342011,-0.106334
31,65,-0.654498,-0.814493,-0.174533,-0.174533,-0.651144,-0.80156,-0.151732,-0.167444,-0.33543,-0.362127,-0.342011,-0.106334
31,65,-0.654498,-0.814493,-0.174533,-0.174533,-0.651144,-0.80156,-0.151732,-0.167444,-0.33543,-0.362127,-0.342011,-0.106334
31,65,-0.654498,-0.814493,-0.174533,-0.174533,-0.651144,-0.80156,-0.151732,-0.167444,-0.33543,-0.362127,-0.342011,-0.106334
31,65,-0.654498,-0.814493,-0.174533,-0.174533,-0.651144,-0.80156,-0.151732,-0.167444,-0.33543,-0.362127,-0.342011,-0.106334
31,65,-0.654498,-0.814493,-0.174533,-0.174533,-0.651144,-0.80156,-0.151732,-0.167444,-0.33543,-0.362127,-0.342011,-0.106334
31,65,-0.654498,-0.814493,-0.174533,-0.174533,-0.651144,-0.80156,-0.151732,-0.167444,-0.33543,-0.362127,-0.342011,-0.106334
31,65,-0.654498,-0.814493,-0.174533,-0.174533,-0.651144,-0.80156,-0.151732,-0.167444,-0.33543,-0.362127,-0.342011,-0.106334
31,65,-0.654498,-0.814493,-0.174533,-0.174533,-0.651144,-0.80156,-0.151732,-0.167444,-0.33543,-0.362127,-0.342011,-0.106334
31,65,-0.654498,-0.814493,-0.174533,-0.174533,-0.651144,-0.80156,-0.151732,-0.167444,-0.33543,-0.362127,-0.342011,-0.106334
31,65,-0.654498,-0.814493,-0.174533,-0.174533,-0.651144,-0.80156,-0.151732,-0.167444,-0.33543,-0.362127,-0.342011,-0.106334
31,65,-0.654498,-0.814493,-0.174533,-0.174533,-0.651144,-0.80156,-0.151732,-0.167444,-0.33543,-0.362127,-0.342011,-0.106334
31,65,-0.654498,-0.814493,-0.174533,-0.174533,-0.651144,-0.80156,-0.151796,-0.167485,-0.33543,-0.362127,-0.341056,-0.105713
31,65,-0.654498,-0.814493,-0.174533,-0.174533,-0.651144,-0.80156,-0.151796,-0.167485,-0.33543,-0.362127,-0.341056,-0.105713
31,65,-0.654498,-0.814493,-0.174533,-0.174533,-0.651144,-0.80156,-0.151796,-0.167485,-0.33543,-0.362127,-0.341056,-0.105713
31,65,-0.654498,-0.814493,-0.174533,-0.174533,-0.651144,-0.80156,-0.151796,-0.167485,-0.33543,-0.362127,-0.341056,-0.105713
31,65,-0.654498,-0.814493,-0.174533,-0.174533,-0.651144,-0.80156,-0.151796,-0.167485,-0.33543,-0.362127,-0.341056,-0.105713
31,65,-0.654498,-0.814493,-0.174533,-0.174533,-0.651144,-0.80156,-0.151796,-0.167485,-0.33543,-0.362127,-0.341056,-0.105713
31,65,-0.654498,-0.814493,-0.174533,-0.174533,-0.651144,-0.80156,-0.151796,-0.167485,-0.33543,-0.362127,-0.341056,-0.105713
31,65,-0.654498,-0.814493,-0.174533,-0.174533,-0.651144,-0.80156,-0.15186,-0.167527,-0.33543,-0.362127,-0.340101,-0.105092
31,65,-0.654498,-0.814493,-0.174533,-0.174533,-0.651144,-0.80156,-0.15186,-0.167527,-0.33543,-0.362127,-0.340101,-0.105092
31,65,-0.654498,-0.814493,-0.174533,-0.174533,-0.651144,-0.80156,-0.15186,-0.167527,-0.33543,-0.362127,-0.340101,-0.105092
31,65,-0.654498,-0.814493,-0.174533,-0.174533,-0.651144,-0.80156,-0.15186,-0.167527,-0.33543,-0.362127,-0.340101,-0.105092
31,65,-0.654498,-0.814493,-0.174533,-0.174533,-0.651144,-0.80156,-0.15186,-0.167527,-0.33543,-0.362127,-0.340101,-0.105092
31,65,-0.654498,-0.814493,-0.174533,-0.174533,-0.651144,-0.80156,-0.15186,-0.167527,-0.33543,-0.362127,-0.340101,-0.105092
31,65,-0.654498,-0.814493,-0.174533,-0.174533,-0.651144,-0.80156,-0.15186,-0.167527,-0.33543,-0.362127,-0.340101,-0.105092
31,65,-0.654498,-0.814493,-0.174533,-0.174533,-0.651144,-0.80156,-0.151923,-0.167568,-0.33543,-0.362127,-0.339146,-0.104471
31,65,-0.654498,-0.814493,-0.174533,-0.174533,-0.651144,-0.80156,-0.151923,-0.167568,-0.33543,-0.362127,-0.339146,-0.104471
31,65,-0.654498,-0.814493,-0.174533,-0.174533,-0.651144,-0.80156,-0.151923,-0.167568,-0.33543,-0.362127,-0.339146,-0.104471
31,65,-0.654498,-0.814493,-0.174533,-0.174533,-0.651144,-0.80156,-0.151923,-0.167568,-0.33543,-0.362127,-0.339146,-0.104471
31,65,-0.654498,-0.814493,-0.174533,-0.174533,-0.651144,-0.80156,-0.151923,-0.167568,-0.33543,-0.362127,-0.339146,-0.104471
31,65,-0.654498,-0.814493,-0.174533,-0.174533,-0.651144,-0.80156,-0.151923,-0.167568,-0.33543,-0.362127,-0.339146,-0.104471
31,65,-0.654498,-0.814493,-0.174533,-0.174533,-0.651144,-0.80156,-0.151987,-0.16761,-0.33543,-0.362127,-0.338139,-0.103816
31,65,-0.654498,-0.814493,-0.174533,-0.174533,-0.651144,-0.80156,-0.151987,-0.16761,-0.33543,-0.362127,-0.338139,-0.103816
31,65,-0.654498,-0.814493,-0.174533,-0.174533,-0.651144,-0.80156,-0.151987,-0.16761,-0.33543,-0.362127,-0.338139,-0.103816
31,65,-0.654498,-0.814493,-0.174533,-0.174533,-0.651144,-0.80156,-0.151987,-0.16761,-0.33543,-0.362127,-0.338139,-0.103816
31,65,-0.654498,-0.814493,-0.174533,-0.174533,-0.651144,-0.80156,-0.151987,-0.16761,-0.33543,-0.362127,-0.338139,-0.103816
31,65,-0.654498,-0.814493,-0.174533,-0.174533,-0.651144,-0.80156,-0.151987,-0.16761,-0.33543,-0.362127,-0.338139,-0.103816
31,65,-0.654498,-0.814493,-0.174533,-0.174533,-0.651144,-0.80156,-0.151987,-0.16761,-0.33543,-0.362127,-0.338139,-0.103816
31,65,-0.654498,-0.814493,-0.174533,-0.174533,-0.651144,-0.80156,-0.152051,-0.167651,-0.33543,-0.362127,-0.337139,-0.103167
31,65,-0.654498,-0.814493,-0.174533,-0.174533,-0.651144,-0.80156,-0.152051,-0.167651,-0.33543,-0.362127,-0.337139,-0.103167
31,65,-0.654498,-0.814493,-0.174533,-0.174533,-0.651144,-0.80156,-0.152051,-0.167651,-0.33543,-0.362127,-0.337139,-0.103167
31,65,-0.654498,-0.814493,-0.174533,-0.174533,-0.651144,-0.80156,-0.152051,-0.167651,-0.33543,-0.362127,-0.337139,-0.103167
31,65,-0.654498,-0.814493,-0.174533,-0.174533,-0.651144,-0.80156,-0.152051,-0.167651,-0.33543,-0.362127,-0.337139,-0.103167
31,65,-0.654498,-0.814493,-0.174533,-0.174533,-0.651144,-0.80156,-0.151991,-0.167671,-0.33543,-0.362127,-0.338032,-0.102868
31,65,-0.654498,-0.814493,-0.174533,-0.174533,-0.651144,-0.80156,-0.151991,-0.167671,-0.33543,-0.362127,-0.338032,-0.102868
31,65,-0.654498,-0.814493,-0.174533,-0.174533,-0.651144,-0.80156,-0.151991,-0.167671,-0.33543,-0.362127,-0.338032,-0.102868
31,65,-0.654498,-0.814493,-0.174533,-0.174533,-0.651144,-0.80156,-0.151991,-0.167671,-0.33543,-0.362127,-0.338032,-0.102868
31,65,-0.654498,-0.814493,-0.174533,-0.174533,-0.651144,-0.80156,-0.151991,-0.167671,-0.33543,-0.362127,-0.338032,-0.102868
31,65,-0.654498,-0.814493,-0.174533,-0.174533,-0.651144,-0.80156,-0.151991,-0.167671,-0.33543,-0.362127,-0.338032,-0.102868
31,65,-0.654498,-0.814493,-0.174533,-0.174533,-0.651144,-0.80156,-0.152055,-0.167712,-0.33543,-0.362127,-0.33709,-0.102255
31,65,-0.654498,-0.814493,-0.174533,-0.174533,-0.651144,-0.80156,-0.152055,-0.167712,-0.33543,-0.362127,-0.33709,-0.102255
31,65,-0.654498,-0.814493,-0.174533,-0.174533,-0.651144,-0.80156,-0.152055,-0.167712,-0.33543,-0.362127,-0.33709,-0.102255
31,65,-0.654498,-0.814493,-0.174533,-0.174533,-0.651144,-0.80156,-0.152055,-0.167712,-0.33543,-0.362127,-0.33709,-0.102255
31,65,-0.654498,-0.814493,-0.174533,-0.174533,-0.651144,-0.80156,-0.152055,-0.167712,-0.33543,-0.362127,-0.33709,-0.102255
31,65,-0.654498,-0.814493,-0.174533,-0.174533,-0.651144,-0.80156,-0.152055,-0.167712,-0.33543,-0.362127,-0.33709,-0.102255
31,65,-0.654498,-0.814493,-0.174533,-0.174533,-0.651144,-0.80156,-0.152055,-0.167712,-0.33543,-0.362127,-0.33709,-0.102255
31,65,-0.654498,-0.814493,-0.174533,-0.174533,-0.651144,-0.80156,-0.152055,-0.167712,-0.33543,-0.362127,-0.33709,-0.102255
31,65,-0.654498,-0.814493,-0.174533,-0.174533,-0.651144,-0.80156,-0.152055,-0.167712,-0.33543,-0.362127,-0.33709,-0.102255
31,65,-0.654498,-0.814493,-0.174533,-0.174533,-0.651144,-0.80156,-0.152055,-0.167712,-0.33543,-0.362127,-0.33709,-0.102255
31,65,-0.654498,-0.814493,-0.174533,-0.174533,-0.651144,-0.80156,-0.152055,-0.167712,-0.33543,-0.362127,-0.33709,-0.102255
31,65,-0.654498,-0.814493,-0.174533,-0.174533,-0.651144,-0.80156,-0.152055,-0.167712,-0.33543,-0.362127,-0.33709,-0.102255
31,65,-0.654498,-0.814493,-0.174533,-0.174533,-0.651144,-0.80156,-0.152055,-0.167712,-0.33543,-0.362127,-0.33709,-0.102255
31,65,-0.654498,-0.814493,-0.174533,-0.174533,-0.651144,-0.80156,-0.152055,-0.167712,-0.33543,-0.362127,-0.33709,-0.102255
31,65,-0.654498,-0.814493,-0.174533,-0.174533,-0.651144,-0.80156,-0.152055,-0.167712,-0.33543,-0.362127,-0.33709,-0.102255
31,65,-0.654498,-0.814493,-0.174533,-0.174533,-0.651144,-0.80156,-0.152055,-0.167712,-0.33543,-0.362127,-0.33709,-0.102255
31,65,-0.654498,-0.814493,-0.174533,-0.174533,-0.651144,-0.80156,-0.152055,-0.167712,-0.33543,-0.362127,-0.33709,-0.102255
31,65,-0.654498,-0.814493,-0.174533,-0.174533,-0.651144,-0.80156,-0.152055,-0.167712,-0.33543,-0.362127,-0.33709,-0.102255
31,65,-0.654498,-0.814493,-0.174533,-0.174533,-0.651144,-0.80156,-0.152055,-0.167712,-0.33543,-0.362127,-0.33709,-0.102255
31,65,-0.654498,-0.814493,-0.174533,-0.174533,-0.651144,-0.80156,-0.152055,-0.167712,-0.33543,-0.362127,-0.33709,-0.102255
31,65,-0.654498,-0.814493,-0.174533,-0.174533,-0.651144,-0.80156,-0.152055,-0.167712,-0.33543,-0.362127,-0.33709,-0.102255
31,65,-0.654498,-0.814493,-0.174533,-0.174533,-0.651144,-0.80156,-0.152055,-0.167712,-0.33543,-0.362127,-0.33709,-0.102255
31,65,-0.654498,-0.814493,-0.174533,-0.174533,-0.651144,-0.80156,-0.152055,-0.167712,-0.33543,-0.362127,-0.33709,-0.102255
31,65,-0.654498,-0.814493,-0.174533,-0.174533,-0.651144,-0.80156,-0.152055,-0.167712,-0.33543,-0.362127,-0.33709,-0.102255
31,65,-0.654498,-0.814493,-0.174533,-0.174533,-0.651144,-0.80156,-0.152118,-0.167754,-0.33543,-0.362127,-0.336163,-0.101653
31,65,-0.654498,-0.814493,-0.174533,-0.174533,-0.651144,-0.80156,-0.152118,-0.167754,-0.33543,-0.362127,-0.336163,-0.101653
31,65,-0.654498,-0.814493,-0.174533,-0.174533,-0.651144,-0.80156,-0.152118,-0.167754,-0.33543,-0.362127,-0.336163,-0.101653
31,65,-0.654498,-0.814493,-0.174533,-0.174533,-0.651144,-0.80156,-0.152118,-0.167754,-0.33543,-0.362127,-0.336163,-0.101653
31,65,-0.654498,-0.814493,-0.174533,-0.174533,-0.651144,-0.80156,-0.152118,-0.167754,-0.33543,-0.362127,-0.336163,-0.101653
31,65,-0.654498,-0.814493,-0.174533,-0.174533,-0.651144,-0.80156,-0.152118,-0.167754,-0.33543,-0.362127,-0.336163,-0.101653
31,65,-0.654498,-0.814493,-0.174533,-0.174533,-0.651144,-0.80156,-0.152118,-0.167754,-0.33543,-0.362127,-0.336163,-0.101653
31,65,-0.654498,-0.814493,-0.174533,-0.174533,-0.651144,-0.80156,-0.152118,-0.167754,-0.33543,-0.362127,-0.336163,-0.101653
31,65,-0.654498,-0.814493,-0.174533,-0.174533,-0.651144,-0.80156,-0.152118,-0.167754,-0.33543,-0.362127,-0.336163,-0.101653
31,65,-0.654498,-0.814493,-0.174533,-0.174533,-0.651144,-0.80156,-0.152118,-0.167754,-0.33543,-0.362127,-0.336163,-0.101653
31,65,-0.654498,-0.814493,-0.174533,-0.174533,-0.651144,-0.80156,-0.152118,-0.167754,-0.33543,-0.362127,-0.336163,-0.101653
31,65,-0.654498,-0.814493,-0.174533,-0.174533,-0.651144,-0.80156,-0.152118,-0.167754,-0.33543,-0.362127,-0.336163,-0.101653
31,65,-0.654498,-0.814493,-0.174533,-0.174533,-0.651144,-0.80156,-0.152118,-0.167754,-0.33543,-0.362127,-0.336163,-0.101653
31,65,-0.654498,-0.814493,-0.174533,-0.174533,-0.651144,-0.80156,-0.152118,-0.167754,-0.33543,-0.362127,-0.336163,-0.101653
31,65,-0.654498,-0.814493,-0.174533,-0.174533,-0.651144,-0.80156,-0.152118,-0.167754,-0.33543,-0.362127,-0.336163,-0.101653
31,65,-0.654498,-0.814493,-0.174533,-0.174533,-0.651144,-0.80156,-0.152118,-0.167754,-0.33543,-0.362127,-0.336163,-0.101653
31,65,-0.654498,-0.814493,-0.174533,-0.174533,-0.651144,-0.80156,-0.152118,-0.167754,-0.33543,-0.362127,-0.336163,-0.101653
31,65,-0.654498,-0.814493,-0.174533,-0.174533,-0.651144,-0.80156,-0.152182,-0.167795,-0.33543,-0.362127,-0.335218,-0.101038
31,65,-0.654498,-0.814493,-0.174533,-0.174533,-0.651144,-0.80156,-0.152182,-0.167795,-0.33543,-0.362127,-0.335218,-0.101038
31,65,-0.654498,-0.814493,-0.174533,-0.174533,-0.651144,-0.80156,-0.152182,-0.167795,-0.33543,-0.362127,-0.335218,-0.101038
31,65,-0.654498,-0.814493,-0.174533,-0.174533,-0.651144,-0.80156,-0.152182,-0.167795,-0.33543,-0.362127,-0.335218,-0.101038
31,65,-0.654498,-0.814493,-0.174533,-0.174533,-0.651144,-0.80156,-0.152182,-0.167795,-0.33543,-0.362127,-0.335218,-0.101038
31,65,-0.654498,-0.814493,-0.174533,-0.174533,-0.651144,-0.80156,-0.152182,-0.167795,-0.33543,-0.362127,-0.335218,-0.101038
31,65,-0.654498,-0.814493,-0.174533,-0.174533,-0.651144,-0.80156,-0.152182,-0.167795,-0.33543,-0.362127,-0.335218,-0.101038
31,65,-0.654498,-0.814493,-0.174533,-0.174533,-0.651144,-0.80156,-0.152182,-0.167795,-0.33543,-0.362127,-0.335218,-0.101038
31,65,-0.654498,-0.814493,-0.174533,-0.174533,-0.651144,-0.80156,-0.152182,-0.167795,-0.33543,-0.362127,-0.335218,-0.101038
31,65,-0.654498,-0.814493,-0.174533,-0.174533,-0.651144,-0.80156,-0.152182,-0.167795,-0.33543,-0.362127,-0.335218,-0.101038
31,65,-0.654498,-0.814493,-0.174533,-0.174533,-0.651144,-0.80156,-0.152182,-0.167795,-0.33543,-0.362127,-0.335218,-0.101038
31,65,-0.654498,-0.814493,-0.174533,-0.174533,-0.651144,-0.80156,-0.152182,-0.167795,-0.33543,-0.362127,-0.335218,-0.101038
31,65,-0.654498,-0.814493,-0.174533,-0.174533,-0.651144,-0.80156,-0.152182,-0.167795,-0.33543,-0.362127,-0.335218,-0.101038
31,65,-0.654498,-0.814493,-0.174533,-0.174533,-0.651144,-0.80156,-0.152182,-0.167795,-0.33543,-0.362127,-0.335218,-0.101038
31,65,-0.654498,-0.814493,-0.174533,-0.174533,-0.651144,-0.80156,-0.152182,-0.167795,-0.33543,-0.362127,-0.335218,-0.101038
31,65,-0.654498,-0.814493,-0.174533,-0.174533,-0.651144,-0.80156,-0.152182,-0.167795,-0.33543,-0.362127,-0.335218,-0.101038
31,65,-0.654498,-0.814493,-0.174533,-0.174533,-0.651144,-0.80156,-0.152182,-0.167795,-0.33543,-0.362127,-0.335218,-0.101038
31,65,-0.654498,-0.814493,-0.174533,-0.174533,-0.651144,-0.80156,-0.152182,-0.167795,-0.33543,-0.362127,-0.335218,-0.101038
31,65,-0.654498,-0.814493,-0.174533,-0.174533,-0.651144,-0.80156,-0.152182,-0.167795,-0.33543,-0.362127,-0.335218,-0.101038
31,65,-0.654498,-0.814493,-0.174533,-0.174533,-0.651144,-0.80156,-0.152182,-0.167795,-0.33543,-0.362127,-0.335218,-0.101038
31,65,-0.654498,-0.814493,-0.174533,-0.174533,-0.651144,-0.80156,-0.152182,-0.167795,-0.33543,-0.362127,-0.335218,-0.101038
31,65,-0.654498,-0.814493,-0.174533,-0.174533,-0.651144,-0.80156,-0.152182,-0.167795,-0.33543,-0.362127,-0.335218,-0.101038
31,65,-0.654498,-0.814493,-0.174533,-0.174533,-0.651144,-0.80156,-0.152182,-0.167795,-0.33543,-0.362127,-0.335218,-0.101038
31,65,-0.654498,-0.814493,-0.174533,-0.174533,-0.651144,-0.80156,-0.152182,-0.167795,-0.33543,-0.362127,-0.335218,-0.101038
31,65,-0.654498,-0.814493,-0.174533,-0.174533,-0.651144,-0.80156,-0.152182,-0.167795,-0.33543,-0.362127,-0.335218,-0.101038
31,65,-0.654498,-0.814493,-0.174533,-0.174533,-0.651144,-0.80156,-0.152182,-0.167795,-0.33543,-0.362127,-0.335218,-0.101038
31,65,-0.654498,-0.814493,-0.174533,-0.174533,-0.651144,-0.80156,-0.152182,-0.167795,-0.33543,-0.362127,-0.335218,-0.101038
31,65,-0.654498,-0.814493,-0.174533,-0.174533,-0.651144,-0.80156,-0.152182,-0.167795,-0.33543,-0.362127,-0.335218,-0.101038
31,65,-0.654498,-0.814493,-0.174533,-0.174533,-0.651144,-0.80156,-0.152182,-0.167795,-0.33543,-0.362127,-0.335218,-0.101038
31,65,-0.654498,-0.814493,-0.174533,-0.174533,-0.651144,-0.80156,-0.152182,-0.167795,-0.33543,-0.362127,-0.335218,-0.101038
31,65,-0.654498,-0.814493,-0.174533,-0.174533,-0.651144,-0.80156,-0.152182,-0.167795,-0.33543,-0.362127,-0.335218,-0.101038
31,65,-0.654498,-0.814493,-0.174533,-0.174533,-0.651144,-0.80156,-0.152182,-0.167795,-0.33543,-0.362127,-0.335218,-0.101038
31,65,-0.654498,-0.814493,-0.174533,-0.174533,-0.651144,-0.80156,-0.152182,-0.167795,-0.33543,-0.362127,-0.335218,-0.101038
31,65,-0.654498,-0.814493,-0.174533,-0.174533,-0.651144,-0.80156,-0.152182,-0.167795,-0.33543,-0.362127,-0.335218,-0.101038
31,65,-0.654498,-0.814493,-0.174533,-0.174533,-0.651144,-0.80156,-0.152182,-0.167795,-0.33543,-0.362127,-0.335218,-0.101038
31,65,-0.654498,-0.814493,-0.174533,-0.174533,-0.651144,-0.80156,-0.152182,-0.167795,-0.33543,-0.362127,-0.335218,-0.101038
31,65,-0.654498,-0.814493,-0.174533,-0.174533,-0.651144,-0.80156,-0.152182,-0.167795,-0.33543,-0.362127,-0.335218,-0.101038
31,65,-0.654498,-0.814493,-0.174533,-0.174533,-0.651144,-0.80156,-0.152123,-0.167815,-0.33543,-0.362127,-0.336111,-0.10074
31,65,-0.654498,-0.814493,-0.174533,-0.174533,-0.651144,-0.80156,-0.152123,-0.167815,-0.33543,-0.362127,-0.336111,-0.10074
31,65,-0.654498,-0.814493,-0.174533,-0.174533,-0.651144,-0.80156,-0.152123,-0.167815,-0.33543,-0.362127,-0.336111,-0.10074
31,65,-0.654498,-0.814493,-0.174533,-0.174533,-0.651144,-0.80156,-0.152123,-0.167815,-0.33543,-0.362127,-0.336111,-0.10074
31,65,-0.654498,-0.814493,-0.174533,-0.174533,-0.651144,-0.80156,-0.152123,-0.167815,-0.33543,-0.362127,-0.336111,-0.10074
31,65,-0.654498,-0.814493,-0.174533,-0.174533,-0.651144,-0.80156,-0.152123,-0.167815,-0.33543,-0.362127,-0.336111,-0.10074
31,65,-0.654498,-0.814493,-0.174533,-0.174533,-0.651144,-0.80156,-0.152123,-0.167815,-0.33543,-0.362127,-0.336111,-0.10074
31,65,-0.654498,-0.814493,-0.174533,-0.174533,-0.651144,-0.80156,-0.152123,-0.167815,-0.33543,-0.362127,-0.336111,-0.10074
31,65,-0.654498,-0.814493,-0.174533,-0.174533,-0.651144,-0.80156,-0.152123,-0.167815,-0.33543,-0.362127,-0.336111,-0.10074
31,65,-0.654498,-0.814493,-0.174533,-0.174533,-0.651144,-0.80156,-0.152123,-0.167815,-0.33543,-0.362127,-0.336111,-0.10074
31,65,-0.654498,-0.814493,-0.174533,-0.174533,-0.651144,-0.80156,-0.152123,-0.167815,-0.33543,-0.362127,-0.336111,-0.10074
31,65,-0.654498,-0.814493,-0.174533,-0.174533,-0.651144,-0.80156,-0.152123,-0.167815,-0.33543,-0.362127,-0.336111,-0.10074
31,65,-0.654498,-0.814493,-0.174533,-0.174533,-0.651144,-0.80156,-0.152063,-0.167835,-0.33543,-0.362127,-0.337004,-0.100441
31,65,-0.654498,-0.814493,-0.174533,-0.174533,-0.651144,-0.80156,-0.152063,-0.167835,-0.33543,-0.362127,-0.337004,-0.100441
31,65,-0.654498,-0.814493,-0.174533,-0.174533,-0.651144,-0.80156,-0.152063,-0.167835,-0.33543,-0.362127,-0.337004,-0.100441
31,65,-0.654498,-0.814493,-0.174533,-0.174533,-0.651144,-0.80156,-0.152063,-0.167835,-0.33543,-0.362127,-0.337004,-0.100441
31,65,-0.654498,-0.814493,-0.174533,-0.174533,-0.651144,-0.80156,-0.152063,-0.167835,-0.33543,-0.362127,-0.337004,-0.100441
31,65,-0.654498,-0.814493,-0.174533,-0.174533,-0.651144,-0.80156,-0.152063,-0.167835,-0.33543,-0.362127,-0.337004,-0.100441
31,65,-0.654498,-0.814493,-0.174533,-0.174533,-0.651144,-0.80156,-0.152004,-0.167855,-0.33543,-0.362127,-0.337896,-0.100142
31,65,-0.654498,-0.814493,-0.174533,-0.174533,-0.651144,-0.80156,-0.152004,-0.167855,-0.33543,-0.362127,-0.337896,-0.100142
31,65,-0.654498,-0.814493,-0.174533,-0.174533,-0.651144,-0.80156,-0.152004,-0.167855,-0.33543,-0.362127,-0.337896,-0.100142
31,65,-0.654498,-0.814493,-0.174533,-0.174533,-0.651144,-0.80156,-0.152004,-0.167855,-0.33543,-0.362127,-0.337896,-0.100142
31,65,-0.654498,-0.814493,-0.174533,-0.174533,-0.651144,-0.80156,-0.151944,-0.167875,-0.33543,-0.362127,-0.338789,-0.099843
31,65,-0.654498,-0.814493,-0.174533,-0.174533,-0.651144,-0.80156,-0.151944,-0.167875,-0.33543,-0.362127,-0.33879,-0.0998433
31,65,-0.654498,-0.814493,-0.174533,-0.174533,-0.651144,-0.80156,-0.151944,-0.167875,-0.33543,-0.362127,-0.33879,-0.0998437
31,65,-0.654498,-0.814493,-0.174533,-0.174533,-0.651144,-0.80156,-0.151944,-0.167875,-0.33543,-0.362127,-0.338791,-0.0998442
31,65,-0.654498,-0.814493,-0.174533,-0.174533,-0.651144,-0.80156,-0.151944,-0.167875,-0.33543,-0.362127,-0.338792,-0.0998446
31,65,-0.654498,-0.814493,-0.174533,-0.174533,-0.651144,-0.80156,-0.151944,-0.167875,-0.33543,-0.362127,-0.338792,-0.099845
31,65,-0.654498,-0.814493,-0.174533,-0.174533,-0.651144,-0.80156,-0.151885,-0.167895,-0.33543,-0.362127,-0.339771,-0.099518
31,65,-0.654498,-0.814493,-0.174533,-0.174533,-0.651144,-0.80156,-0.151885,-0.167895,-0.33543,-0.362127,-0.339772,-0.0995183
31,65,-0.654498,-0.814493,-0.174533,-0.174533,-0.651144,-0.80156,-0.151885,-0.167895,-0.33543,-0.362127,-0.339772,-0.0995187
31,65,-0.654498,-0.814493,-0.174533,-0.174533,-0.651144,-0.80156,-0.151885,-0.167895,-0.33543,-0.362127,-0.339773,-0.0995191
31,65,-0.654498,-0.814493,-0.174533,-0.174533,-0.651144,-0.80156,-0.151885,-0.167895,-0.33543,-0.362127,-0.339773,-0.0995194
31,65,-0.654498,-0.814493,-0.174533,-0.174533,-0.651144,-0.80156,-0.151825,-0.167915,-0.33543,-0.362127,-0.340694,-0.0992116
31,65,-0.654498,-0.814493,-0.174533,-0.174533,-0.651144,-0.80156,-0.151825,-0.167915,-0.33543,-0.362127,-0.340695,-0.099212
31,65,-0.654498,-0.814493,-0.174533,-0.174533,-0.651144,-0.80156,-0.151825,-0.167915,-0.33543,-0.362127,-0.340695,-0.0992123
31,65,-0.654498,-0.814493,-0.174533,-0.174533,-0.651144,-0.80156,-0.151766,-0.167935,-0.33543,-0.362127,-0.341606,-0.0989078
31,65,-0.654498,-0.814493,-0.174533,-0.174533,-0.651144,-0.80156,-0.151766,-0.167935,-0.33543,-0.362127,-0.341606,-0.0989081
31,65,-0.654498,-0.814493,-0.174533,-0.174533,-0.651144,-0.80156,-0.151766,-0.167935,-0.33543,-0.362127,-0.341607,-0.0989084
31,65,-0.654498,-0.814493,-0.174533,-0.174533,-0.651144,-0.80156,-0.151766,-0.167935,-0.33543,-0.362127,-0.341607,-0.0989087
31,65,-0.654498,-0.814493,-0.174533,-0.174533,-0.651144,-0.80156,-0.151766,-0.167935,-0.33543,-0.362127,-0.341608,-0.0989089
31,65,-0.654498,-0.814493,-0.174533,-0.174533,-0.651144,-0.80156,-0.151706,-0.167955,-0.33543,-0.362127,-0.342501,-0.0986103
31,65,-0.654498,-0.814493,-0.174533,-0.174533,-0.651144,-0.80156,-0.151706,-0.167955,-0.33543,-0.362127,-0.342502,-0.0986105
31,65,-0.654498,-0.814493,-0.174533,-0.174533,-0.651144,-0.80156,-0.151706,-0.167955,-0.33543,-0.362127,-0.342502,-0.0986108
31,65,-0.654498,-0.814493,-0.174533,-0.174533,-0.651144,-0.80156,-0.151706,-0.167955,-0.33543,-0.362127,-0.342502,-0.098611
31,65,-0.654498,-0.814493,-0.174533,-0.174533,-0.651144,-0.80156,-0.151647,-0.167975,-0.33543,-0.362127,-0.343409,-0.0983079
31,65,-0.654498,-0.814493,-0.174533,-0.174533,-0.651144,-0.80156,-0.151647,-0.167975,-0.33543,-0.362127,-0.343409,-0.0983081
31,65,-0.654498,-0.814493,-0.174533,-0.174533,-0.651144,-0.80156,-0.151647,-0.167975,-0.33543,-0.362127,-0.34341,-0.0983084
31,65,-0.654498,-0.814493,-0.174533,-0.174533,-0.651144,-0.80156,-0.151647,-0.167975,-0.33543,-0.362127,-0.34344,-0.0983281
31,65,-0.654498,-0.814493,-0.174533,-0.174533,-0.651144,-0.80156,-0.151647,-0.167975,-0.33543,-0.362127,-0.34344,-0.0983281
31,65,-0.654498,-0.814493,-0.174533,-0.174533,-0.651144,-0.80156,-0.151647,-0.167975,-0.33543,-0.362127,-0.34344,-0.0983281
31,65,-0.654498,-0.814493,-0.174533,-0.174533,-0.651144,-0.80156,-0.151647,-0.167975,-0.33543,-0.362127,-0.34344,-0.0983281
31,65,-0.654498,-0.814493,-0.174533,-0.174533,-0.651144,-0.80156,-0.151587,-0.167994,-0.33543,-0.362127,-0.344315,-0.0980349
31,65,-0.654498,-0.814493,-0.174533,-0.174533,-0.651144,-0.80156,-0.151587,-0.167994,-0.33543,-0.362127,-0.344315,-0.0980349
31,65,-0.654498,-0.814493,-0.174533,-0.174533,-0.651144,-0.80156,-0.151587,-0.167994,-0.33543,-0.362127,-0.344315,-0.0980349
31,65,-0.654498,-0.814493,-0.174533,-0.174533,-0.651144,-0.80156,-0.151587,-0.167994,-0.33543,-0.362127,-0.344315,-0.0980349
31,65,-0.654498,-0.814493,-0.174533,-0.174533,-0.651144,-0.80156,-0.151587,-0.167994,-0.33543,-0.362127,-0.344315,-0.0980349
31,65,-0.654498,-0.814493,-0.174533,-0.174533,-0.651144,-0.80156,-0.151587,-0.167994,-0.33543,-0.362127,-0.344315,-0.0980349
31,65,-0.654498,-0.814493,-0.174533,-0.174533,-0.651144,-0.80156,-0.151587,-0.167994,-0.33543,-0.362127,-0.344315,-0.0980349
31,65,-0.654498,-0.814493,-0.174533,-0.174533,-0.651144,-0.80156,-0.151587,-0.167994,-0.33543,-0.362127,-0.344315,-0.0980349
31,65,-0.654498,-0.814493,-0.174533,-0.174533,-0.651144,-0.80156,-0.151527,-0.168014,-0.33543,-0.362127,-0.345183,-0.0977442
31,65,-0.654498,-0.814493,-0.174533,-0.174533,-0.651144,-0.80156,-0.151527,-0.168014,-0.33543,-0.362127,-0.345183,-0.0977442
31,65,-0.654498,-0.814493,-0.174533,-0.174533,-0.651144,-0.80156,-0.151527,-0.168014,-0.33543,-0.362127,-0.345183,-0.0977442
31,65,-0.654498,-0.814493,-0.174533,-0.174533,-0.651144,-0.80156,-0.151527,-0.168014,-0.33543,-0.362127,-0.345183,-0.0977442
31,65,-0.654498,-0.814493,-0.174533,-0.174533,-0.651144,-0.80156,-0.151527,-0.168014,-0.33543,-0.362127,-0.345183,-0.0977442
31,65,-0.654498,-0.814493,-0.174533,-0.174533,-0.651144,-0.80156,-0.151527,-0.168014,-0.33543,-0.362127,-0.345183,-0.0977442
31,65,-0.654498,-0.814493,-0.174533,-0.174533,-0.651144,-0.80156,-0.151527,-0.168014,-0.33543,-0.362127,-0.345183,-0.0977442
31,65,-0.654498,-0.814493,-0.174533,-0.174533,-0.651144,-0.80156,-0.151527,-0.168014,-0.33543,-0.362127,-0.345183,-0.0977442
31,65,-0.654498,-0.814493,-0.174533,-0.174533,-0.651144,-0.80156,-0.151527,-0.168014,-0.33543,-0.362127,-0.345183,-0.0977442
31,65,-0.654498,-0.814493,-0.174533,-0.174533,-0.651144,-0.80156,-0.151527,-0.168014,-0.33543,-0.362127,-0.345183,-0.0977442
31,65,-0.654498,-0.814493,-0.174533,-0.174533,-0.651144,-0.80156,-0.151527,-0.168014,-0.33543,-0.362127,-0.345183,-0.0977442
31,65,-0.654498,-0.814493,-0.174533,-0.174533,-0.651144,-0.80156,-0.151527,-0.168014,-0.33543,-0.362127,-0.345183,-0.0977442
31,65,-0.654498,-0.814493,-0.174533,-0.174533,-0.651144,-0.80156,-0.151527,-0.168014,-0.33543,-0.362127,-0.345183,-0.0977442
31,65,-0.654498,-0.814493,-0.174533,-0.174533,-0.651144,-0.80156,-0.151527,-0.168014,-0.33543,-0.362127,-0.345183,-0.0977442
31,65,-0.654498,-0.814493,-0.174533,-0.174533,-0.651144,-0.80156,-0.151527,-0.168014,-0.33543,-0.362127,-0.345183,-0.0977442
31,65,-0.654498,-0.814493,-0.174533,-0.174533,-0.651144,-0.80156,-0.151527,-0.168014,-0.33543,-0.362127,-0.345183,-0.0977442
31,65,-0.654498,-0.814493,-0.174533,-0.174533,-0.651144,-0.80156,-0.151527,-0.168014,-0.33543,-0.362127,-0.345183,-0.0977442
31,65,-0.654498,-0.814493,-0.174533,-0.174533,-0.651144,-0.80156,-0.151527,-0.168014,-0.33543,-0.362127,-0.345183,-0.0977442
31,65,-0.654498,-0.814493,-0.174533,-0.174533,-0.651144,-0.80156,-0.151527,-0.168014,-0.33543,-0.362127,-0.345183,-0.0977442
31,65,-0.654498,-0.814493,-0.174533,-0.174533,-0.651144,-0.80156,-0.151527,-0.168014,-0.33543,-0.362127,-0.345183,-0.0977442
31,65,-0.654498,-0.814493,-0.174533,-0.174533,-0.651144,-0.80156,-0.151527,-0.168014,-0.33543,-0.362127,-0.345183,-0.0977442
31,65,-0.654498,-0.814493,-0.174533,-0.174533,-0.651144,-0.80156,-0.151527,-0.168014,-0.33543,-0.362127,-0.345183,-0.0977442
31,65,-0.654498,-0.814493,-0.174533,-0.174533,-0.651144,-0.80156,-0.151527,-0.168014,-0.33543,-0.362127,-0.345183,-0.0977442
31,65,-0.654498,-0.814493,-0.174533,-0.174533,-0.651144,-0.80156,-0.151527,-0.168014,-0.33543,-0.362127,-0.345182,-0.0977446
31,65,-0.654498,-0.814493,-0.174533,-0.174533,-0.651144,-0.80156,-0.151527,-0.168014,-0.33543,-0.362127,-0.345178,-0.0977459
31,65,-0.654498,-0.814493,-0.174533,-0.174533,-0.651144,-0.80156,-0.151527,-0.168014,-0.33543,-0.362127,-0.345174,-0.0977472
31,65,-0.654498,-0.814493,-0.174533,-0.174533,-0.651144,-0.80156,-0.151527,-0.168014,-0.33543,-0.362127,-0.345171,-0.0977484
31,65,-0.654498,-0.814493,-0.174533,-0.174533,-0.651144,-0.80156,-0.151468,-0.168034,-0.33543,-0.362127,-0.346026,-0.097462
31,65,-0.654498,-0.814493,-0.174533,-0.174533,-0.651144,-0.80156,-0.151468,-0.168034,-0.33543,-0.362127,-0.346026,-0.097462
31,65,-0.654498,-0.814493,-0.174533,-0.174533,-0.651144,-0.80156,-0.151468,-0.168034,-0.33543,-0.362127,-0.346026,-0.097462
31,65,-0.654498,-0.814493,-0.174533,-0.174533,-0.651144,-0.80156,-0.151468,-0.168034,-0.33543,-0.362127,-0.346026,-0.097462
31,65,-0.654498,-0.814493,-0.174533,-0.174533,-0.651144,-0.80156,-0.151468,-0.168034,-0.33543,-0.362127,-0.346026,-0.097462
31,65,-0.654498,-0.814493,-0.174533,-0.174533,-0.651144,-0.80156,-0.151468,-0.168034,-0.33543,-0.362127,-0.346026,-0.097462
31,65,-0.654498,-0.814493,-0.174533,-0.174533,-0.651144,-0.80156,-0.151468,-0.168034,-0.33543,-0.362127,-0.346026,-0.097462
31,65,-0.654498,-0.814493,-0.174533,-0.174533,-0.651144,-0.80156,-0.151468,-0.168034,-0.33543,-0.362127,-0.346026,-0.097462
31,65,-0.654498,-0.814493,-0.174533,-0.174533,-0.651144,-0.80156,-0.151468,-0.168034,-0.33543,-0.362127,-0.346026,-0.097462
31,65,-0.654498,-0.814493,-0.174533,-0.174533,-0.651144,-0.80156,-0.151468,-0.168034,-0.33543,-0.362127,-0.346026,-0.097462
31,65,-0.654498,-0.814493,-0.174533,-0.174533,-0.651144,-0.80156,-0.151468,-0.168034,-0.33543,-0.362127,-0.346026,-0.097462
31,65,-0.654498,-0.814493,-0.174533,-0.174533,-0.651144,-0.80156,-0.151468,-0.168034,-0.33543,-0.362127,-0.346026,-0.097462
31,65,-0.654498,-0.814493,-0.174533,-0.174533,-0.651144,-0.80156,-0.151468,-0.168034,-0.33543,-0.362127,-0.346026,-0.097462
31,65,-0.654498,-0.814493,-0.174533,-0.174533,-0.651144,-0.80156,-0.151468,-0.168034,-0.33543,-0.362127,-0.346026,-0.097462
31,65,-0.654498,-0.814493,-0.174533,-0.174533,-0.651144,-0.80156,-0.151468,-0.168034,-0.33543,-0.362127,-0.346026,-0.097462
31,65,-0.654498,-0.814493,-0.174533,-0.174533,-0.651144,-0.80156,-0.151468,-0.168034,-0.33543,-0.362127,-0.346026,-0.097462
31,65,-0.654498,-0.814493,-0.174533,-0.174533,-0.651144,-0.80156,-0.151468,-0.168034,-0.33543,-0.362127,-0.346026,-0.097462
31,65,-0.654498,-0.814493,-0.174533,-0.174533,-0.651144,-0.80156,-0.151468,-0.168034,-0.33543,-0.362127,-0.346026,-0.097462
31,65,-0.654498,-0.814493,-0.174533,-0.174533,-0.651144,-0.80156,-0.151468,-0.168034,-0.33543,-0.362127,-0.346026,-0.097462
31,65,-0.654498,-0.814493,-0.174533,-0.174533,-0.651144,-0.80156,-0.151468,-0.168034,-0.33543,-0.362127,-0.346026,-0.097462
31,65,-0.654498,-0.814493,-0.174533,-0.174533,-0.651144,-0.80156,-0.151468,-0.168034,-0.33543,-0.362127,-0.346026,-0.097462
31,65,-0.654498,-0.814493,-0.174533,-0.174533,-0.651144,-0.801611,-0.151468,-0.168034,-0.33543,-0.360703,-0.346026,-0.097462
31,65,-0.654498,-0.814493,-0.174533,-0.174533,-0.651144,-0.801611,-0.151468,-0.168034,-0.33543,-0.360703,-0.346026,-0.097462
31,65,-0.654498,-0.814493,-0.174533,-0.174533,-0.651144,-0.801611,-0.151468,-0.168034,-0.33543,-0.360703,-0.346026,-0.097462
31,65,-0.654498,-0.814493,-0.174533,-0.174533,-0.651144,-0.801611,-0.151468,-0.168034,-0.33543,-0.360703,-0.346026,-0.097462
31,65,-0.654498,-0.814493,-0.174533,-0.174533,-0.651144,-0.801611,-0.151468,-0.168034,-0.33543,-0.360703,-0.346026,-0.097462
31,65,-0.654498,-0.814493,-0.174533,-0.174533,-0.651144,-0.801611,-0.151468,-0.168034,-0.33543,-0.360703,-0.346026,-0.097462
31,65,-0.654498,-0.814493,-0.174533,-0.174533,-0.651144,-0.801611,-0.151468,-0.168034,-0.33543,-0.360703,-0.346026,-0.097462
31,65,-0.654498,-0.814493,-0.174533,-0.174533,-0.651144,-0.801611,-0.151468,-0.168034,-0.33543,-0.360703,-0.346026,-0.097462
31,65,-0.654498,-0.814493,-0.174533,-0.174533,-0.651144,-0.801611,-0.151468,-0.168034,-0.33543,-0.360703,-0.346026,-0.097462
31,65,-0.654498,-0.814493,-0.174533,-0.174533,-0.651144,-0.801611,-0.151468,-0.168034,-0.33543,-0.360703,-0.346026,-0.097462
31,65,-0.654498,-0.814493,-0.174533,-0.174533,-0.651144,-0.801611,-0.151468,-0.168034,-0.33543,-0.360703,-0.346026,-0.097462
31,65,-0.654498,-0.814493,-0.174533,-0.174533,-0.651144,-0.801611,-0.151468,-0.168034,-0.33543,-0.360703,-0.346026,-0.097462
31,65,-0.654498,-0.814493,-0.174533,-0.174533,-0.651144,-0.801611,-0.151468,-0.168034,-0.33543,-0.360703,-0.346026,-0.097462
31,65,-0.654498,-0.814493,-0.174533,-0.174533,-0.651144,-0.801611,-0.151468,-0.168034,-0.33543,-0.360703,-0.346026,-0.097462
31,65,-0.654498,-0.814493,-0.174533,-0.174533,-0.651144,-0.801611,-0.151468,-0.168034,-0.33543,-0.360703,-0.346026,-0.097462
31,65,-0.654498,-0.814493,-0.174533,-0.174533,-0.651144,-0.801611,-0.151468,-0.168034,-0.33543,-0.360703,-0.346026,-0.097462
31,65,-0.654498,-0.814493,-0.174533,-0.174533,-0.651144,-0.801611,-0.151468,-0.168034,-0.33543,-0.360703,-0.346026,-0.097462
31,65,-0.654498,-0.814493,-0.174533,-0.174533,-0.651144,-0.801611,-0.151468,-0.168034,-0.33543,-0.360703,-0.346026,-0.097462
31,65,-0.654498,-0.814493,-0.174533,-0.174533,-0.651144,-0.801611,-0.151468,-0.168034,-0.33543,-0.360703,-0.346026,-0.097462
31,65,-0.654498,-0.814493,-0.174533,-0.174533,-0.651144,-0.801611,-0.151468,-0.168034,-0.33543,-0.360703,-0.346026,-0.097462
31,65,-0.654498,-0.814493,-0.174533,-0.174533,-0.651144,-0.801611,-0.151468,-0.168034,-0.33543,-0.360703,-0.346026,-0.097462
31,65,-0.654498,-0.814493,-0.174533,-0.174533,-0.651144,-0.801611,-0.151468,-0.168034,-0.33543,-0.360703,-0.346026,-0.097462
31,65,-0.654498,-0.814493,-0.174533,-0.174533,-0.651144,-0.801611,-0.151468,-0.168034,-0.33543,-0.360703,-0.346026,-0.097462
31,65,-0.654498,-0.814493,-0.174533,-0.174533,-0.651144,-0.801611,-0.151468,-0.168034,-0.33543,-0.360703,-0.346026,-0.097462
31,65,-0.654498,-0.814493,-0.174533,-0.174533,-0.651144,-0.801611,-0.151468,-0.168034,-0.33543,-0.360703,-0.346026,-0.097462
31,65,-0.654498,-0.814493,-0.174533,-0.174533,-0.651144,-0.801611,-0.151468,-0.168034,-0.33543,-0.360703,-0.346026,-0.097462
31,65,-0.654498,-0.814493,-0.174533,-0.174533,-0.651144,-0.801611,-0.151468,-0.168034,-0.33543,-0.360703,-0.346025,-0.0974624
31,65,-0.654498,-0.814493,-0.174533,-0.174533,-0.651144,-0.801611,-0.151468,-0.168034,-0.33543,-0.360703,-0.346024,-0.0974627
31,65,-0.654498,-0.814493,-0.174533,-0.174533,-0.651144,-0.801611,-0.151468,-0.168034,-0.33543,-0.360703,-0.346023,-0.0974631
31,65,-0.654498,-0.814493,-0.174533,-0.174533,-0.651144,-0.801611,-0.151468,-0.168034,-0.33543,-0.360703,-0.346022,-0.0974634
31,65,-0.654498,-0.814493,-0.174533,-0.174533,-0.651144,-0.801611,-0.151468,-0.168034,-0.33543,-0.360703,-0.346021,-0.0974637
31,65,-0.654498,-0.814493,-0.174533,-0.174533,-0.651144,-0.801611,-0.151468,-0.168034,-0.33543,-0.360703,-0.34602,-0.097464
31,65,-0.654498,-0.814493,-0.174533,-0.174533,-0.651144,-0.801611,-0.151468,-0.168034,-0.33543,-0.360703,-0.346019,-0.0974643
31,65,-0.654498,-0.814493,-0.174533,-0.174533,-0.651144,-0.801611,-0.151468,-0.168034,-0.33543,-0.360703,-0.346019,-0.0974645
31,65,-0.654498,-0.814493,-0.174533,-0.174533,-0.651144,-0.801611,-0.151468,-0.168034,-0.33543,-0.360703,-0.346018,-0.0974648
31,65,-0.654498,-0.814493,-0.174533,-0.174533,-0.651144,-0.801611,-0.151468,-0.168034,-0.33543,-0.360703,-0.346017,-0.0974651
31,65,-0.654498,-0.814493,-0.174533,-0.174533,-0.651144,-0.801611,-0.151468,-0.168034,-0.33543,-0.360703,-0.346016,-0.0974653
31,65,-0.654498,-0.814493,-0.174533,-0.174533,-0.651144,-0.801611,-0.151468,-0.168034,-0.33543,-0.360703,-0.346016,-0.0974655
31,65,-0.654498,-0.814493,-0.174533,-0.174533,-0.651144,-0.801611,-0.151468,-0.168034,-0.33543,-0.360703,-0.346015,-0.0974658
31,65,-0.654498,-0.814493,-0.174533,-0.174533,-0.651144,-0.801611,-0.151468,-0.168034,-0.33543,-0.360703,-0.346014,-0.097466
31,65,-0.654498,-0.814493,-0.174533,-0.174533,-0.651144,-0.801611,-0.151468,-0.168034,-0.33543,-0.360703,-0.346014,-0.0974662
31,65,-0.654498,-0.814493,-0.174533,-0.174533,-0.651144,-0.801611,-0.151468,-0.168034,-0.33543,-0.360703,-0.346013,-0.0974664
31,65,-0.654498,-0.814493,-0.174533,-0.174533,-0.651144,-0.801611,-0.151468,-0.168034,-0.33543,-0.360703,-0.346012,-0.0974666
31,65,-0.654498,-0.814493,-0.174533,-0.174533,-0.651144,-0.801611,-0.151468,-0.168034,-0.33543,-0.360703,-0.346012,-0.0974668
31,65,-0.654498,-0.814493,-0.174533,-0.174533,-0.651144,-0.801611,-0.151468,-0.168034,-0.33543,-0.360703,-0.346011,-0.097467
31,65,-0.654498,-0.814493,-0.174533,-0.174533,-0.651144,-0.801611,-0.151468,-0.168034,-0.33543,-0.360703,-0.346011,-0.0974672
31,65,-0.654498,-0.814493,-0.174533,-0.174533,-0.651144,-0.801611,-0.151408,-0.168054,-0.33543,-0.360703,-0.346868,-0.0971801
31,65,-0.654498,-0.814493,-0.174533,-0.174533,-0.651144,-0.801611,-0.151408,-0.168054,-0.33543,-0.360703,-0.346868,-0.0971801
31,65,-0.654498,-0.814493,-0.174533,-0.174533,-0.651144,-0.801611,-0.151408,-0.168054,-0.33543,-0.360703,-0.346868,-0.0971801
31,65,-0.654498,-0.814493,-0.174533,-0.174533,-0.651144,-0.801611,-0.151408,-0.168054,-0.33543,-0.360703,-0.346868,-0.0971801
31,65,-0.654498,-0.814493,-0.174533,-0.174533,-0.651144,-0.801611,-0.151408,-0.168054,-0.33543,-0.360703,-0.346868,-0.0971801
31,65,-0.654498,-0.814493,-0.174533,-0.174533,-0.651144,-0.801611,-0.151408,-0.168054,-0.33543,-0.360703,-0.346868,-0.0971801
31,65,-0.654498,-0.814493,-0.174533,-0.174533,-0.651144,-0.801611,-0.151408,-0.168054,-0.33543,-0.360703,-0.346868,-0.0971801
31,65,-0.654498,-0.814493,-0.174533,-0.174533,-0.651144,-0.801611,-0.151408,-0.168054,-0.33543,-0.360703,-0.346868,-0.0971801
31,65,-0.654498,-0.814493,-0.174533,-0.174533,-0.651144,-0.801611,-0.151408,-0.168054,-0.33543,-0.360703,-0.346868,-0.0971801
31,65,-0.654498,-0.814493,-0.174533,-0.174533,-0.651144,-0.801611,-0.151408,-0.168054,-0.33543,-0.360703,-0.346868,-0.0971801
31,65,-0.654498,-0.814493,-0.174533,-0.174533,-0.651144,-0.801611,-0.151408,-0.168054,-0.33543,-0.360703,-0.346868,-0.0971801
31,65,-0.654498,-0.814493,-0.174533,-0.174533,-0.651144,-0.801611,-0.151408,-0.168054,-0.33543,-0.360703,-0.346868,-0.0971801
31,65,-0.654498,-0.814493,-0.174533,-0.174533,-0.651144,-0.801611,-0.151408,-0.168054,-0.33543,-0.360703,-0.346868,-0.0971801
31,65,-0.654498,-0.814493,-0.174533,-0.174533,-0.651144,-0.801611,-0.151408,-0.168054,-0.33543,-0.360703,-0.346868,-0.0971801
31,65,-0.654498,-0.814493,-0.174533,-0.174533,-0.651144,-0.801611,-0.151472,-0.168096,-0.33543,-0.360703,-0.345912,-0.0965592
31,65,-0.654498,-0.814493,-0.174533,-0.174533,-0.651144,-0.801611,-0.151472,-0.168096,-0.33543,-0.360703,-0.345912,-0.0965592
31,65,-0.654498,-0.814493,-0.174533,-0.174533,-0.651144,-0.801611,-0.151472,-0.168096,-0.33543,-0.360703,-0.345912,-0.0965592
31,65,-0.654498,-0.814493,-0.174533,-0.174533,-0.651144,-0.801611,-0.151472,-0.168096,-0.33543,-0.360703,-0.345912,-0.0965592
31,65,-0.654498,-0.814493,-0.174533,-0.174533,-0.651144,-0.801611,-0.151472,-0.168096,-0.33543,-0.360703,-0.345912,-0.0965592
31,65,-0.654498,-0.814493,-0.174533,-0.174533,-0.651144,-0.801611,-0.151472,-0.168096,-0.33543,-0.360703,-0.345912,-0.0965592
31,65,-0.654498,-0.814493,-0.174533,-0.174533,-0.651144,-0.801611,-0.151472,-0.168096,-0.33543,-0.360703,-0.345912,-0.0965592
31,65,-0.654498,-0.814493,-0.174533,-0.174533,-0.651144,-0.801611,-0.151472,-0.168096,-0.33543,-0.360703,-0.345912,-0.0965592
31,65,-0.654498,-0.814493,-0.174533,-0.174533,-0.651144,-0.801611,-0.151472,-0.168096,-0.33543,-0.360703,-0.345912,-0.0965592
31,65,-0.654498,-0.814493,-0.174533,-0.174533,-0.651144,-0.801611,-0.151413,-0.168116,-0.33543,-0.360703,-0.346805,-0.0962602
31,65,-0.654498,-0.814493,-0.174533,-0.174533,-0.651144,-0.801611,-0.151413,-0.168116,-0.33543,-0.360703,-0.346805,-0.0962602
31,65,-0.654498,-0.814493,-0.174533,-0.174533,-0.651144,-0.801611,-0.151413,-0.168116,-0.33543,-0.360703,-0.346805,-0.0962602
31,65,-0.654498,-0.814493,-0.174533,-0.174533,-0.651144,-0.801611,-0.151413,-0.168116,-0.33543,-0.360703,-0.346805,-0.0962602
31,65,-0.654498,-0.814493,-0.174533,-0.174533,-0.651144,-0.801611,-0.151411,-0.168056,-0.33543,-0.360703,-0.346833,-0.0971543
31,65,-0.654498,-0.814493,-0.174533,-0.174533,-0.651144,-0.801611,-0.151411,-0.168056,-0.33543,-0.360703,-0.346833,-0.0971543
31,65,-0.654498,-0.814493,-0.174533,-0.174533,-0.651144,-0.801611,-0.151411,-0.168056,-0.33543,-0.360703,-0.346833,-0.0971543
31,65,-0.654498,-0.814493,-0.174533,-0.174533,-0.651144,-0.801611,-0.151411,-0.168056,-0.33543,-0.360703,-0.346833,-0.0971543
31,65,-0.654498,-0.814493,-0.174533,-0.174533,-0.651144,-0.801611,-0.151411,-0.168056,-0.33543,-0.360703,-0.346833,-0.0971543
31,65,-0.654498,-0.814493,-0.174533,-0.174533,-0.651144,-0.801611,-0.151411,-0.168056,-0.33543,-0.360703,-0.346833,-0.0971543
31,65,-0.654498,-0.814493,-0.174533,-0.174533,-0.651144,-0.801611,-0.151411,-0.168056,-0.33543,-0.360703,-0.346833,-0.0971543
31,65,-0.654498,-0.814493,-0.174533,-0.174533,-0.651144,-0.801611,-0.151411,-0.168056,-0.33543,-0.360703,-0.346833,-0.0971543
31,65,-0.654498,-0.814493,-0.174533,-0.174533,-0.651144,-0.801611,-0.151411,-0.168056,-0.33543,-0.360703,-0.346833,-0.0971543
31,65,-0.654498,-0.814493,-0.174533,-0.174533,-0.651144,-0.801611,-0.151411,-0.168056,-0.33543,-0.360703,-0.346833,-0.0971543
31,65,-0.654498,-0.814493,-0.174533,-0.174533,-0.651144,-0.801611,-0.151351,-0.168076,-0.33543,-0.360703,-0.347726,-0.0968552
31,65,-0.654498,-0.814493,-0.174533,-0.174533,-0.651144,-0.801611,-0.151351,-0.168076,-0.33543,-0.360703,-0.347726,-0.0968552
31,65,-0.654498,-0.814493,-0.174533,-0.174533,-0.651144,-0.801611,-0.151351,-0.168076,-0.33543,-0.360703,-0.347726,-0.0968552
31,65,-0.654498,-0.814493,-0.174533,-0.174533,-0.651144,-0.801611,-0.151351,-0.168076,-0.33543,-0.360703,-0.347726,-0.0968552
31,65,-0.654498,-0.814493,-0.174533,-0.174533,-0.651144,-0.801611,-0.151351,-0.168076,-0.33543,-0.360703,-0.347726,-0.0968552
31,65,-0.654498,-0.814493,-0.174533,-0.174533,-0.651144,-0.801611,-0.151351,-0.168076,-0.33543,-0.360703,-0.347726,-0.0968552
31,65,-0.654498,-0.814493,-0.174533,-0.174533,-0.651144,-0.801611,-0.151351,-0.168076,-0.33543,-0.360703,-0.347726,-0.0968552
31,65,-0.654498,-0.814493,-0.174533,-0.174533,-0.651144,-0.801611,-0.151351,-0.168076,-0.33543,-0.360703,-0.347726,-0.0968552
31,65,-0.654498,-0.814493,-0.174533,-0.174533,-0.651144,-0.801611,-0.151351,-0.168076,-0.33543,-0.360703,-0.347726,-0.0968552
31,65,-0.654498,-0.814493,-0.174533,-0.174533,-0.651144,-0.801611,-0.151351,-0.168076,-0.33543,-0.360703,-0.347726,-0.0968552
31,65,-0.654498,-0.814493,-0.174533,-0.174533,-0.651144,-0.801611,-0.151351,-0.168076,-0.33543,-0.360703,-0.347726,-0.0968552
31,65,-0.654498,-0.814493,-0.174533,-0.174533,-0.651144,-0.801611,-0.151292,-0.168096,-0.33543,-0.360703,-0.348619,-0.0965562
31,65,-0.654498,-0.814493,-0.174533,-0.174533,-0.651144,-0.801611,-0.151292,-0.168096,-0.33543,-0.360703,-0.348619,-0.0965562
31,65,-0.654498,-0.814493,-0.174533,-0.174533,-0.651144,-0.801611,-0.151292,-0.168096,-0.33543,-0.360703,-0.348619,-0.0965562
31,65,-0.654498,-0.814493,-0.174533,-0.174533,-0.651144,-0.801611,-0.151292,-0.168096,-0.33543,-0.360703,-0.348619,-0.0965562
31,65,-0.654498,-0.814493,-0.174533,-0.174533,-0.651144,-0.801611,-0.151292,-0.168096,-0.33543,-0.360703,-0.348619,-0.0965562
31,65,-0.654498,-0.814493,-0.174533,-0.174533,-0.651144,-0.801611,-0.151292,-0.168096,-0.33543,-0.360703,-0.348619,-0.0965562
31,65,-0.654498,-0.814493,-0.174533,-0.174533,-0.651144,-0.801611,-0.151292,-0.168096,-0.33543,-0.360703,-0.348619,-0.0965562
31,65,-0.654498,-0.814493,-0.174533,-0.174533,-0.651144,-0.801611,-0.151292,-0.168096,-0.33543,-0.360703,-0.348619,-0.0965562
31,65,-0.654498,-0.814493,-0.174533,-0.174533,-0.651144,-0.801611,-0.151292,-0.168096,-0.33543,-0.360703,-0.348619,-0.0965562
31,65,-0.654498,-0.814493,-0.174533,-0.174533,-0.651144,-0.801611,-0.151292,-0.168096,-0.33543,-0.360703,-0.348619,-0.0965562
31,65,-0.654498,-0.814493,-0.174533,-0.174533,-0.651144,-0.801611,-0.151292,-0.168096,-0.33543,-0.360703,-0.348619,-0.0965562
31,65,-0.654498,-0.814493,-0.174533,-0.174533,-0.651144,-0.801611,-0.151292,-0.168096,-0.33543,-0.360703,-0.348619,-0.0965562
31,65,-0.654498,-0.814493,-0.174533,-0.174533,-0.651144,-0.801611,-0.151292,-0.168096,-0.33543,-0.360703,-0.348619,-0.0965562
31,65,-0.654498,-0.814493,-0.174533,-0.174533,-0.651144,-0.801611,-0.151292,-0.168096,-0.33543,-0.360703,-0.348619,-0.0965562
31,65,-0.654498,-0.814493,-0.174533,-0.174533,-0.651144,-0.801611,-0.151292,-0.168096,-0.33543,-0.360703,-0.348619,-0.0965562
31,65,-0.654498,-0.814493,-0.174533,-0.174533,-0.651144,-0.801611,-0.151292,-0.168096,-0.33543,-0.360703,-0.348619,-0.0965562
31,65,-0.654498,-0.814493,-0.174533,-0.174533,-0.651144,-0.801611,-0.151292,-0.168096,-0.33543,-0.360703,-0.348619,-0.0965562
31,65,-0.654498,-0.814493,-0.174533,-0.174533,-0.651144,-0.801611,-0.151292,-0.168096,-0.33543,-0.360703,-0.348619,-0.0965562
31,65,-0.654498,-0.814493,-0.174533,-0.174533,-0.651144,-0.801611,-0.151292,-0.168096,-0.33543,-0.360703,-0.348619,-0.0965562
31,65,-0.654498,-0.814493,-0.174533,-0.174533,-0.651144,-0.801611,-0.151292,-0.168096,-0.33543,-0.360703,-0.348619,-0.0965562
31,65,-0.654498,-0.814493,-0.174533,-0.174533,-0.651144,-0.801611,-0.151232,-0.168116,-0.33543,-0.360703,-0.349547,-0.0962453
31,65,-0.654498,-0.814493,-0.174533,-0.174533,-0.651144,-0.801611,-0.151232,-0.168116,-0.33543,-0.360703,-0.349547,-0.0962453
31,65,-0.654498,-0.814493,-0.174533,-0.174533,-0.651144,-0.801611,-0.151232,-0.168116,-0.33543,-0.360703,-0.349547,-0.0962453
31,65,-0.654498,-0.814493,-0.174533,-0.174533,-0.651144,-0.801611,-0.151232,-0.168116,-0.33543,-0.360703,-0.349547,-0.0962453
31,65,-0.654498,-0.814493,-0.174533,-0.174533,-0.651144,-0.801611,-0.151232,-0.168116,-0.33543,-0.360703,-0.349547,-0.0962453
31,65,-0.654498,-0.814493,-0.174533,-0.174533,-0.651144,-0.801611,-0.151232,-0.168116,-0.33543,-0.360703,-0.349547,-0.0962453
31,65,-0.654498,-0.814493,-0.174533,-0.174533,-0.651144,-0.801611,-0.151232,-0.168116,-0.33543,-0.360703,-0.349547,-0.0962453
31,65,-0.654498,-0.814493,-0.174533,-0.174533,-0.651144,-0.801611,-0.151232,-0.168116,-0.33543,-0.360703,-0.349547,-0.0962453
31,65,-0.654498,-0.814493,-0.174533,-0.174533,-0.651144,-0.801611,-0.151232,-0.168116,-0.33543,-0.360703,-0.349547,-0.0962453
31,65,-0.654498,-0.814493,-0.174533,-0.174533,-0.651144,-0.801611,-0.151232,-0.168116,-0.33543,-0.360703,-0.349547,-0.0962453
31,65,-0.654498,-0.814493,-0.174533,-0.174533,-0.651144,-0.801611,-0.151232,-0.168116,-0.33543,-0.360703,-0.349547,-0.0962453
31,65,-0.654498,-0.814493,-0.174533,-0.174533,-0.651144,-0.801611,-0.151232,-0.168116,-0.33543,-0.360703,-0.349547,-0.0962453
31,65,-0.654498,-0.814493,-0.174533,-0.174533,-0.651144,-0.801611,-0.151232,-0.168116,-0.33543,-0.360703,-0.349547,-0.0962453
31,65,-0.654498,-0.814493,-0.174533,-0.174533,-0.651144,-0.801611,-0.151232,-0.168116,-0.33543,-0.360703,-0.349547,-0.0962453
31,65,-0.654498,-0.814493,-0.174533,-0.174533,-0.651144,-0.801611,-0.151232,-0.168116,-0.33543,-0.360703,-0.349547,-0.0962453
31,65,-0.654498,-0.814493,-0.174533,-0.174533,-0.651144,-0.801611,-0.151232,-0.168116,-0.33543,-0.360703,-0.349547,-0.0962453
31,65,-0.654498,-0.814493,-0.174533,-0.174533,-0.651144,-0.801611,-0.151232,-0.168116,-0.33543,-0.360703,-0.349547,-0.0962453
31,65,-0.654498,-0.814493,-0.174533,-0.174533,-0.651144,-0.801611,-0.151232,-0.168116,-0.33543,-0.360703,-0.349547,-0.0962453
31,65,-0.654498,-0.814493,-0.174533,-0.174533,-0.651144,-0.801611,-0.151232,-0.168116,-0.33543,-0.360703,-0.349547,-0.0962453
31,65,-0.654498,-0.814493,-0.174533,-0.174533,-0.651144,-0.801611,-0.151232,-0.168116,-0.33543,-0.360703,-0.349547,-0.0962453
31,65,-0.654498,-0.814493,-0.174533,-0.174533,-0.651144,-0.801611,-0.151232,-0.168116,-0.33543,-0.360703,-0.349547,-0.0962453
31,65,-0.654498,-0.814493,-0.174533,-0.174533,-0.651144,-0.801611,-0.151232,-0.168116,-0.33543,-0.360703,-0.349547,-0.0962453
31,65,-0.654498,-0.814493,-0.174533,-0.174533,-0.651144,-0.801611,-0.151232,-0.168116,-0.33543,-0.360703,-0.349547,-0.0962453
31,65,-0.654498,-0.814493,-0.174533,-0.174533,-0.651144,-0.801611,-0.151232,-0.168116,-0.33543,-0.360703,-0.349547,-0.0962453
31,65,-0.654498,-0.814493,-0.174533,-0.174533,-0.651144,-0.801611,-0.151232,-0.168116,-0.33543,-0.360703,-0.349547,-0.0962453
31,65,-0.654498,-0.814493,-0.174533,-0.174533,-0.651144,-0.801611,-0.151232,-0.168116,-0.33543,-0.360703,-0.349547,-0.0962453
31,65,-0.654498,-0.814493,-0.174533,-0.174533,-0.651144,-0.801611,-0.151232,-0.168116,-0.33543,-0.360703,-0.349547,-0.0962453
31,65,-0.654498,-0.814493,-0.174533,-0.174533,-0.651144,-0.801611,-0.151232,-0.168116,-0.33543,-0.360703,-0.349547,-0.0962453
31,65,-0.654498,-0.814493,-0.174533,-0.174533,-0.651144,-0.801611,-0.151232,-0.168116,-0.33543,-0.360703,-0.349547,-0.0962453
31,65,-0.654498,-0.814493,-0.174533,-0.174533,-0.651144,-0.801611,-0.151232,-0.168116,-0.33543,-0.360703,-0.349547,-0.0962453
31,65,-0.654498,-0.814493,-0.174533,-0.174533,-0.651144,-0.801611,-0.151232,-0.168116,-0.33543,-0.360703,-0.349547,-0.0962453
31,65,-0.654498,-0.814493,-0.174533,-0.174533,-0.651144,-0.801611,-0.151232,-0.168116,-0.33543,-0.360703,-0.349547,-0.0962453
31,65,-0.654498,-0.814493,-0.174533,-0.174533,-0.651144,-0.801611,-0.151232,-0.168116,-0.33543,-0.360703,-0.349547,-0.0962453
31,65,-0.654498,-0.814493,-0.174533,-0.174533,-0.651144,-0.801611,-0.151232,-0.168116,-0.33543,-0.360703,-0.349547,-0.0962453
31,65,-0.654498,-0.814493,-0.174533,-0.174533,-0.651144,-0.801611,-0.151232,-0.168116,-0.33543,-0.360703,-0.349547,-0.0962453
31,65,-0.654498,-0.814493,-0.174533,-0.174533,-0.651144,-0.801611,-0.151232,-0.168116,-0.33543,-0.360703,-0.349547,-0.0962453
31,65,-0.654498,-0.814493,-0.174533,-0.174533,-0.651144,-0.801611,-0.151232,-0.168116,-0.33543,-0.360703,-0.349547,-0.0962453
31,65,-0.654498,-0.814493,-0.174533,-0.174533,-0.651144,-0.801611,-0.151232,-0.168116,-0.33543,-0.360703,-0.349547,-0.0962453
31,65,-0.654498,-0.814493,-0.174533,-0.174533,-0.651144,-0.801611,-0.151232,-0.168116,-0.33543,-0.360703,-0.349547,-0.0962453
31,65,-0.654498,-0.814493,-0.174533,-0.174533,-0.651144,-0.801611,-0.151232,-0.168116,-0.33543,-0.360703,-0.349547,-0.0962453
31,65,-0.654498,-0.814493,-0.174533,-0.174533,-0.651144,-0.801611,-0.15123,-0.168056,-0.33543,-0.360703,-0.349575,-0.0971394
31,65,-0.654498,-0.814493,-0.174533,-0.174533,-0.651144,-0.801611,-0.15123,-0.168056,-0.33543,-0.360703,-0.349575,-0.0971394
31,65,-0.654498,-0.814493,-0.174533,-0.174533,-0.651144,-0.801611,-0.15123,-0.168056,-0.33543,-0.360703,-0.349575,-0.0971394
31,65,-0.654498,-0.814493,-0.174533,-0.174533,-0.651144,-0.801611,-0.15123,-0.168056,-0.33543,-0.360703,-0.349575,-0.0971394
31,65,-0.654498,-0.814493,-0.174533,-0.174533,-0.651144,-0.801611,-0.15123,-0.168056,-0.33543,-0.360703,-0.349575,-0.0971394
31,65,-0.654498,-0.814493,-0.174533,-0.174533,-0.651144,-0.801611,-0.15123,-0.168056,-0.33543,-0.360703,-0.349575,-0.0971394
31,65,-0.654498,-0.814493,-0.174533,-0.174533,-0.651144,-0.801611,-0.15123,-0.168056,-0.33543,-0.360703,-0.349575,-0.0971394
31,65,-0.654498,-0.814493,-0.174533,-0.174533,-0.651144,-0.801611,-0.15123,-0.168056,-0.33543,-0.360703,-0.349575,-0.0971394
31,65,-0.654498,-0.814493,-0.174533,-0.174533,-0.651144,-0.801611,-0.15123,-0.168056,-0.33543,-0.360703,-0.349575,-0.0971394
31,65,-0.654498,-0.814493,-0.174533,-0.174533,-0.651144,-0.801611,-0.15123,-0.168056,-0.33543,-0.360703,-0.349575,-0.0971394
31,65,-0.654498,-0.814493,-0.174533,-0.174533,-0.651144,-0.801611,-0.15123,-0.168056,-0.33543,-0.360703,-0.349575,-0.0971394
31,65,-0.654498,-0.814493,-0.174533,-0.174533,-0.651144,-0.801611,-0.15123,-0.168056,-0.33543,-0.360703,-0.349575,-0.0971394
31,65,-0.654498,-0.814493,-0.174533,-0.174533,-0.651144,-0.801611,-0.15123,-0.168056,-0.33543,-0.360703,-0.349575,-0.0971394
31,65,-0.654498,-0.814493,-0.174533,-0.174533,-0.651144,-0.801611,-0.15123,-0.168056,-0.33543,-0.360703,-0.349575,-0.0971394
31,65,-0.654498,-0.814493,-0.174533,-0.174533,-0.651144,-0.801611,-0.15123,-0.168056,-0.33543,-0.360703,-0.349575,-0.0971394
31,65,-0.654498,-0.814493,-0.174533,-0.174533,-0.651144,-0.801611,-0.15123,-0.168056,-0.33543,-0.360703,-0.349575,-0.0971394
31,65,-0.654498,-0.814493,-0.174533,-0.174533,-0.651144,-0.801611,-0.15123,-0.168056,-0.33543,-0.360703,-0.349575,-0.0971394
31,65,-0.654498,-0.814493,-0.174533,-0.174533,-0.651144,-0.801611,-0.15123,-0.168056,-0.33543,-0.360703,-0.349575,-0.0971394
31,65,-0.654498,-0.814493,-0.174533,-0.174533,-0.651144,-0.801611,-0.15123,-0.168056,-0.33543,-0.360703,-0.349575,-0.0971394
31,65,-0.654498,-0.814493,-0.174533,-0.174533,-0.651144,-0.801611,-0.15123,-0.168056,-0.33543,-0.360703,-0.349575,-0.0971394
31,65,-0.654498,-0.814493,-0.174533,-0.174533,-0.651144,-0.801611,-0.15123,-0.168056,-0.33543,-0.360703,-0.349575,-0.0971394
31,65,-0.654498,-0.814493,-0.174533,-0.174533,-0.651144,-0.801611,-0.15123,-0.168056,-0.33543,-0.360703,-0.349575,-0.0971394
31,65,-0.654498,-0.814493,-0.174533,-0.174533,-0.651144,-0.801611,-0.15123,-0.168056,-0.33543,-0.360703,-0.349575,-0.0971394
31,65,-0.654498,-0.814493,-0.174533,-0.174533,-0.651144,-0.801611,-0.15123,-0.168056,-0.33543,-0.360703,-0.349575,-0.0971394
31,65,-0.654498,-0.814493,-0.174533,-0.174533,-0.651144,-0.801611,-0.15123,-0.168056,-0.33543,-0.360703,-0.349575,-0.0971394
31,65,-0.654498,-0.814493,-0.174533,-0.174533,-0.651144,-0.801611,-0.15123,-0.168056,-0.33543,-0.360703,-0.349575,-0.0971394
31,65,-0.654498,-0.814493,-0.174533,-0.174533,-0.651144,-0.801611,-0.15123,-0.168056,-0.33543,-0.360703,-0.349575,-0.0971394
31,65,-0.654498,-0.814493,-0.174533,-0.174533,-0.651144,-0.801611,-0.15123,-0.168056,-0.33543,-0.360703,-0.349575,-0.0971394
31,65,-0.654498,-0.814493,-0.174533,-0.174533,-0.651144,-0.801611,-0.15123,-0.168056,-0.33543,-0.360703,-0.349574,-0.0971395
31,65,-0.654498,-0.814493,-0.174533,-0.174533,-0.651144,-0.801611,-0.15123,-0.168056,-0.33543,-0.360703,-0.349574,-0.0971397
31,65,-0.654498,-0.814493,-0.174533,-0.174533,-0.651144,-0.801611,-0.15123,-0.168056,-0.33543,-0.360703,-0.349573,-0.0971399
31,65,-0.654498,-0.814493,-0.174533,-0.174533,-0.651144,-0.801611,-0.15123,-0.168056,-0.33543,-0.360703,-0.349573,-0.09714
31,65,-0.654498,-0.814493,-0.174533,-0.174533,-0.651144,-0.801611,-0.15123,-0.168056,-0.33543,-0.360703,-0.349572,-0.0971402
31,65,-0.654498,-0.814493,-0.174533,-0.174533,-0.651144,-0.801611,-0.15123,-0.168056,-0.33543,-0.360703,-0.349572,-0.0971403
31,65,-0.654498,-0.814493,-0.174533,-0.174533,-0.651144,-0.801611,-0.151294,-0.168098,-0.33543,-0.360703,-0.348616,-0.0965197
31,65,-0.654498,-0.814493,-0.174533,-0.174533,-0.651144,-0.801611,-0.151294,-0.168098,-0.33543,-0.360703,-0.348616,-0.0965198
31,65,-0.654498,-0.814493,-0.174533,-0.174533,-0.651144,-0.801611,-0.151294,-0.168098,-0.33543,-0.360703,-0.348615,-0.09652
31,65,-0.654498,-0.814493,-0.174533,-0.174533,-0.651144,-0.801611,-0.151294,-0.168098,-0.33543,-0.360703,-0.348615,-0.0965201
31,65,-0.654498,-0.814493,-0.174533,-0.174533,-0.651144,-0.801611,-0.151294,-0.168098,-0.33543,-0.360703,-0.348614,-0.0965202
31,65,-0.654498,-0.814493,-0.174533,-0.174533,-0.651144,-0.801611,-0.151294,-0.168098,-0.33543,-0.360703,-0.348614,-0.0965204
31,65,-0.654498,-0.814493,-0.174533,-0.174533,-0.651144,-0.801611,-0.151294,-0.168098,-0.33543,-0.360703,-0.348614,-0.0965205
31,65,-0.654498,-0.814493,-0.174533,-0.174533,-0.651144,-0.801611,-0.151294,-0.168098,-0.33543,-0.360703,-0.348613,-0.0965206
31,65,-0.654498,-0.814493,-0.174533,-0.174533,-0.651144,-0.801611,-0.151294,-0.168098,-0.33543,-0.360703,-0.348613,-0.0965207
31,65,-0.654498,-0.814493,-0.174533,-0.174533,-0.651144,-0.801611,-0.151294,-0.168098,-0.33543,-0.360703,-0.348613,-0.0965208
31,65,-0.654498,-0.814493,-0.174533,-0.174533,-0.651144,-0.801611,-0.151294,-0.168098,-0.33543,-0.360703,-0.348584,-0.0965304
31,65,-0.654498,-0.814493,-0.174533,-0.174533,-0.651144,-0.801611,-0.151294,-0.168098,-0.33543,-0.360703,-0.348584,-0.0965304
31,65,-0.654498,-0.814493,-0.174533,-0.174533,-0.651144,-0.801611,-0.151294,-0.168098,-0.33543,-0.360703,-0.348584,-0.0965304
31,65,-0.654498,-0.814493,-0.174533,-0.174533,-0.651144,-0.801611,-0.151294,-0.168098,-0.33543,-0.360703,-0.348584,-0.0965304
31,65,-0.654498,-0.814493,-0.174533,-0.174533,-0.651144,-0.801611,-0.151294,-0.168098,-0.33543,-0.360703,-0.348584,-0.0965304
31,65,-0.654498,-0.814493,-0.174533,-0.174533,-0.651144,-0.801611,-0.151294,-0.168098,-0.33543,-0.360703,-0.348584,-0.0965304
31,65,-0.654498,-0.814493,-0.174533,-0.174533,-0.651144,-0.801611,-0.151294,-0.168098,-0.33543,-0.360703,-0.348584,-0.0965304
31,65,-0.654498,-0.814493,-0.174533,-0.174533,-0.651144,-0.801611,-0.151294,-0.168098,-0.33543,-0.360703,-0.348584,-0.0965304
31,65,-0.654498,-0.814493,-0.174533,-0.174533,-0.651144,-0.801611,-0.151294,-0.168098,-0.33543,-0.360703,-0.348584,-0.0965304
31,65,-0.654498,-0.814493,-0.174533,-0.174533,-0.651144,-0.801611,-0.151294,-0.168098,-0.33543,-0.360703,-0.348584,-0.0965304
31,65,-0.654498,-0.814493,-0.174533,-0.174533,-0.651144,-0.801611,-0.151294,-0.168098,-0.33543,-0.360703,-0.348584,-0.0965304
31,65,-0.654498,-0.814493,-0.174533,-0.174533,-0.651144,-0.801611,-0.151294,-0.168098,-0.33543,-0.360703,-0.348584,-0.0965304
31,65,-0.654498,-0.814493,-0.174533,-0.174533,-0.651144,-0.801611,-0.151294,-0.168098,-0.33543,-0.360703,-0.348584,-0.0965304
31,65,-0.654498,-0.814493,-0.174533,-0.174533,-0.651144,-0.801611,-0.151294,-0.168098,-0.33543,-0.360703,-0.348584,-0.0965304
31,65,-0.654498,-0.814493,-0.174533,-0.174533,-0.651144,-0.801611,-0.151294,-0.168098,-0.33543,-0.360703,-0.348584,-0.0965304
31,65,-0.654498,-0.814493,-0.174533,-0.174533,-0.651144,-0.801611,-0.151294,-0.168098,-0.33543,-0.360703,-0.348584,-0.0965304
31,65,-0.654498,-0.814493,-0.174533,-0.174533,-0.651144,-0.801611,-0.151294,-0.168098,-0.33543,-0.360703,-0.348584,-0.0965304
31,65,-0.654498,-0.814493,-0.174533,-0.174533,-0.651144,-0.801611,-0.151294,-0.168098,-0.33543,-0.360703,-0.348584,-0.0965304
31,65,-0.654498,-0.814493,-0.174533,-0.174533,-0.651144,-0.801611,-0.151294,-0.168098,-0.33543,-0.360703,-0.348584,-0.0965304
31,65,-0.654498,-0.814493,-0.174533,-0.174533,-0.651144,-0.801611,-0.151294,-0.168098,-0.33543,-0.360703,-0.348584,-0.0965304
31,65,-0.654498,-0.814493,-0.174533,-0.174533,-0.651144,-0.801611,-0.151294,-0.168098,-0.33543,-0.360703,-0.348584,-0.0965304
31,65,-0.654498,-0.814493,-0.174533,-0.174533,-0.651144,-0.801611,-0.151294,-0.168098,-0.33543,-0.360703,-0.348584,-0.0965304
31,65,-0.654498,-0.814493,-0.174533,-0.174533,-0.651144,-0.801611,-0.151294,-0.168098,-0.33543,-0.360703,-0.348584,-0.0965304
31,65,-0.654498,-0.814493,-0.174533,-0.174533,-0.651144,-0.801611,-0.151294,-0.168098,-0.33543,-0.360703,-0.348584,-0.0965304
31,65,-0.654498,-0.814493,-0.174533,-0.174533,-0.651144,-0.801611,-0.151294,-0.168098,-0.33543,-0.360703,-0.348584,-0.0965304
31,65,-0.654498,-0.814493,-0.174533,-0.174533,-0.651144,-0.801611,-0.151294,-0.168098,-0.33543,-0.360703,-0.348584,-0.0965304
31,65,-0.654498,-0.814493,-0.174533,-0.174533,-0.651144,-0.801611,-0.151294,-0.168098,-0.33543,-0.360703,-0.348584,-0.0965304
31,65,-0.654498,-0.814493,-0.174533,-0.174533,-0.651144,-0.801611,-0.151294,-0.168098,-0.33543,-0.360703,-0.348584,-0.0965304
31,65,-0.654498,-0.814493,-0.174533,-0.174533,-0.651144,-0.801611,-0.151294,-0.168098,-0.33543,-0.360703,-0.348584,-0.0965304
31,65,-0.654498,-0.814493,-0.174533,-0.174533,-0.651144,-0.801611,-0.151294,-0.168098,-0.33543,-0.360703,-0.348584,-0.0965304
31,65,-0.654498,-0.814493,-0.174533,-0.174533,-0.651144,-0.801611,-0.151294,-0.168098,-0.33543,-0.360703,-0.348584,-0.0965304
31,65,-0.654498,-0.814493,-0.174533,-0.174533,-0.651144,-0.801611,-0.151294,-0.168098,-0.33543,-0.360703,-0.348584,-0.0965304
31,65,-0.654498,-0.814493,-0.174533,-0.174533,-0.651144,-0.801611,-0.151294,-0.168098,-0.33543,-0.360703,-0.348584,-0.0965304
31,65,-0.654498,-0.814493,-0.174533,-0.174533,-0.651144,-0.801611,-0.151294,-0.168098,-0.33543,-0.360703,-0.348584,-0.0965304
31,65,-0.654498,-0.814493,-0.174533,-0.174533,-0.651144,-0.801611,-0.151294,-0.168098,-0.33543,-0.360703,-0.348584,-0.0965304
31,65,-0.654498,-0.814493,-0.174533,-0.174533,-0.651144,-0.801611,-0.151294,-0.168098,-0.33543,-0.360703,-0.348584,-0.0965304
31,65,-0.654498,-0.814493,-0.174533,-0.174533,-0.651144,-0.801611,-0.151294,-0.168098,-0.33543,-0.360703,-0.348584,-0.0965304
31,65,-0.654498,-0.814493,-0.174533,-0.174533,-0.651144,-0.801611,-0.151294,-0.168098,-0.33543,-0.360703,-0.348584,-0.0965304
31,65,-0.654498,-0.814493,-0.174533,-0.174533,-0.651144,-0.801611,-0.151294,-0.168098,-0.33543,-0.360703,-0.348584,-0.0965304
31,65,-0.654498,-0.814493,-0.174533,-0.174533,-0.651144,-0.801611,-0.151294,-0.168098,-0.33543,-0.360703,-0.348584,-0.0965304
31,65,-0.654498,-0.814493,-0.174533,-0.174533,-0.651144,-0.801611,-0.151294,-0.168098,-0.33543,-0.360703,-0.348584,-0.0965304
31,65,-0.654498,-0.814493,-0.174533,-0.174533,-0.651144,-0.801611,-0.151294,-0.168098,-0.33543,-0.360703,-0.348584,-0.0965304
31,65,-0.654498,-0.814493,-0.174533,-0.174533,-0.651144,-0.801611,-0.151294,-0.168098,-0.33543,-0.360703,-0.348584,-0.0965304
31,65,-0.654498,-0.814493,-0.174533,-0.174533,-0.651144,-0.801611,-0.151294,-0.168098,-0.33543,-0.360703,-0.348584,-0.0965304
31,65,-0.654498,-0.814493,-0.174533,-0.174533,-0.651144,-0.801611,-0.151294,-0.168098,-0.33543,-0.360703,-0.348584,-0.0965304
31,65,-0.654498,-0.814493,-0.174533,-0.174533,-0.651144,-0.801611,-0.151294,-0.168098,-0.33543,-0.360703,-0.348584,-0.0965304
31,65,-0.654498,-0.814493,-0.174533,-0.174533,-0.651144,-0.801611,-0.151294,-0.168098,-0.33543,-0.360703,-0.348584,-0.0965304
31,65,-0.654498,-0.814493,-0.174533,-0.174533,-0.651144,-0.801611,-0.151294,-0.168098,-0.33543,-0.360703,-0.348584,-0.0965304
31,65,-0.654498,-0.814493,-0.174533,-0.174533,-0.651144,-0.801611,-0.151294,-0.168098,-0.33543,-0.360703,-0.348584,-0.0965304
31,65,-0.654498,-0.814493,-0.174533,-0.174533,-0.651144,-0.801611,-0.151294,-0.168098,-0.33543,-0.360703,-0.348584,-0.0965304
31,65,-0.654498,-0.814493,-0.174533,-0.174533,-0.651144,-0.801611,-0.151294,-0.168098,-0.33543,-0.360703,-0.348584,-0.0965304
31,65,-0.654498,-0.814493,-0.174533,-0.174533,-0.651144,-0.801611,-0.151294,-0.168098,-0.33543,-0.360703,-0.348584,-0.0965304
31,65,-0.654498,-0.814493,-0.174533,-0.174533,-0.651144,-0.801611,-0.151294,-0.168098,-0.33543,-0.360703,-0.348584,-0.0965304
31,65,-0.654498,-0.814493,-0.174533,-0.174533,-0.651144,-0.801611,-0.151294,-0.168098,-0.33543,-0.360703,-0.348584,-0.0965304
31,65,-0.654498,-0.814493,-0.174533,-0.174533,-0.651144,-0.801611,-0.151294,-0.168098,-0.33543,-0.360703,-0.348584,-0.0965304
31,65,-0.654498,-0.814493,-0.174533,-0.174533,-0.651144,-0.801611,-0.151294,-0.168098,-0.33543,-0.360703,-0.348584,-0.0965304
31,65,-0.654498,-0.814493,-0.174533,-0.174533,-0.651144,-0.801611,-0.151294,-0.168098,-0.33543,-0.360703,-0.348584,-0.0965304
31,65,-0.654498,-0.814493,-0.174533,-0.174533,-0.651144,-0.801611,-0.151294,-0.168098,-0.33543,-0.360703,-0.348584,-0.0965304
31,65,-0.654498,-0.814493,-0.174533,-0.174533,-0.651144,-0.801611,-0.151294,-0.168098,-0.33543,-0.360703,-0.348584,-0.0965304
31,65,-0.654498,-0.814493,-0.174533,-0.174533,-0.651144,-0.801611,-0.151294,-0.168098,-0.33543,-0.360703,-0.348584,-0.0965304
31,65,-0.654498,-0.814493,-0.174533,-0.174533,-0.651144,-0.801611,-0.151294,-0.168098,-0.33543,-0.360703,-0.348584,-0.0965304
31,65,-0.654498,-0.814493,-0.174533,-0.174533,-0.651144,-0.801611,-0.151294,-0.168098,-0.33543,-0.360703,-0.348584,-0.0965304
31,65,-0.654498,-0.814493,-0.174533,-0.174533,-0.651144,-0.801611,-0.151294,-0.168098,-0.33543,-0.360703,-0.348584,-0.0965304
31,65,-0.654498,-0.814493,-0.174533,-0.174533,-0.651144,-0.801611,-0.151294,-0.168098,-0.33543,-0.360703,-0.348584,-0.0965304
31,65,-0.654498,-0.814493,-0.174533,-0.174533,-0.651144,-0.801611,-0.151294,-0.168098,-0.33543,-0.360703,-0.348584,-0.0965304
31,65,-0.654498,-0.814493,-0.174533,-0.174533,-0.651144,-0.801611,-0.151294,-0.168098,-0.33543,-0.360703,-0.348584,-0.0965304
31,65,-0.654498,-0.814493,-0.174533,-0.174533,-0.651144,-0.801611,-0.151294,-0.168098,-0.33543,-0.360703,-0.348584,-0.0965304
31,65,-0.654498,-0.814493,-0.174533,-0.174533,-0.651144,-0.801611,-0.151294,-0.168098,-0.33543,-0.360703,-0.348584,-0.0965304
31,65,-0.654498,-0.814493,-0.174533,-0.174533,-0.651144,-0.801611,-0.151294,-0.168098,-0.33543,-0.360703,-0.348584,-0.0965304
31,65,-0.654498,-0.814493,-0.174533,-0.174533,-0.651144,-0.801611,-0.151294,-0.168098,-0.33543,-0.360703,-0.348584,-0.0965304
31,65,-0.654498,-0.814493,-0.174533,-0.174533,-0.651144,-0.801611,-0.151294,-0.168098,-0.33543,-0.360703,-0.348584,-0.0965304
31,65,-0.654498,-0.814493,-0.174533,-0.174533,-0.651144,-0.801611,-0.151294,-0.168098,-0.33543,-0.360703,-0.348584,-0.0965304
31,65,-0.654498,-0.814493,-0.174533,-0.174533,-0.651144,-0.801611,-0.151294,-0.168098,-0.33543,-0.360703,-0.348584,-0.0965304
31,65,-0.654498,-0.814493,-0.174533,-0.174533,-0.651144,-0.801611,-0.151294,-0.168098,-0.33543,-0.360703,-0.348584,-0.0965304
31,65,-0.654498,-0.814493,-0.174533,-0.174533,-0.651144,-0.801611,-0.151294,-0.168098,-0.33543,-0.360703,-0.348584,-0.0965304
31,65,-0.654498,-0.814493,-0.174533,-0.174533,-0.651144,-0.801611,-0.151294,-0.168098,-0.33543,-0.360703,-0.348584,-0.0965304
31,65,-0.654498,-0.814493,-0.174533,-0.174533,-0.651144,-0.801611,-0.151294,-0.168098,-0.33543,-0.360703,-0.348584,-0.0965304
31,65,-0.654498,-0.814493,-0.174533,-0.174533,-0.651144,-0.801611,-0.151294,-0.168098,-0.33543,-0.360703,-0.348584,-0.0965304
31,65,-0.654498,-0.814493,-0.174533,-0.174533,-0.651144,-0.801611,-0.151294,-0.168098,-0.33543,-0.360703,-0.348584,-0.0965304
31,65,-0.654498,-0.814493,-0.174533,-0.174533,-0.651144,-0.801611,-0.151294,-0.168098,-0.33543,-0.360703,-0.348584,-0.0965304
31,65,-0.654498,-0.814493,-0.174533,-0.174533,-0.651144,-0.801611,-0.151294,-0.168098,-0.33543,-0.360703,-0.348584,-0.0965304
31,65,-0.654498,-0.814493,-0.174533,-0.174533,-0.651144,-0.801611,-0.151294,-0.168098,-0.33543,-0.360703,-0.348584,-0.0965304
31,65,-0.654498,-0.814493,-0.174533,-0.174533,-0.651144,-0.801611,-0.151294,-0.168098,-0.33543,-0.360703,-0.348584,-0.0965304
31,65,-0.654498,-0.814493,-0.174533,-0.174533,-0.651144,-0.801611,-0.151294,-0.168098,-0.33543,-0.360703,-0.348584,-0.0965304
31,65,-0.654498,-0.814493,-0.174533,-0.174533,-0.651144,-0.801611,-0.151294,-0.168098,-0.33543,-0.360703,-0.348584,-0.0965304
31,65,-0.654498,-0.814493,-0.174533,-0.174533,-0.651144,-0.801611,-0.151294,-0.168098,-0.33543,-0.360703,-0.348584,-0.0965304
31,65,-0.654498,-0.814493,-0.174533,-0.174533,-0.651144,-0.801611,-0.151294,-0.168098,-0.33543,-0.360703,-0.348584,-0.0965304
31,65,-0.654498,-0.814493,-0.174533,-0.174533,-0.651144,-0.801611,-0.151294,-0.168098,-0.33543,-0.360703,-0.348584,-0.0965304
31,65,-0.654498,-0.814493,-0.174533,-0.174533,-0.651144,-0.801611,-0.151294,-0.168098,-0.33543,-0.360703,-0.348584,-0.0965304
31,65,-0.654498,-0.814493,-0.174533,-0.174533,-0.651144,-0.801611,-0.151294,-0.168098,-0.33543,-0.360703,-0.348584,-0.0965304
31,65,-0.654498,-0.814493,-0.174533,-0.174533,-0.651144,-0.801611,-0.151294,-0.168098,-0.33543,-0.360703,-0.348584,-0.0965304
31,65,-0.654498,-0.814493,-0.174533,-0.174533,-0.651144,-0.801611,-0.151294,-0.168098,-0.33543,-0.360703,-0.348584,-0.0965304
31,65,-0.654498,-0.814493,-0.174533,-0.174533,-0.651144,-0.801611,-0.151294,-0.168098,-0.33543,-0.360703,-0.348584,-0.0965304
31,65,-0.654498,-0.814493,-0.174533,-0.174533,-0.651144,-0.801611,-0.151294,-0.168098,-0.33543,-0.360703,-0.348584,-0.0965304
31,65,-0.654498,-0.814493,-0.174533,-0.174533,-0.651144,-0.801611,-0.151294,-0.168098,-0.33543,-0.360703,-0.348584,-0.0965304
31,65,-0.654498,-0.814493,-0.174533,-0.174533,-0.651144,-0.801611,-0.151294,-0.168098,-0.33543,-0.360703,-0.348584,-0.0965304
31,65,-0.654498,-0.814493,-0.174533,-0.174533,-0.651144,-0.801611,-0.151294,-0.168098,-0.33543,-0.360703,-0.348584,-0.0965304
31,65,-0.654498,-0.814493,-0.174533,-0.174533,-0.651144,-0.801611,-0.151294,-0.168098,-0.33543,-0.360703,-0.348584,-0.0965304
31,65,-0.654498,-0.814493,-0.174533,-0.174533,-0.651144,-0.801611,-0.151294,-0.168098,-0.33543,-0.360703,-0.348584,-0.0965304
31,65,-0.654498,-0.814493,-0.174533,-0.174533,-0.651144,-0.801611,-0.151294,-0.168098,-0.33543,-0.360703,-0.348584,-0.0965304
31,65,-0.654498,-0.814493,-0.174533,-0.174533,-0.651144,-0.801611,-0.151294,-0.168098,-0.33543,-0.360703,-0.348584,-0.0965304
31,65,-0.654498,-0.814493,-0.174533,-0.174533,-0.651144,-0.801611,-0.151294,-0.168098,-0.33543,-0.360703,-0.348584,-0.0965304
31,65,-0.654498,-0.814493,-0.174533,-0.174533,-0.651144,-0.801611,-0.151294,-0.168098,-0.33543,-0.360703,-0.348584,-0.0965304
31,65,-0.654498,-0.814493,-0.174533,-0.174533,-0.651144,-0.801611,-0.151294,-0.168098,-0.33543,-0.360703,-0.348584,-0.0965304
31,65,-0.654498,-0.814493,-0.174533,-0.174533,-0.651144,-0.801611,-0.151294,-0.168098,-0.33543,-0.360703,-0.348584,-0.0965304
31,65,-0.654498,-0.814493,-0.174533,-0.174533,-0.651144,-0.801611,-0.151294,-0.168098,-0.33543,-0.360703,-0.348584,-0.0965304
31,65,-0.654498,-0.814493,-0.174533,-0.174533,-0.651144,-0.801611,-0.151294,-0.168098,-0.33543,-0.360703,-0.348584,-0.0965304
31,65,-0.654498,-0.814493,-0.174533,-0.174533,-0.651144,-0.801611,-0.151294,-0.168098,-0.33543,-0.360703,-0.348584,-0.0965304
31,65,-0.654498,-0.814493,-0.174533,-0.174533,-0.651144,-0.801611,-0.151294,-0.168098,-0.33543,-0.360703,-0.348584,-0.0965304
31,65,-0.654498,-0.814493,-0.174533,-0.174533,-0.651144,-0.801611,-0.151294,-0.168098,-0.33543,-0.360703,-0.348584,-0.0965304
31,65,-0.654498,-0.814493,-0.174533,-0.174533,-0.651144,-0.801611,-0.151294,-0.168098,-0.33543,-0.360703,-0.348584,-0.0965304
31,65,-0.654498,-0.814493,-0.174533,-0.174533,-0.651144,-0.801611,-0.151294,-0.168098,-0.33543,-0.360703,-0.348584,-0.0965304
31,65,-0.654498,-0.814493,-0.174533,-0.174533,-0.651144,-0.801611,-0.151294,-0.168098,-0.33543,-0.360703,-0.348584,-0.0965304
31,65,-0.654498,-0.814493,-0.174533,-0.174533,-0.651144,-0.801611,-0.151294,-0.168098,-0.33543,-0.360703,-0.348584,-0.0965304
31,65,-0.654498,-0.814493,-0.174533,-0.174533,-0.651144,-0.801611,-0.151294,-0.168098,-0.33543,-0.360703,-0.348584,-0.0965304
31,65,-0.654498,-0.814493,-0.174533,-0.174533,-0.651144,-0.801611,-0.151294,-0.168098,-0.33543,-0.360703,-0.348584,-0.0965304
31,65,-0.654498,-0.814493,-0.174533,-0.174533,-0.651144,-0.801611,-0.151294,-0.168098,-0.33543,-0.360703,-0.348584,-0.0965304
31,65,-0.654498,-0.814493,-0.174533,-0.174533,-0.651144,-0.801611,-0.151294,-0.168098,-0.33543,-0.360703,-0.348584,-0.0965304
31,65,-0.654498,-0.814493,-0.174533,-0.174533,-0.651144,-0.801611,-0.151292,-0.168038,-0.33543,-0.360703,-0.348612,-0.0974244
31,65,-0.654498,-0.814493,-0.174533,-0.174533,-0.651144,-0.801611,-0.151292,-0.168038,-0.33543,-0.360703,-0.348612,-0.0974244
31,65,-0.654498,-0.814493,-0.174533,-0.174533,-0.651144,-0.801611,-0.151292,-0.168038,-0.33543,-0.360703,-0.348612,-0.0974244
31,65,-0.654498,-0.814493,-0.174533,-0.174533,-0.651144,-0.801611,-0.151292,-0.168038,-0.33543,-0.360703,-0.348612,-0.0974244
31,65,-0.654498,-0.814493,-0.174533,-0.174533,-0.651144,-0.801611,-0.151292,-0.168038,-0.33543,-0.360703,-0.348612,-0.0974244
31,65,-0.654498,-0.814493,-0.174533,-0.174533,-0.651144,-0.801611,-0.151292,-0.168038,-0.33543,-0.360703,-0.348612,-0.0974244
31,65,-0.654498,-0.814493,-0.174533,-0.174533,-0.651144,-0.801611,-0.151292,-0.168038,-0.33543,-0.360703,-0.348612,-0.0974244
31,65,-0.654498,-0.814493,-0.174533,-0.174533,-0.651144,-0.801611,-0.151292,-0.168038,-0.33543,-0.360703,-0.348612,-0.0974244
31,65,-0.654498,-0.814493,-0.174533,-0.174533,-0.651144,-0.801611,-0.151292,-0.168038,-0.33543,-0.360703,-0.348612,-0.0974244
31,65,-0.654498,-0.814493,-0.174533,-0.174533,-0.651144,-0.801611,-0.151292,-0.168038,-0.33543,-0.360703,-0.348612,-0.0974244
31,65,-0.654498,-0.814493,-0.174533,-0.174533,-0.651144,-0.801611,-0.151292,-0.168038,-0.33543,-0.360703,-0.348612,-0.0974244
31,65,-0.654498,-0.814493,-0.174533,-0.174533,-0.651144,-0.801611,-0.151292,-0.168038,-0.33543,-0.360703,-0.348612,-0.0974244
31,65,-0.654498,-0.814493,-0.174533,-0.174533,-0.651144,-0.801611,-0.151292,-0.168038,-0.33543,-0.360703,-0.348612,-0.0974244
31,65,-0.654498,-0.814493,-0.174533,-0.174533,-0.651144,-0.801611,-0.151292,-0.168038,-0.33543,-0.360703,-0.348612,-0.0974244
31,65,-0.654498,-0.814493,-0.174533,-0.174533,-0.651144,-0.801611,-0.151292,-0.168038,-0.33543,-0.360703,-0.348612,-0.0974244
31,65,-0.654498,-0.814493,-0.174533,-0.174533,-0.651144,-0.801611,-0.151292,-0.168038,-0.33543,-0.360703,-0.348612,-0.0974244
31,65,-0.654498,-0.814493,-0.174533,-0.174533,-0.651144,-0.801611,-0.151292,-0.168038,-0.33543,-0.360703,-0.348612,-0.0974244
31,65,-0.654498,-0.814493,-0.174533,-0.174533,-0.651144,-0.801611,-0.151292,-0.168038,-0.33543,-0.360703,-0.348612,-0.0974244
31,65,-0.654498,-0.814493,-0.174533,-0.174533,-0.651144,-0.801611,-0.151292,-0.168038,-0.33543,-0.360703,-0.348612,-0.0974244
31,65,-0.654498,-0.814493,-0.174533,-0.174533,-0.651144,-0.801611,-0.151292,-0.168038,-0.33543,-0.360703,-0.348612,-0.0974244
31,65,-0.654498,-0.814493,-0.174533,-0.174533,-0.651144,-0.801611,-0.151292,-0.168038,-0.33543,-0.360703,-0.348612,-0.0974244
31,65,-0.654498,-0.814493,-0.174533,-0.174533,-0.651144,-0.801611,-0.151292,-0.168038,-0.33543,-0.360703,-0.348612,-0.0974244
31,65,-0.654498,-0.814493,-0.174533,-0.174533,-0.651144,-0.801611,-0.151292,-0.168038,-0.33543,-0.360703,-0.348612,-0.0974244
31,65,-0.654498,-0.814493,-0.174533,-0.174533,-0.651144,-0.801611,-0.151292,-0.168038,-0.33543,-0.360703,-0.348612,-0.0974244
31,65,-0.654498,-0.814493,-0.174533,-0.174533,-0.651144,-0.801611,-0.151292,-0.168038,-0.33543,-0.360703,-0.348612,-0.0974244
31,65,-0.654498,-0.814493,-0.174533,-0.174533,-0.651144,-0.801611,-0.151292,-0.168038,-0.33543,-0.360703,-0.348612,-0.0974244
31,65,-0.654498,-0.814493,-0.174533,-0.174533,-0.651144,-0.801611,-0.151292,-0.168038,-0.33543,-0.360703,-0.348612,-0.0974244
31,65,-0.654498,-0.814493,-0.174533,-0.174533,-0.651144,-0.801611,-0.151292,-0.168038,-0.33543,-0.360703,-0.348612,-0.0974244
31,65,-0.654498,-0.814493,-0.174533,-0.174533,-0.651144,-0.801611,-0.151292,-0.168038,-0.33543,-0.360703,-0.348612,-0.0974244
31,65,-0.654498,-0.814493,-0.174533,-0.174533,-0.651144,-0.801611,-0.151292,-0.168038,-0.33543,-0.360703,-0.348612,-0.0974244
31,65,-0.654498,-0.814493,-0.174533,-0.174533,-0.651144,-0.801611,-0.151292,-0.168038,-0.33543,-0.360703,-0.348612,-0.0974244
31,65,-0.654498,-0.814493,-0.174533,-0.174533,-0.651144,-0.801611,-0.151292,-0.168038,-0.33543,-0.360703,-0.348612,-0.0974244
31,65,-0.654498,-0.814493,-0.174533,-0.174533,-0.651144,-0.801611,-0.151292,-0.168038,-0.33543,-0.360703,-0.348612,-0.0974244
31,65,-0.654498,-0.814493,-0.174533,-0.174533,-0.651144,-0.801611,-0.151292,-0.168038,-0.33543,-0.360703,-0.348612,-0.0974244
31,65,-0.654498,-0.814493,-0.174533,-0.174533,-0.651144,-0.801611,-0.151292,-0.168038,-0.33543,-0.360703,-0.348612,-0.0974244
31,65,-0.654498,-0.814493,-0.174533,-0.174533,-0.651144,-0.801611,-0.151292,-0.168038,-0.33543,-0.360703,-0.348612,-0.0974244
31,65,-0.654498,-0.814493,-0.174533,-0.174533,-0.651144,-0.801611,-0.151292,-0.168038,-0.33543,-0.360703,-0.348612,-0.0974244
31,65,-0.654498,-0.814493,-0.174533,-0.174533,-0.651144,-0.801611,-0.151292,-0.168038,-0.33543,-0.360703,-0.348612,-0.0974244
31,65,-0.654498,-0.814493,-0.174533,-0.174533,-0.651144,-0.801611,-0.151292,-0.168038,-0.33543,-0.360703,-0.348612,-0.0974244
31,65,-0.654498,-0.814493,-0.174533,-0.174533,-0.651144,-0.801611,-0.151292,-0.168038,-0.33543,-0.360703,-0.348612,-0.0974244
31,65,-0.654498,-0.814493,-0.174533,-0.174533,-0.651144,-0.801611,-0.151292,-0.168038,-0.33543,-0.360703,-0.348612,-0.0974244
31,65,-0.654498,-0.814493,-0.174533,-0.174533,-0.651144,-0.801611,-0.151292,-0.168038,-0.33543,-0.360703,-0.348612,-0.0974244
31,65,-0.654498,-0.814493,-0.174533,-0.174533,-0.651144,-0.801611,-0.151292,-0.168038,-0.33543,-0.360703,-0.348612,-0.0974244
31,65,-0.654498,-0.814493,-0.174533,-0.174533,-0.651144,-0.801611,-0.151292,-0.168038,-0.33543,-0.360703,-0.348612,-0.0974244
31,65,-0.654498,-0.814493,-0.174533,-0.174533,-0.651144,-0.801611,-0.151292,-0.168038,-0.33543,-0.360703,-0.348612,-0.0974244
31,65,-0.654498,-0.814493,-0.174533,-0.174533,-0.651144,-0.801611,-0.151292,-0.168038,-0.33543,-0.360703,-0.348612,-0.0974244
31,65,-0.654498,-0.814493,-0.174533,-0.174533,-0.651144,-0.801611,-0.151292,-0.168038,-0.33543,-0.360703,-0.348612,-0.0974244
31,65,-0.654498,-0.814493,-0.174533,-0.174533,-0.651144,-0.801611,-0.151292,-0.168038,-0.33543,-0.360703,-0.348612,-0.0974244
31,65,-0.654498,-0.814493,-0.174533,-0.174533,-0.651144,-0.801611,-0.151292,-0.168038,-0.33543,-0.360703,-0.348612,-0.0974244
31,65,-0.654498,-0.814493,-0.174533,-0.174533,-0.651144,-0.801611,-0.151292,-0.168038,-0.33543,-0.360703,-0.348612,-0.0974244
31,65,-0.654498,-0.814493,-0.174533,-0.174533,-0.651144,-0.801611,-0.151292,-0.168038,-0.33543,-0.360703,-0.348612,-0.0974244
31,65,-0.654498,-0.814493,-0.174533,-0.174533,-0.651144,-0.801611,-0.151292,-0.168038,-0.33543,-0.360703,-0.348612,-0.0974244
31,65,-0.654498,-0.814493,-0.174533,-0.174533,-0.651144,-0.801611,-0.151292,-0.168038,-0.33543,-0.360703,-0.348612,-0.0974244
31,65,-0.654498,-0.814493,-0.174533,-0.174533,-0.651144,-0.801611,-0.151292,-0.168038,-0.33543,-0.360703,-0.348612,-0.0974244
31,65,-0.654498,-0.814493,-0.174533,-0.174533,-0.651144,-0.801611,-0.151292,-0.168038,-0.33543,-0.360703,-0.348612,-0.0974244
31,65,-0.654498,-0.814493,-0.174533,-0.174533,-0.651144,-0.801611,-0.151292,-0.168038,-0.33543,-0.360703,-0.348612,-0.0974244
31,65,-0.654498,-0.814493,-0.174533,-0.174533,-0.651144,-0.801611,-0.151292,-0.168038,-0.33543,-0.360703,-0.348612,-0.0974244
31,65,-0.654498,-0.814493,-0.174533,-0.174533,-0.651144,-0.801611,-0.151292,-0.168038,-0.33543,-0.360703,-0.348612,-0.0974244
31,65,-0.654498,-0.814493,-0.174533,-0.174533,-0.651144,-0.801611,-0.151292,-0.168038,-0.33543,-0.360703,-0.348612,-0.0974244
31,65,-0.654498,-0.814493,-0.174533,-0.174533,-0.651144,-0.801611,-0.151292,-0.168038,-0.33543,-0.360703,-0.348612,-0.0974244
31,65,-0.654498,-0.814493,-0.174533,-0.174533,-0.651144,-0.801611,-0.151292,-0.168038,-0.33543,-0.360703,-0.348612,-0.0974244
31,65,-0.654498,-0.814493,-0.174533,-0.174533,-0.651144,-0.801611,-0.151292,-0.168038,-0.33543,-0.360703,-0.348612,-0.0974244
31,65,-0.654498,-0.814493,-0.174533,-0.174533,-0.651144,-0.801611,-0.151292,-0.168038,-0.33543,-0.360703,-0.348612,-0.0974244
31,65,-0.654498,-0.814493,-0.174533,-0.174533,-0.651144,-0.801611,-0.151292,-0.168038,-0.33543,-0.360703,-0.348612,-0.0974244
31,65,-0.654498,-0.814493,-0.174533,-0.174533,-0.651144,-0.801611,-0.151292,-0.168038,-0.33543,-0.360703,-0.348612,-0.0974244
31,65,-0.654498,-0.814493,-0.174533,-0.174533,-0.651144,-0.801611,-0.151292,-0.168038,-0.33543,-0.360703,-0.348612,-0.0974244
31,65,-0.654498,-0.814493,-0.174533,-0.174533,-0.651144,-0.801611,-0.151292,-0.168038,-0.33543,-0.360703,-0.348612,-0.0974244
31,65,-0.654498,-0.814493,-0.174533,-0.174533,-0.651144,-0.801611,-0.151292,-0.168038,-0.33543,-0.360703,-0.348612,-0.0974244
31,65,-0.654498,-0.814493,-0.174533,-0.174533,-0.651144,-0.801611,-0.151292,-0.168038,-0.33543,-0.360703,-0.348612,-0.0974244
31,65,-0.654498,-0.814493,-0.174533,-0.174533,-0.651144,-0.801611,-0.151292,-0.168038,-0.33543,-0.360703,-0.348612,-0.0974244
31,65,-0.654498,-0.814493,-0.174533,-0.174533,-0.651144,-0.801611,-0.151292,-0.168038,-0.33543,-0.360703,-0.348612,-0.0974244
31,65,-0.654498,-0.814493,-0.174533,-0.174533,-0.651144,-0.801611,-0.151292,-0.168038,-0.33543,-0.360703,-0.348612,-0.0974244
31,65,-0.654498,-0.814493,-0.174533,-0.174533,-0.651144,-0.801611,-0.151292,-0.168038,-0.33543,-0.360703,-0.348612,-0.0974244
31,65,-0.654498,-0.814493,-0.174533,-0.174533,-0.651144,-0.801611,-0.151292,-0.168038,-0.33543,-0.360703,-0.348612,-0.0974244
31,65,-0.654498,-0.814493,-0.174533,-0.174533,-0.651144,-0.801611,-0.151292,-0.168038,-0.33543,-0.360703,-0.348612,-0.0974244
31,65,-0.654498,-0.814493,-0.174533,-0.174533,-0.651144,-0.801611,-0.151292,-0.168038,-0.33543,-0.360703,-0.348612,-0.0974244
31,65,-0.654498,-0.814493,-0.174533,-0.174533,-0.651144,-0.801611,-0.151292,-0.168038,-0.33543,-0.360703,-0.348612,-0.0974244
31,65,-0.654498,-0.814493,-0.174533,-0.174533,-0.651144,-0.801611,-0.151292,-0.168038,-0.33543,-0.360703,-0.348612,-0.0974244
31,65,-0.654498,-0.814493,-0.174533,-0.174533,-0.651144,-0.801611,-0.151292,-0.168038,-0.33543,-0.360703,-0.348612,-0.0974244
31,65,-0.654498,-0.814493,-0.174533,-0.174533,-0.651144,-0.801611,-0.151292,-0.168038,-0.33543,-0.360703,-0.348612,-0.0974244
31,65,-0.654498,-0.814493,-0.174533,-0.174533,-0.651144,-0.801611,-0.151292,-0.168038,-0.33543,-0.360703,-0.348612,-0.0974244
31,65,-0.654498,-0.814493,-0.174533,-0.174533,-0.651144,-0.801611,-0.151292,-0.168038,-0.33543,-0.360703,-0.348612,-0.0974244
31,65,-0.654498,-0.814493,-0.174533,-0.174533,-0.651144,-0.801611,-0.151292,-0.168038,-0.33543,-0.360703,-0.348612,-0.0974244
31,65,-0.654498,-0.814493,-0.174533,-0.174533,-0.651144,-0.801611,-0.151292,-0.168038,-0.33543,-0.360703,-0.348612,-0.0974244
31,65,-0.654498,-0.814493,-0.174533,-0.174533,-0.651144,-0.801611,-0.151292,-0.168038,-0.33543,-0.360703,-0.348612,-0.0974244
31,65,-0.654498,-0.814493,-0.174533,-0.174533,-0.651144,-0.801611,-0.151292,-0.168038,-0.33543,-0.360703,-0.348612,-0.0974244
31,65,-0.654498,-0.814493,-0.174533,-0.174533,-0.651144,-0.801611,-0.151292,-0.168038,-0.33543,-0.360703,-0.348612,-0.0974244
31,65,-0.654498,-0.814493,-0.174533,-0.174533,-0.651144,-0.801611,-0.151292,-0.168038,-0.33543,-0.360703,-0.348612,-0.0974244
31,65,-0.654498,-0.814493,-0.174533,-0.174533,-0.651144,-0.801611,-0.151292,-0.168038,-0.33543,-0.360703,-0.348612,-0.0974244
31,65,-0.654498,-0.814493,-0.174533,-0.174533,-0.651144,-0.801611,-0.151292,-0.168038,-0.33543,-0.360703,-0.348612,-0.0974244
31,65,-0.654498,-0.814493,-0.174533,-0.174533,-0.651144,-0.801611,-0.151292,-0.168038,-0.33543,-0.360703,-0.348612,-0.0974244
31,65,-0.654498,-0.814493,-0.174533,-0.174533,-0.651144,-0.801611,-0.151292,-0.168038,-0.33543,-0.360703,-0.348612,-0.0974244
31,65,-0.654498,-0.814493,-0.174533,-0.174533,-0.651144,-0.801611,-0.151292,-0.168038,-0.33543,-0.360703,-0.348612,-0.0974244
31,65,-0.654498,-0.814493,-0.174533,-0.174533,-0.651144,-0.801611,-0.151292,-0.168038,-0.33543,-0.360703,-0.348612,-0.0974244
31,65,-0.654498,-0.814493,-0.174533,-0.174533,-0.651144,-0.801611,-0.151292,-0.168038,-0.33543,-0.360703,-0.348612,-0.0974244
31,65,-0.654498,-0.814493,-0.174533,-0.174533,-0.651144,-0.801611,-0.151292,-0.168038,-0.33543,-0.360703,-0.348612,-0.0974244
31,65,-0.654498,-0.814493,-0.174533,-0.174533,-0.651144,-0.801611,-0.151292,-0.168038,-0.33543,-0.360703,-0.348612,-0.0974244
31,65,-0.654498,-0.814493,-0.174533,-0.174533,-0.651144,-0.801611,-0.151292,-0.168038,-0.33543,-0.360703,-0.348612,-0.0974244
31,65,-0.654498,-0.814493,-0.174533,-0.174533,-0.651144,-0.801611,-0.151292,-0.168038,-0.33543,-0.360703,-0.348612,-0.0974244
31,65,-0.654498,-0.814493,-0.174533,-0.174533,-0.651144,-0.801611,-0.151292,-0.168038,-0.33543,-0.360703,-0.348612,-0.0974244
31,65,-0.654498,-0.814493,-0.174533,-0.174533,-0.651144,-0.801611,-0.151292,-0.168038,-0.33543,-0.360703,-0.348612,-0.0974244
31,65,-0.654498,-0.814493,-0.174533,-0.174533,-0.651144,-0.801611,-0.151292,-0.168038,-0.33543,-0.360703,-0.348612,-0.0974244
31,65,-0.654498,-0.814493,-0.174533,-0.174533,-0.651144,-0.801611,-0.151292,-0.168038,-0.33543,-0.360703,-0.348612,-0.0974244
31,65,-0.654498,-0.814493,-0.174533,-0.174533,-0.651144,-0.801611,-0.151292,-0.168038,-0.33543,-0.360703,-0.348612,-0.0974244
31,65,-0.654498,-0.814493,-0.174533,-0.174533,-0.651144,-0.801611,-0.151292,-0.168038,-0.33543,-0.360703,-0.348612,-0.0974244
31,65,-0.654498,-0.814493,-0.174533,-0.174533,-0.651144,-0.801611,-0.151292,-0.168038,-0.33543,-0.360703,-0.348612,-0.0974244
31,65,-0.654498,-0.814493,-0.174533,-0.174533,-0.651144,-0.801611,-0.151292,-0.168038,-0.33543,-0.360703,-0.348612,-0.0974244
31,65,-0.654498,-0.814493,-0.174533,-0.174533,-0.651144,-0.801611,-0.151292,-0.168038,-0.33543,-0.360703,-0.348612,-0.0974244
31,65,-0.654498,-0.814493,-0.174533,-0.174533,-0.651144,-0.801611,-0.151292,-0.168038,-0.33543,-0.360703,-0.348612,-0.0974244
31,65,-0.654498,-0.814493,-0.174533,-0.174533,-0.651144,-0.801611,-0.151292,-0.168038,-0.33543,-0.360703,-0.348612,-0.0974244
31,65,-0.654498,-0.814493,-0.174533,-0.174533,-0.651144,-0.801611,-0.151292,-0.168038,-0.33543,-0.360703,-0.348612,-0.0974244
31,65,-0.654498,-0.814493,-0.174533,-0.174533,-0.651144,-0.801611,-0.151292,-0.168038,-0.33543,-0.360703,-0.348612,-0.0974244
31,65,-0.654498,-0.814493,-0.174533,-0.174533,-0.651144,-0.801611,-0.151292,-0.168038,-0.33543,-0.360703,-0.348612,-0.0974244
31,65,-0.654498,-0.814493,-0.174533,-0.174533,-0.651144,-0.801611,-0.151292,-0.168038,-0.33543,-0.360703,-0.348612,-0.0974244
31,65,-0.654498,-0.814493,-0.174533,-0.174533,-0.651144,-0.801611,-0.151292,-0.168038,-0.33543,-0.360703,-0.348612,-0.0974244
31,65,-0.654498,-0.814493,-0.174533,-0.174533,-0.651144,-0.801611,-0.151292,-0.168038,-0.33543,-0.360703,-0.348612,-0.0974244
31,65,-0.654498,-0.814493,-0.174533,-0.174533,-0.651144,-0.801611,-0.151292,-0.168038,-0.33543,-0.360703,-0.348612,-0.0974244
31,65,-0.654498,-0.814493,-0.174533,-0.174533,-0.651144,-0.801611,-0.151292,-0.168038,-0.33543,-0.360703,-0.348612,-0.0974244
31,65,-0.654498,-0.814493,-0.174533,-0.174533,-0.651144,-0.801611,-0.151292,-0.168038,-0.33543,-0.360703,-0.348612,-0.0974244
31,65,-0.654498,-0.814493,-0.174533,-0.174533,-0.651144,-0.801611,-0.151292,-0.168038,-0.33543,-0.360703,-0.348612,-0.0974244
31,65,-0.654498,-0.814493,-0.174533,-0.174533,-0.651144,-0.801611,-0.151292,-0.168038,-0.33543,-0.360703,-0.348612,-0.0974244
31,65,-0.654498,-0.814493,-0.174533,-0.174533,-0.651144,-0.801611,-0.151292,-0.168038,-0.33543,-0.360703,-0.348612,-0.0974244
31,65,-0.654498,-0.814493,-0.174533,-0.174533,-0.651144,-0.801611,-0.151292,-0.168038,-0.33543,-0.360703,-0.348612,-0.0974244
31,65,-0.654498,-0.814493,-0.174533,-0.174533,-0.651144,-0.801611,-0.151292,-0.168038,-0.33543,-0.360703,-0.348612,-0.0974244
31,65,-0.654498,-0.814493,-0.174533,-0.174533,-0.651144,-0.801611,-0.151292,-0.168038,-0.33543,-0.360703,-0.348612,-0.0974244
31,65,-0.654498,-0.814493,-0.174533,-0.174533,-0.651144,-0.801611,-0.151292,-0.168038,-0.33543,-0.360703,-0.348612,-0.0974244
31,65,-0.654498,-0.814493,-0.174533,-0.174533,-0.651144,-0.801611,-0.151292,-0.168038,-0.33543,-0.360703,-0.348612,-0.0974244
31,65,-0.654498,-0.814493,-0.174533,-0.174533,-0.651144,-0.801611,-0.151292,-0.168038,-0.33543,-0.360703,-0.348612,-0.0974244
31,65,-0.654498,-0.814493,-0.174533,-0.174533,-0.651144,-0.801611,-0.151292,-0.168038,-0.33543,-0.360703,-0.348612,-0.0974244
31,65,-0.654498,-0.814493,-0.174533,-0.174533,-0.651144,-0.801611,-0.151292,-0.168038,-0.33543,-0.360703,-0.348612,-0.0974244
31,65,-0.654498,-0.814493,-0.174533,-0.174533,-0.651144,-0.801611,-0.151292,-0.168038,-0.33543,-0.360703,-0.348612,-0.0974244
31,65,-0.654498,-0.814493,-0.174533,-0.174533,-0.651144,-0.801611,-0.151292,-0.168038,-0.33543,-0.360703,-0.348612,-0.0974244
31,65,-0.654498,-0.814493,-0.174533,-0.174533,-0.651144,-0.801611,-0.151292,-0.168038,-0.33543,-0.360703,-0.348612,-0.0974244
31,65,-0.654498,-0.814493,-0.174533,-0.174533,-0.651144,-0.801611,-0.151292,-0.168038,-0.33543,-0.360703,-0.348612,-0.0974244
31,65,-0.654498,-0.814493,-0.174533,-0.174533,-0.651144,-0.801611,-0.151292,-0.168038,-0.33543,-0.360703,-0.348612,-0.0974244
31,65,-0.654498,-0.814493,-0.174533,-0.174533,-0.651144,-0.801611,-0.151292,-0.168038,-0.33543,-0.360703,-0.348612,-0.0974244
31,65,-0.654498,-0.814493,-0.174533,-0.174533,-0.651144,-0.801611,-0.151292,-0.168038,-0.33543,-0.360703,-0.348612,-0.0974244
31,65,-0.654498,-0.814493,-0.174533,-0.174533,-0.651144,-0.801611,-0.151292,-0.168038,-0.33543,-0.360703,-0.348612,-0.0974244
31,65,-0.654498,-0.814493,-0.174533,-0.174533,-0.651144,-0.801611,-0.151292,-0.168038,-0.33543,-0.360703,-0.348612,-0.0974244
31,65,-0.654498,-0.814493,-0.174533,-0.174533,-0.651144,-0.801611,-0.151292,-0.168038,-0.33543,-0.360703,-0.348612,-0.0974244
31,65,-0.654498,-0.814493,-0.174533,-0.174533,-0.651144,-0.801611,-0.151292,-0.168038,-0.33543,-0.360703,-0.348612,-0.0974244
31,65,-0.654498,-0.814493,-0.174533,-0.174533,-0.651144,-0.801611,-0.151292,-0.168038,-0.33543,-0.360703,-0.348612,-0.0974244
31,65,-0.654498,-0.814493,-0.174533,-0.174533,-0.651144,-0.801611,-0.151292,-0.168038,-0.33543,-0.360703,-0.348612,-0.0974244
31,65,-0.654498,-0.814493,-0.174533,-0.174533,-0.651144,-0.801611,-0.151292,-0.168038,-0.33543,-0.360703,-0.348612,-0.0974244
31,65,-0.654498,-0.814493,-0.174533,-0.174533,-0.651144,-0.801611,-0.151292,-0.168038,-0.33543,-0.360703,-0.348612,-0.0974244
31,65,-0.654498,-0.814493,-0.174533,-0.174533,-0.651144,-0.801611,-0.151292,-0.168038,-0.33543,-0.360703,-0.348612,-0.0974244
31,65,-0.654498,-0.814493,-0.174533,-0.174533,-0.651144,-0.801611,-0.151292,-0.168038,-0.33543,-0.360703,-0.348612,-0.0974244
31,65,-0.654498,-0.814493,-0.174533,-0.174533,-0.651144,-0.801611,-0.151292,-0.168038,-0.33543,-0.360703,-0.348612,-0.0974244
31,65,-0.654498,-0.814493,-0.174533,-0.174533,-0.651144,-0.801611,-0.151292,-0.168038,-0.33543,-0.360703,-0.348612,-0.0974244
31,65,-0.654498,-0.814493,-0.174533,-0.174533,-0.651144,-0.801611,-0.151292,-0.168038,-0.33543,-0.360703,-0.348612,-0.0974244
31,65,-0.654498,-0.814493,-0.174533,-0.174533,-0.651144,-0.801611,-0.151292,-0.168038,-0.33543,-0.360703,-0.348612,-0.0974244
31,65,-0.654498,-0.814493,-0.174533,-0.174533,-0.651144,-0.801611,-0.151292,-0.168038,-0.33543,-0.360703,-0.348612,-0.0974244
31,65,-0.654498,-0.814493,-0.174533,-0.174533,-0.651144,-0.801611,-0.151292,-0.168038,-0.33543,-0.360703,-0.348612,-0.0974244
31,65,-0.654498,-0.814493,-0.174533,-0.174533,-0.651144,-0.801611,-0.151292,-0.168038,-0.33543,-0.360703,-0.348612,-0.0974244
31,65,-0.654498,-0.814493,-0.174533,-0.174533,-0.651144,-0.801611,-0.151292,-0.168038,-0.33543,-0.360703,-0.348612,-0.0974244
31,65,-0.654498,-0.814493,-0.174533,-0.174533,-0.651144,-0.801611,-0.151292,-0.168038,-0.33543,-0.360703,-0.348612,-0.0974244
31,65,-0.654498,-0.814493,-0.174533,-0.174533,-0.651144,-0.801611,-0.151292,-0.168038,-0.33543,-0.360703,-0.348612,-0.0974244
31,65,-0.654498,-0.814493,-0.174533,-0.174533,-0.651144,-0.801611,-0.151292,-0.168038,-0.33543,-0.360703,-0.348612,-0.0974244
31,65,-0.654498,-0.814493,-0.174533,-0.174533,-0.651144,-0.801611,-0.151292,-0.168038,-0.33543,-0.360703,-0.348612,-0.0974244
31,65,-0.654498,-0.814493,-0.174533,-0.174533,-0.651144,-0.801611,-0.151292,-0.168038,-0.33543,-0.360703,-0.348612,-0.0974244
31,65,-0.654498,-0.814493,-0.174533,-0.174533,-0.651144,-0.801611,-0.151292,-0.168038,-0.33543,-0.360703,-0.348612,-0.0974244
31,65,-0.654498,-0.814493,-0.174533,-0.174533,-0.651144,-0.801611,-0.151292,-0.168038,-0.33543,-0.360703,-0.348612,-0.0974244
31,65,-0.654498,-0.814493,-0.174533,-0.174533,-0.651144,-0.801611,-0.151292,-0.168038,-0.33543,-0.360703,-0.348612,-0.0974244
31,65,-0.654498,-0.814493,-0.174533,-0.174533,-0.651144,-0.801611,-0.151292,-0.168038,-0.33543,-0.360703,-0.348612,-0.0974244
31,65,-0.654498,-0.814493,-0.174533,-0.174533,-0.651144,-0.801611,-0.151292,-0.168038,-0.33543,-0.360703,-0.348612,-0.0974244
31,65,-0.654498,-0.814493,-0.174533,-0.174533,-0.651144,-0.801611,-0.151292,-0.168038,-0.33543,-0.360703,-0.348612,-0.0974244
31,65,-0.654498,-0.814493,-0.174533,-0.174533,-0.651144,-0.801611,-0.151292,-0.168038,-0.33543,-0.360703,-0.348612,-0.0974244
31,65,-0.654498,-0.814493,-0.174533,-0.174533,-0.651144,-0.801611,-0.151292,-0.168038,-0.33543,-0.360703,-0.348612,-0.0974244
31,65,-0.654498,-0.814493,-0.174533,-0.174533,-0.651144,-0.801611,-0.151292,-0.168038,-0.33543,-0.360703,-0.348612,-0.0974244
31,65,-0.654498,-0.814493,-0.174533,-0.174533,-0.651144,-0.801611,-0.151292,-0.168038,-0.33543,-0.360703,-0.348612,-0.0974244
31,65,-0.654498,-0.814493,-0.174533,-0.174533,-0.651144,-0.801611,-0.151292,-0.168038,-0.33543,-0.360703,-0.348612,-0.0974244
31,65,-0.654498,-0.814493,-0.174533,-0.174533,-0.651144,-0.801611,-0.151292,-0.168038,-0.33543,-0.360703,-0.348612,-0.0974244
31,65,-0.654498,-0.814493,-0.174533,-0.174533,-0.651144,-0.801611,-0.151292,-0.168038,-0.33543,-0.360703,-0.348612,-0.0974244
31,65,-0.654498,-0.814493,-0.174533,-0.174533,-0.651144,-0.801611,-0.151292,-0.168038,-0.33543,-0.360703,-0.348612,-0.0974244
31,65,-0.654498,-0.814493,-0.174533,-0.174533,-0.651144,-0.801611,-0.151292,-0.168038,-0.33543,-0.360703,-0.348612,-0.0974244
31,65,-0.654498,-0.814493,-0.174533,-0.174533,-0.651144,-0.801611,-0.151292,-0.168038,-0.33543,-0.360703,-0.348612,-0.0974244
31,65,-0.654498,-0.814493,-0.174533,-0.174533,-0.651144,-0.801611,-0.151292,-0.168038,-0.33543,-0.360703,-0.348612,-0.0974244
31,65,-0.654498,-0.814493,-0.174533,-0.174533,-0.651144,-0.801611,-0.151292,-0.168038,-0.33543,-0.360703,-0.348612,-0.0974244
31,65,-0.654498,-0.814493,-0.174533,-0.174533,-0.651144,-0.801611,-0.151292,-0.168038,-0.33543,-0.360703,-0.348612,-0.0974244
31,65,-0.654498,-0.814493,-0.174533,-0.174533,-0.651144,-0.801611,-0.151292,-0.168038,-0.33543,-0.360703,-0.348612,-0.0974244
31,65,-0.654498,-0.814493,-0.174533,-0.174533,-0.651144,-0.801611,-0.151292,-0.168038,-0.33543,-0.360703,-0.348612,-0.0974244
31,65,-0.654498,-0.814493,-0.174533,-0.174533,-0.651144,-0.801611,-0.151292,-0.168038,-0.33543,-0.360703,-0.348612,-0.0974244
31,65,-0.654498,-0.814493,-0.174533,-0.174533,-0.651144,-0.801611,-0.151292,-0.168038,-0.33543,-0.360703,-0.348612,-0.0974244
31,65,-0.654498,-0.814493,-0.174533,-0.174533,-0.651144,-0.801611,-0.151292,-0.168038,-0.33543,-0.360703,-0.348612,-0.0974244
31,65,-0.654498,-0.814493,-0.174533,-0.174533,-0.651144,-0.801611,-0.151292,-0.168038,-0.33543,-0.360703,-0.348612,-0.0974244
31,65,-0.654498,-0.814493,-0.174533,-0.174533,-0.651144,-0.801611,-0.151292,-0.168038,-0.33543,-0.360703,-0.348612,-0.0974244
31,65,-0.654498,-0.814493,-0.174533,-0.174533,-0.651144,-0.801611,-0.151292,-0.168038,-0.33543,-0.360703,-0.348612,-0.0974244
31,65,-0.654498,-0.814493,-0.174533,-0.174533,-0.651144,-0.801611,-0.151292,-0.168038,-0.33543,-0.360703,-0.348612,-0.0974244
31,65,-0.654498,-0.814493,-0.174533,-0.174533,-0.651144,-0.801611,-0.151292,-0.168038,-0.33543,-0.360703,-0.348612,-0.0974244
31,65,-0.654498,-0.814493,-0.174533,-0.174533,-0.651144,-0.801611,-0.151292,-0.168038,-0.33543,-0.360703,-0.348612,-0.0974244
31,65,-0.654498,-0.814493,-0.174533,-0.174533,-0.651144,-0.801611,-0.151292,-0.168038,-0.33543,-0.360703,-0.348612,-0.0974244
31,65,-0.654498,-0.814493,-0.174533,-0.174533,-0.651144,-0.801611,-0.151292,-0.168038,-0.33543,-0.360703,-0.348612,-0.0974244
31,65,-0.654498,-0.814493,-0.174533,-0.174533,-0.651144,-0.801611,-0.151292,-0.168038,-0.33543,-0.360703,-0.348612,-0.0974244
31,65,-0.654498,-0.814493,-0.174533,-0.174533,-0.651144,-0.801611,-0.151292,-0.168038,-0.33543,-0.360703,-0.348612,-0.0974244
31,65,-0.654498,-0.814493,-0.174533,-0.174533,-0.651144,-0.801611,-0.151292,-0.168038,-0.33543,-0.360703,-0.348612,-0.0974244
31,65,-0.654498,-0.814493,-0.174533,-0.174533,-0.651144,-0.801611,-0.151292,-0.168038,-0.33543,-0.360703,-0.348612,-0.0974244
31,65,-0.654498,-0.814493,-0.174533,-0.174533,-0.651144,-0.801611,-0.151292,-0.168038,-0.33543,-0.360703,-0.348612,-0.0974244
31,65,-0.654498,-0.814493,-0.174533,-0.174533,-0.651144,-0.801611,-0.151292,-0.168038,-0.33543,-0.360703,-0.348612,-0.0974244
31,65,-0.654498,-0.814493,-0.174533,-0.174533,-0.651144,-0.801611,-0.151292,-0.168038,-0.33543,-0.360703,-0.348612,-0.0974244
31,65,-0.654498,-0.814493,-0.174533,-0.174533,-0.651144,-0.801611,-0.151292,-0.168038,-0.33543,-0.360703,-0.348612,-0.0974244
31,65,-0.654498,-0.814493,-0.174533,-0.174533,-0.651144,-0.801611,-0.151292,-0.168038,-0.33543,-0.360703,-0.348612,-0.0974244
31,65,-0.654498,-0.814493,-0.174533,-0.174533,-0.651144,-0.801611,-0.151292,-0.168038,-0.33543,-0.360703,-0.348612,-0.0974244
31,65,-0.654498,-0.814493,-0.174533,-0.174533,-0.651144,-0.801611,-0.151292,-0.168038,-0.33543,-0.360703,-0.348612,-0.0974244
31,65,-0.654498,-0.814493,-0.174533,-0.174533,-0.651144,-0.801611,-0.151292,-0.168038,-0.33543,-0.360703,-0.348612,-0.0974244
31,65,-0.654498,-0.814493,-0.174533,-0.174533,-0.651144,-0.801611,-0.151292,-0.168038,-0.33543,-0.360703,-0.348612,-0.0974244
31,65,-0.654498,-0.814493,-0.174533,-0.174533,-0.651144,-0.801611,-0.151292,-0.168038,-0.33543,-0.360703,-0.348612,-0.0974244
31,65,-0.654498,-0.814493,-0.174533,-0.174533,-0.651144,-0.801611,-0.151292,-0.168038,-0.33543,-0.360703,-0.348612,-0.0974244
31,65,-0.654498,-0.814493,-0.174533,-0.174533,-0.651144,-0.801611,-0.151292,-0.168038,-0.33543,-0.360703,-0.348612,-0.0974244
31,65,-0.654498,-0.814493,-0.174533,-0.174533,-0.651144,-0.801611,-0.151292,-0.168038,-0.33543,-0.360703,-0.348612,-0.0974244
31,65,-0.654498,-0.814493,-0.174533,-0.174533,-0.651144,-0.801611,-0.151292,-0.168038,-0.33543,-0.360703,-0.348612,-0.0974244
31,65,-0.654498,-0.814493,-0.174533,-0.174533,-0.651144,-0.801611,-0.151292,-0.168038,-0.33543,-0.360703,-0.348612,-0.0974244
31,65,-0.654498,-0.814493,-0.174533,-0.174533,-0.651144,-0.801611,-0.151292,-0.168038,-0.33543,-0.360703,-0.348612,-0.0974244
31,65,-0.654498,-0.814493,-0.174533,-0.174533,-0.651144,-0.801611,-0.151292,-0.168038,-0.33543,-0.360703,-0.348612,-0.0974244
31,65,-0.654498,-0.814493,-0.174533,-0.174533,-0.651144,-0.801611,-0.151292,-0.168038,-0.33543,-0.360703,-0.348612,-0.0974244
31,65,-0.654498,-0.814493,-0.174533,-0.174533,-0.651144,-0.801611,-0.151292,-0.168038,-0.33543,-0.360703,-0.348612,-0.0974244
31,65,-0.654498,-0.814493,-0.174533,-0.174533,-0.651144,-0.801611,-0.151292,-0.168038,-0.33543,-0.360703,-0.348612,-0.0974244
31,65,-0.654498,-0.814493,-0.174533,-0.174533,-0.651144,-0.801611,-0.151292,-0.168038,-0.33543,-0.360703,-0.348612,-0.0974244
31,65,-0.654498,-0.814493,-0.174533,-0.174533,-0.651144,-0.801611,-0.151292,-0.168038,-0.33543,-0.360703,-0.348612,-0.0974244
31,65,-0.654498,-0.814493,-0.174533,-0.174533,-0.651144,-0.801611,-0.151292,-0.168038,-0.33543,-0.360703,-0.348612,-0.0974244
31,65,-0.654498,-0.814493,-0.174533,-0.174533,-0.651144,-0.801611,-0.151292,-0.168038,-0.33543,-0.360703,-0.348612,-0.0974244
31,65,-0.654498,-0.814493,-0.174533,-0.174533,-0.651144,-0.801611,-0.151292,-0.168038,-0.33543,-0.360703,-0.348612,-0.0974244
31,65,-0.654498,-0.814493,-0.174533,-0.174533,-0.651144,-0.801611,-0.151292,-0.168038,-0.33543,-0.360703,-0.348612,-0.0974244
31,65,-0.654498,-0.814493,-0.174533,-0.174533,-0.651144,-0.801611,-0.151292,-0.168038,-0.33543,-0.360703,-0.348612,-0.0974244
31,65,-0.654498,-0.814493,-0.174533,-0.174533,-0.651144,-0.801611,-0.151292,-0.168038,-0.33543,-0.360703,-0.348612,-0.0974244
31,65,-0.654498,-0.814493,-0.174533,-0.174533,-0.651144,-0.801611,-0.151292,-0.168038,-0.33543,-0.360703,-0.348612,-0.0974244
31,65,-0.654498,-0.814493,-0.174533,-0.174533,-0.651144,-0.801611,-0.151292,-0.168038,-0.33543,-0.360703,-0.348612,-0.0974244
31,65,-0.654498,-0.814493,-0.174533,-0.174533,-0.651144,-0.801611,-0.151292,-0.168038,-0.33543,-0.360703,-0.348612,-0.0974244
31,65,-0.654498,-0.814493,-0.174533,-0.174533,-0.651144,-0.801611,-0.151292,-0.168038,-0.33543,-0.360703,-0.348612,-0.0974244
31,65,-0.654498,-0.814493,-0.174533,-0.174533,-0.651144,-0.801611,-0.151292,-0.168038,-0.33543,-0.360703,-0.348612,-0.0974244
31,65,-0.654498,-0.814493,-0.174533,-0.174533,-0.651144,-0.801611,-0.151292,-0.168038,-0.33543,-0.360703,-0.348612,-0.0974244
31,65,-0.654498,-0.814493,-0.174533,-0.174533,-0.651144,-0.801611,-0.151292,-0.168038,-0.33543,-0.360703,-0.348612,-0.0974244
31,65,-0.654498,-0.814493,-0.174533,-0.174533,-0.651144,-0.801611,-0.151292,-0.168038,-0.33543,-0.360703,-0.348612,-0.0974244
31,65,-0.654498,-0.814493,-0.174533,-0.174533,-0.651144,-0.801611,-0.151292,-0.168038,-0.33543,-0.360703,-0.348612,-0.0974244
31,65,-0.654498,-0.814493,-0.174533,-0.174533,-0.651144,-0.801611,-0.151292,-0.168038,-0.33543,-0.360703,-0.348612,-0.0974244
31,65,-0.654498,-0.814493,-0.174533,-0.174533,-0.651144,-0.801611,-0.151292,-0.168038,-0.33543,-0.360703,-0.348612,-0.0974244
31,65,-0.654498,-0.814493,-0.174533,-0.174533,-0.651144,-0.801611,-0.151292,-0.168038,-0.33543,-0.360703,-0.348612,-0.0974244
31,65,-0.654498,-0.814493,-0.174533,-0.174533,-0.651144,-0.801611,-0.151292,-0.168038,-0.33543,-0.360703,-0.348612,-0.0974244
31,65,-0.654498,-0.814493,-0.174533,-0.174533,-0.651144,-0.801611,-0.151292,-0.168038,-0.33543,-0.360703,-0.348612,-0.0974244
31,65,-0.654498,-0.814493,-0.174533,-0.174533,-0.651144,-0.801611,-0.151292,-0.168038,-0.33543,-0.360703,-0.348612,-0.0974244
31,65,-0.654498,-0.814493,-0.174533,-0.174533,-0.651144,-0.801611,-0.151233,-0.168058,-0.33543,-0.360703,-0.349505,-0.0971253
31,65,-0.654498,-0.814493,-0.174533,-0.174533,-0.651144,-0.801611,-0.151233,-0.168058,-0.33543,-0.360703,-0.349505,-0.0971253
31,65,-0.654498,-0.814493,-0.174533,-0.174533,-0.651144,-0.801611,-0.151233,-0.168058,-0.33543,-0.360703,-0.349505,-0.0971253
31,65,-0.654498,-0.814493,-0.174533,-0.174533,-0.651144,-0.801611,-0.151233,-0.168058,-0.33543,-0.360703,-0.349505,-0.0971253
31,65,-0.654498,-0.814493,-0.174533,-0.174533,-0.651144,-0.801611,-0.151233,-0.168058,-0.33543,-0.360703,-0.349505,-0.0971253
31,65,-0.654498,-0.814493,-0.174533,-0.174533,-0.651144,-0.801611,-0.151233,-0.168058,-0.33543,-0.360703,-0.349505,-0.0971253
31,65,-0.654498,-0.814493,-0.174533,-0.174533,-0.651144,-0.801611,-0.151233,-0.168058,-0.33543,-0.360703,-0.349505,-0.0971253
31,65,-0.654498,-0.814493,-0.174533,-0.174533,-0.651144,-0.801611,-0.151233,-0.168058,-0.33543,-0.360703,-0.349505,-0.0971253
31,65,-0.654498,-0.814493,-0.174533,-0.174533,-0.651144,-0.801611,-0.151233,-0.168058,-0.33543,-0.360703,-0.349505,-0.0971253
31,65,-0.654498,-0.814493,-0.174533,-0.174533,-0.651144,-0.801611,-0.151233,-0.168058,-0.33543,-0.360703,-0.349505,-0.0971253
31,65,-0.654498,-0.814493,-0.174533,-0.174533,-0.651144,-0.801611,-0.151233,-0.168058,-0.33543,-0.360703,-0.349505,-0.0971253
31,65,-0.654498,-0.814493,-0.174533,-0.174533,-0.651144,-0.801611,-0.151233,-0.168058,-0.33543,-0.360703,-0.349505,-0.0971253
31,65,-0.654498,-0.814493,-0.174533,-0.174533,-0.651144,-0.801611,-0.151233,-0.168058,-0.33543,-0.360703,-0.349505,-0.0971253
31,65,-0.654498,-0.814493,-0.174533,-0.174533,-0.651144,-0.801611,-0.151233,-0.168058,-0.33543,-0.360703,-0.349505,-0.0971253
31,65,-0.654498,-0.814493,-0.174533,-0.174533,-0.651144,-0.801611,-0.151233,-0.168058,-0.33543,-0.360703,-0.349505,-0.0971253
31,65,-0.654498,-0.814493,-0.174533,-0.174533,-0.651144,-0.801611,-0.151233,-0.168058,-0.33543,-0.360703,-0.349505,-0.0971253
31,65,-0.654498,-0.814493,-0.174533,-0.174533,-0.651144,-0.801611,-0.151233,-0.168058,-0.33543,-0.360703,-0.349505,-0.0971253
31,65,-0.654498,-0.814493,-0.174533,-0.174533,-0.651144,-0.801611,-0.151233,-0.168058,-0.33543,-0.360703,-0.349505,-0.0971253
31,65,-0.654498,-0.814493,-0.174533,-0.174533,-0.651144,-0.801611,-0.151233,-0.168058,-0.33543,-0.360703,-0.349505,-0.0971253
31,65,-0.654498,-0.814493,-0.174533,-0.174533,-0.651144,-0.801611,-0.151233,-0.168058,-0.33543,-0.360703,-0.349505,-0.0971253
31,65,-0.654498,-0.814493,-0.174533,-0.174533,-0.651144,-0.801611,-0.151233,-0.168058,-0.33543,-0.360703,-0.349505,-0.0971253
31,65,-0.654498,-0.814493,-0.174533,-0.174533,-0.651144,-0.801611,-0.151233,-0.168058,-0.33543,-0.360703,-0.349505,-0.0971253
31,65,-0.654498,-0.814493,-0.174533,-0.174533,-0.651144,-0.801611,-0.151233,-0.168058,-0.33543,-0.360703,-0.349505,-0.0971253
31,65,-0.654498,-0.814493,-0.174533,-0.174533,-0.651144,-0.801611,-0.151233,-0.168058,-0.33543,-0.360703,-0.349505,-0.0971253
31,65,-0.654498,-0.814493,-0.174533,-0.174533,-0.651144,-0.801611,-0.151233,-0.168058,-0.33543,-0.360703,-0.349505,-0.0971253
31,65,-0.654498,-0.814493,-0.174533,-0.174533,-0.651144,-0.801611,-0.151233,-0.168058,-0.33543,-0.360703,-0.349505,-0.0971253
31,65,-0.654498,-0.814493,-0.174533,-0.174533,-0.651144,-0.801611,-0.151233,-0.168058,-0.33543,-0.360703,-0.349505,-0.0971253
31,65,-0.654498,-0.814493,-0.174533,-0.174533,-0.651144,-0.801611,-0.151233,-0.168058,-0.33543,-0.360703,-0.349505,-0.0971253
31,65,-0.654498,-0.814493,-0.174533,-0.174533,-0.651144,-0.801611,-0.151233,-0.168058,-0.33543,-0.360703,-0.349505,-0.0971253
31,65,-0.654498,-0.814493,-0.174533,-0.174533,-0.651144,-0.801611,-0.151233,-0.168058,-0.33543,-0.360703,-0.349505,-0.0971253
31,65,-0.654498,-0.814493,-0.174533,-0.174533,-0.651144,-0.801611,-0.151233,-0.168058,-0.33543,-0.360703,-0.349505,-0.0971253
31,65,-0.654498,-0.814493,-0.174533,-0.174533,-0.651144,-0.801611,-0.151233,-0.168058,-0.33543,-0.360703,-0.349505,-0.0971253
31,65,-0.654498,-0.814493,-0.174533,-0.174533,-0.651144,-0.801611,-0.151233,-0.168058,-0.33543,-0.360703,-0.349505,-0.0971253
31,65,-0.654498,-0.814493,-0.174533,-0.174533,-0.651144,-0.801611,-0.151233,-0.168058,-0.33543,-0.360703,-0.349505,-0.0971253
31,65,-0.654498,-0.814493,-0.174533,-0.174533,-0.651144,-0.801611,-0.151233,-0.168058,-0.33543,-0.360703,-0.349505,-0.0971253
31,65,-0.654498,-0.814493,-0.174533,-0.174533,-0.651144,-0.801611,-0.151233,-0.168058,-0.33543,-0.360703,-0.349505,-0.0971253
31,65,-0.654498,-0.814493,-0.174533,-0.174533,-0.651144,-0.801611,-0.151233,-0.168058,-0.33543,-0.360703,-0.349505,-0.0971253
31,65,-0.654498,-0.814493,-0.174533,-0.174533,-0.651144,-0.801611,-0.151233,-0.168058,-0.33543,-0.360703,-0.349505,-0.0971253
31,65,-0.654498,-0.814493,-0.174533,-0.174533,-0.651144,-0.801611,-0.151233,-0.168058,-0.33543,-0.360703,-0.349505,-0.0971253
31,65,-0.654498,-0.814493,-0.174533,-0.174533,-0.651144,-0.801611,-0.151233,-0.168058,-0.33543,-0.360703,-0.349505,-0.0971253
31,65,-0.654498,-0.814493,-0.174533,-0.174533,-0.651144,-0.801611,-0.151233,-0.168058,-0.33543,-0.360703,-0.349505,-0.0971253
31,65,-0.654498,-0.814493,-0.174533,-0.174533,-0.651144,-0.801611,-0.151233,-0.168058,-0.33543,-0.360703,-0.349505,-0.0971253
31,65,-0.654498,-0.814493,-0.174533,-0.174533,-0.651144,-0.801611,-0.151233,-0.168058,-0.33543,-0.360703,-0.349505,-0.0971253
31,65,-0.654498,-0.814493,-0.174533,-0.174533,-0.651144,-0.801611,-0.151233,-0.168058,-0.33543,-0.360703,-0.349505,-0.0971253
31,65,-0.654498,-0.814493,-0.174533,-0.174533,-0.651144,-0.801611,-0.151233,-0.168058,-0.33543,-0.360703,-0.349505,-0.0971253
31,65,-0.654498,-0.814493,-0.174533,-0.174533,-0.651144,-0.801611,-0.151233,-0.168058,-0.33543,-0.360703,-0.349505,-0.0971253
31,65,-0.654498,-0.814493,-0.174533,-0.174533,-0.651144,-0.801611,-0.151233,-0.168058,-0.33543,-0.360703,-0.349505,-0.0971253
31,65,-0.654498,-0.814493,-0.174533,-0.174533,-0.651144,-0.801611,-0.151233,-0.168058,-0.33543,-0.360703,-0.349505,-0.0971253
31,65,-0.654498,-0.814493,-0.174533,-0.174533,-0.651144,-0.801611,-0.151233,-0.168058,-0.33543,-0.360703,-0.349505,-0.0971253
31,65,-0.654498,-0.814493,-0.174533,-0.174533,-0.651144,-0.801611,-0.151233,-0.168058,-0.33543,-0.360703,-0.349505,-0.0971253
31,65,-0.654498,-0.814493,-0.174533,-0.174533,-0.651144,-0.801611,-0.151233,-0.168058,-0.33543,-0.360703,-0.349505,-0.0971253
31,65,-0.654498,-0.814493,-0.174533,-0.174533,-0.651144,-0.801611,-0.151233,-0.168058,-0.33543,-0.360703,-0.349505,-0.0971253
31,65,-0.654498,-0.814493,-0.174533,-0.174533,-0.651144,-0.801611,-0.151233,-0.168058,-0.33543,-0.360703,-0.349505,-0.0971253
31,65,-0.654498,-0.814493,-0.174533,-0.174533,-0.651144,-0.801611,-0.151233,-0.168058,-0.33543,-0.360703,-0.349505,-0.0971253
31,65,-0.654498,-0.814493,-0.174533,-0.174533,-0.651144,-0.801611,-0.151233,-0.168058,-0.33543,-0.360703,-0.349505,-0.0971253
31,65,-0.654498,-0.814493,-0.174533,-0.174533,-0.651144,-0.801611,-0.151233,-0.168058,-0.33543,-0.360703,-0.349505,-0.0971253
31,65,-0.654498,-0.814493,-0.174533,-0.174533,-0.651144,-0.801611,-0.151233,-0.168058,-0.33543,-0.360703,-0.349505,-0.0971253
31,65,-0.654498,-0.814493,-0.174533,-0.174533,-0.651144,-0.801611,-0.151233,-0.168058,-0.33543,-0.360703,-0.349505,-0.0971253
31,65,-0.654498,-0.814493,-0.174533,-0.174533,-0.651144,-0.801611,-0.151233,-0.168058,-0.33543,-0.360703,-0.349505,-0.0971253
31,65,-0.654498,-0.814493,-0.174533,-0.174533,-0.651144,-0.801611,-0.151233,-0.168058,-0.33543,-0.360703,-0.349505,-0.0971253
31,65,-0.654498,-0.814493,-0.174533,-0.174533,-0.651144,-0.801611,-0.151233,-0.168058,-0.33543,-0.360703,-0.349505,-0.0971253
31,65,-0.654498,-0.814493,-0.174533,-0.174533,-0.651144,-0.801611,-0.151233,-0.168058,-0.33543,-0.360703,-0.349505,-0.0971253
31,65,-0.654498,-0.814493,-0.174533,-0.174533,-0.651144,-0.801611,-0.151233,-0.168058,-0.33543,-0.360703,-0.349505,-0.0971253
31,65,-0.654498,-0.814493,-0.174533,-0.174533,-0.651144,-0.801611,-0.151233,-0.168058,-0.33543,-0.360703,-0.349505,-0.0971253
31,65,-0.654498,-0.814493,-0.174533,-0.174533,-0.651144,-0.801611,-0.151233,-0.168058,-0.33543,-0.360703,-0.349505,-0.0971253
31,65,-0.654498,-0.814493,-0.174533,-0.174533,-0.651144,-0.801611,-0.151233,-0.168058,-0.33543,-0.360703,-0.349505,-0.0971253
31,65,-0.654498,-0.814493,-0.174533,-0.174533,-0.651144,-0.801611,-0.151233,-0.168058,-0.33543,-0.360703,-0.349505,-0.0971253
31,65,-0.654498,-0.814493,-0.174533,-0.174533,-0.651144,-0.801611,-0.151233,-0.168058,-0.33543,-0.360703,-0.349505,-0.0971253
31,65,-0.654498,-0.814493,-0.174533,-0.174533,-0.651144,-0.801611,-0.151233,-0.168058,-0.33543,-0.360703,-0.349505,-0.0971253
31,65,-0.654498,-0.814493,-0.174533,-0.174533,-0.651144,-0.801611,-0.151233,-0.168058,-0.33543,-0.360703,-0.349505,-0.0971253
31,65,-0.654498,-0.814493,-0.174533,-0.174533,-0.651144,-0.801611,-0.151233,-0.168058,-0.33543,-0.360703,-0.349505,-0.0971253
31,65,-0.654498,-0.814493,-0.174533,-0.174533,-0.651144,-0.801611,-0.151233,-0.168058,-0.33543,-0.360703,-0.349505,-0.0971253
31,65,-0.654498,-0.814493,-0.174533,-0.174533,-0.651144,-0.801611,-0.151233,-0.168058,-0.33543,-0.360703,-0.349505,-0.0971253
31,65,-0.654498,-0.814493,-0.174533,-0.174533,-0.651144,-0.801611,-0.151233,-0.168058,-0.33543,-0.360703,-0.349505,-0.0971253
31,65,-0.654498,-0.814493,-0.174533,-0.174533,-0.651144,-0.801611,-0.151233,-0.168058,-0.33543,-0.360703,-0.349505,-0.0971253
31,65,-0.654498,-0.814493,-0.174533,-0.174533,-0.651144,-0.801611,-0.151233,-0.168058,-0.33543,-0.360703,-0.349505,-0.0971253
31,65,-0.654498,-0.814493,-0.174533,-0.174533,-0.651144,-0.801611,-0.151233,-0.168058,-0.33543,-0.360703,-0.349505,-0.0971253
31,65,-0.654498,-0.814493,-0.174533,-0.174533,-0.651144,-0.801611,-0.151233,-0.168058,-0.33543,-0.360703,-0.349505,-0.0971253
31,65,-0.654498,-0.814493,-0.174533,-0.174533,-0.651144,-0.801611,-0.151233,-0.168058,-0.33543,-0.360703,-0.349505,-0.0971253
31,65,-0.654498,-0.814493,-0.174533,-0.174533,-0.651144,-0.801611,-0.151233,-0.168058,-0.33543,-0.360703,-0.349505,-0.0971253
31,65,-0.654498,-0.814493,-0.174533,-0.174533,-0.651144,-0.801611,-0.151233,-0.168058,-0.33543,-0.360703,-0.349505,-0.0971253
31,65,-0.654498,-0.814493,-0.174533,-0.174533,-0.651144,-0.801611,-0.151233,-0.168058,-0.33543,-0.360703,-0.349505,-0.0971253
31,65,-0.654498,-0.814493,-0.174533,-0.174533,-0.651144,-0.801611,-0.151233,-0.168058,-0.33543,-0.360703,-0.349505,-0.0971253
31,65,-0.654498,-0.814493,-0.174533,-0.174533,-0.651144,-0.801611,-0.151233,-0.168058,-0.33543,-0.360703,-0.349505,-0.0971253
31,65,-0.654498,-0.814493,-0.174533,-0.174533,-0.651144,-0.801611,-0.151233,-0.168058,-0.33543,-0.360703,-0.349505,-0.0971253
31,65,-0.654498,-0.814493,-0.174533,-0.174533,-0.651144,-0.801611,-0.151233,-0.168058,-0.33543,-0.360703,-0.349505,-0.0971253
31,65,-0.654498,-0.814493,-0.174533,-0.174533,-0.651144,-0.801611,-0.151233,-0.168058,-0.33543,-0.360703,-0.349505,-0.0971253
31,65,-0.654498,-0.814493,-0.174533,-0.174533,-0.651144,-0.801611,-0.151233,-0.168058,-0.33543,-0.360703,-0.349505,-0.0971253
31,65,-0.654498,-0.814493,-0.174533,-0.174533,-0.651144,-0.801611,-0.151233,-0.168058,-0.33543,-0.360703,-0.349505,-0.0971253
31,65,-0.654498,-0.814493,-0.174533,-0.174533,-0.651144,-0.801661,-0.151233,-0.168058,-0.33543,-0.359279,-0.349505,-0.0971253
31,65,-0.654498,-0.814493,-0.174533,-0.174533,-0.651144,-0.801661,-0.151233,-0.168058,-0.33543,-0.359279,-0.349505,-0.0971253
