stim_pw [us],stim_amp [mA],com_elbow_fe [rad],com_forearm_ps [rad],com_wrist_fe [rad],com_wrist_ru [rad],act_elbow_fe [rad],act_forearm_ps [rad],act_wrist_fe [rad],act_wrist_ru [rad],elbow_fe_trq [Nm],forearm_ps_trq [Nm],wrist_fe_trq [Nm],wrist_ru_trq [Nm]
31,65,-0.654498,-0.814493,-0.174533,-0.174533,-0.646348,-0.804661,-0.148495,-0.175611,-0.815055,-0.27529,-0.390567,0.0161685
31,65,-0.654498,-0.814493,-0.174533,-0.174533,-0.646348,-0.804661,-0.148495,-0.175611,-0.815055,-0.27529,-0.390567,0.0161685
31,65,-0.654498,-0.814493,-0.174533,-0.174533,-0.646348,-0.804661,-0.148495,-0.175611,-0.815055,-0.27529,-0.390567,0.0161685
31,65,-0.654498,-0.814493,-0.174533,-0.174533,-0.646348,-0.804661,-0.148495,-0.175611,-0.815055,-0.27529,-0.390567,0.0161685
31,65,-0.654498,-0.814493,-0.174533,-0.174533,-0.646348,-0.804661,-0.148495,-0.175611,-0.815055,-0.27529,-0.390567,0.0161685
31,65,-0.654498,-0.814493,-0.174533,-0.174533,-0.646348,-0.804661,-0.148495,-0.175611,-0.815055,-0.27529,-0.390567,0.0161685
31,65,-0.654498,-0.814493,-0.174533,-0.174533,-0.646348,-0.804661,-0.148495,-0.175611,-0.815055,-0.27529,-0.390567,0.0161685
31,65,-0.654498,-0.814493,-0.174533,-0.174533,-0.646348,-0.804661,-0.148495,-0.175611,-0.815055,-0.27529,-0.390567,0.0161685
31,65,-0.654498,-0.814493,-0.174533,-0.174533,-0.646348,-0.804661,-0.148495,-0.175611,-0.815055,-0.27529,-0.390567,0.0161685
31,65,-0.654498,-0.814493,-0.174533,-0.174533,-0.646348,-0.804661,-0.148495,-0.175611,-0.815055,-0.27529,-0.390567,0.0161685
31,65,-0.654498,-0.814493,-0.174533,-0.174533,-0.646348,-0.804661,-0.148495,-0.175611,-0.815055,-0.27529,-0.390567,0.0161685
31,65,-0.654498,-0.814493,-0.174533,-0.174533,-0.646348,-0.804661,-0.148495,-0.175611,-0.815055,-0.27529,-0.390567,0.0161685
31,65,-0.654498,-0.814493,-0.174533,-0.174533,-0.646348,-0.804661,-0.148495,-0.175611,-0.815055,-0.27529,-0.390567,0.0161685
31,65,-0.654498,-0.814493,-0.174533,-0.174533,-0.646348,-0.804661,-0.148495,-0.175611,-0.815055,-0.27529,-0.390567,0.0161685
31,65,-0.654498,-0.814493,-0.174533,-0.174533,-0.646348,-0.804661,-0.148495,-0.175611,-0.815055,-0.27529,-0.390567,0.0161685
31,65,-0.654498,-0.814493,-0.174533,-0.174533,-0.646348,-0.804661,-0.148495,-0.175611,-0.815055,-0.27529,-0.390567,0.0161685
31,65,-0.654498,-0.814493,-0.174533,-0.174533,-0.646348,-0.804661,-0.148495,-0.175611,-0.815055,-0.27529,-0.390567,0.0161685
31,65,-0.654498,-0.814493,-0.174533,-0.174533,-0.646348,-0.804661,-0.148435,-0.175631,-0.815055,-0.27529,-0.391467,0.0164664
31,65,-0.654498,-0.814493,-0.174533,-0.174533,-0.646348,-0.804661,-0.148435,-0.175631,-0.815055,-0.27529,-0.391467,0.0164664
31,65,-0.654498,-0.814493,-0.174533,-0.174533,-0.646348,-0.804661,-0.148435,-0.175631,-0.815055,-0.27529,-0.391467,0.0164664
31,65,-0.654498,-0.814493,-0.174533,-0.174533,-0.646348,-0.804661,-0.148435,-0.175631,-0.815055,-0.27529,-0.391467,0.0164664
31,65,-0.654498,-0.814493,-0.174533,-0.174533,-0.646348,-0.804661,-0.148435,-0.175631,-0.815055,-0.27529,-0.391467,0.0164664
31,65,-0.654498,-0.814493,-0.174533,-0.174533,-0.646348,-0.804661,-0.148435,-0.175631,-0.815055,-0.27529,-0.391467,0.0164664
31,65,-0.654498,-0.814493,-0.174533,-0.174533,-0.646348,-0.804661,-0.148435,-0.175631,-0.815055,-0.27529,-0.391467,0.0164664
31,65,-0.654498,-0.814493,-0.174533,-0.174533,-0.646348,-0.804661,-0.148435,-0.175631,-0.815055,-0.27529,-0.391467,0.0164664
31,65,-0.654498,-0.814493,-0.174533,-0.174533,-0.646348,-0.804661,-0.148435,-0.175631,-0.815055,-0.27529,-0.391467,0.0164664
31,65,-0.654498,-0.814493,-0.174533,-0.174533,-0.646348,-0.804661,-0.148435,-0.175631,-0.815055,-0.27529,-0.391467,0.0164664
31,65,-0.654498,-0.814493,-0.174533,-0.174533,-0.646348,-0.804661,-0.148435,-0.175631,-0.815055,-0.27529,-0.391467,0.0164664
31,65,-0.654498,-0.814493,-0.174533,-0.174533,-0.646348,-0.804661,-0.148435,-0.175631,-0.815055,-0.27529,-0.391467,0.0164664
31,65,-0.654498,-0.814493,-0.174533,-0.174533,-0.646348,-0.804661,-0.148435,-0.175631,-0.815055,-0.27529,-0.391467,0.0164664
31,65,-0.654498,-0.814493,-0.174533,-0.174533,-0.646348,-0.804661,-0.148435,-0.175631,-0.815055,-0.27529,-0.391467,0.0164664
31,65,-0.654498,-0.814493,-0.174533,-0.174533,-0.646348,-0.804661,-0.148435,-0.175631,-0.815055,-0.27529,-0.391467,0.0164664
31,65,-0.654498,-0.814493,-0.174533,-0.174533,-0.646348,-0.804661,-0.148435,-0.175631,-0.815055,-0.27529,-0.391467,0.0164664
31,65,-0.654498,-0.814493,-0.174533,-0.174533,-0.646348,-0.804661,-0.148435,-0.175631,-0.815055,-0.27529,-0.391467,0.0164664
31,65,-0.654498,-0.814493,-0.174533,-0.174533,-0.646348,-0.804661,-0.148435,-0.175631,-0.815055,-0.27529,-0.391467,0.0164664
31,65,-0.654498,-0.814493,-0.174533,-0.174533,-0.646348,-0.804661,-0.148435,-0.175631,-0.815055,-0.27529,-0.391467,0.0164664
31,65,-0.654498,-0.814493,-0.174533,-0.174533,-0.646348,-0.804661,-0.148435,-0.175631,-0.815055,-0.27529,-0.391467,0.0164664
31,65,-0.654498,-0.814493,-0.174533,-0.174533,-0.646348,-0.804661,-0.148435,-0.175631,-0.815055,-0.27529,-0.391467,0.0164664
31,65,-0.654498,-0.814493,-0.174533,-0.174533,-0.646348,-0.804661,-0.148435,-0.175631,-0.815055,-0.27529,-0.391467,0.0164664
31,65,-0.654498,-0.814493,-0.174533,-0.174533,-0.646348,-0.804661,-0.148435,-0.175631,-0.815055,-0.27529,-0.391467,0.0164664
31,65,-0.654498,-0.814493,-0.174533,-0.174533,-0.646348,-0.804661,-0.148435,-0.175631,-0.815055,-0.27529,-0.391467,0.0164664
31,65,-0.654498,-0.814493,-0.174533,-0.174533,-0.646348,-0.804661,-0.148435,-0.175631,-0.815055,-0.27529,-0.391467,0.0164664
31,65,-0.654498,-0.814493,-0.174533,-0.174533,-0.646348,-0.804661,-0.148435,-0.175631,-0.815055,-0.27529,-0.391467,0.0164664
31,65,-0.654498,-0.814493,-0.174533,-0.174533,-0.646348,-0.804661,-0.148435,-0.175631,-0.815055,-0.27529,-0.391467,0.0164664
31,65,-0.654498,-0.814493,-0.174533,-0.174533,-0.646348,-0.804661,-0.148435,-0.175631,-0.815055,-0.27529,-0.391467,0.0164664
31,65,-0.654498,-0.814493,-0.174533,-0.174533,-0.646348,-0.804661,-0.148435,-0.175631,-0.815055,-0.27529,-0.391467,0.0164664
31,65,-0.654498,-0.814493,-0.174533,-0.174533,-0.646348,-0.804661,-0.148435,-0.175631,-0.815055,-0.27529,-0.391467,0.0164664
31,65,-0.654498,-0.814493,-0.174533,-0.174533,-0.646348,-0.804661,-0.148435,-0.175631,-0.815055,-0.27529,-0.391467,0.0164664
31,65,-0.654498,-0.814493,-0.174533,-0.174533,-0.646348,-0.804661,-0.148435,-0.175631,-0.815055,-0.27529,-0.391467,0.0164664
31,65,-0.654498,-0.814493,-0.174533,-0.174533,-0.646348,-0.804661,-0.148435,-0.175631,-0.815055,-0.27529,-0.391467,0.0164664
31,65,-0.654498,-0.814493,-0.174533,-0.174533,-0.646348,-0.804661,-0.148435,-0.175631,-0.815055,-0.27529,-0.391467,0.0164664
31,65,-0.654498,-0.814493,-0.174533,-0.174533,-0.646348,-0.804661,-0.148435,-0.175631,-0.815055,-0.27529,-0.391467,0.0164664
31,65,-0.654498,-0.814493,-0.174533,-0.174533,-0.646348,-0.804661,-0.148435,-0.175631,-0.815055,-0.27529,-0.391467,0.0164664
31,65,-0.654498,-0.814493,-0.174533,-0.174533,-0.646348,-0.804661,-0.148435,-0.175631,-0.815055,-0.27529,-0.391467,0.0164664
31,65,-0.654498,-0.814493,-0.174533,-0.174533,-0.646348,-0.804661,-0.148435,-0.175631,-0.815055,-0.27529,-0.391467,0.0164664
31,65,-0.654498,-0.814493,-0.174533,-0.174533,-0.646348,-0.804661,-0.148435,-0.175631,-0.815055,-0.27529,-0.391467,0.0164664
31,65,-0.654498,-0.814493,-0.174533,-0.174533,-0.646348,-0.804661,-0.148435,-0.175631,-0.815055,-0.27529,-0.391467,0.0164664
31,65,-0.654498,-0.814493,-0.174533,-0.174533,-0.646348,-0.804661,-0.148435,-0.175631,-0.815055,-0.27529,-0.391467,0.0164664
31,65,-0.654498,-0.814493,-0.174533,-0.174533,-0.646348,-0.804661,-0.148435,-0.175631,-0.815055,-0.27529,-0.391467,0.0164664
31,65,-0.654498,-0.814493,-0.174533,-0.174533,-0.646348,-0.804661,-0.148435,-0.175631,-0.815055,-0.27529,-0.391467,0.0164664
31,65,-0.654498,-0.814493,-0.174533,-0.174533,-0.646348,-0.804661,-0.148435,-0.175631,-0.815055,-0.27529,-0.391467,0.0164664
31,65,-0.654498,-0.814493,-0.174533,-0.174533,-0.646348,-0.804661,-0.148435,-0.175631,-0.815055,-0.27529,-0.391467,0.0164664
31,65,-0.654498,-0.814493,-0.174533,-0.174533,-0.646348,-0.804661,-0.148375,-0.175651,-0.815055,-0.27529,-0.392366,0.0167644
31,65,-0.654498,-0.814493,-0.174533,-0.174533,-0.646348,-0.804661,-0.148375,-0.175651,-0.815055,-0.27529,-0.392366,0.0167644
31,65,-0.654498,-0.814493,-0.174533,-0.174533,-0.646348,-0.804661,-0.148375,-0.175651,-0.815055,-0.27529,-0.392366,0.0167644
31,65,-0.654498,-0.814493,-0.174533,-0.174533,-0.646348,-0.804661,-0.148375,-0.175651,-0.815055,-0.27529,-0.392366,0.0167644
31,65,-0.654498,-0.814493,-0.174533,-0.174533,-0.646348,-0.804661,-0.148375,-0.175651,-0.815055,-0.27529,-0.392366,0.0167644
31,65,-0.654498,-0.814493,-0.174533,-0.174533,-0.646348,-0.804661,-0.148375,-0.175651,-0.815055,-0.27529,-0.392366,0.0167644
31,65,-0.654498,-0.814493,-0.174533,-0.174533,-0.646348,-0.804661,-0.148375,-0.175651,-0.815055,-0.27529,-0.392366,0.0167644
31,65,-0.654498,-0.814493,-0.174533,-0.174533,-0.646348,-0.804661,-0.148375,-0.175651,-0.815055,-0.27529,-0.392366,0.0167644
31,65,-0.654498,-0.814493,-0.174533,-0.174533,-0.646348,-0.804661,-0.148375,-0.175651,-0.815055,-0.27529,-0.392366,0.0167644
31,65,-0.654498,-0.814493,-0.174533,-0.174533,-0.646348,-0.804661,-0.148375,-0.175651,-0.815055,-0.27529,-0.392366,0.0167644
31,65,-0.654498,-0.814493,-0.174533,-0.174533,-0.646348,-0.804661,-0.148375,-0.175651,-0.815055,-0.27529,-0.392366,0.0167644
31,65,-0.654498,-0.814493,-0.174533,-0.174533,-0.646348,-0.804661,-0.148375,-0.175651,-0.815055,-0.27529,-0.392366,0.0167644
31,65,-0.654498,-0.814493,-0.174533,-0.174533,-0.646348,-0.804661,-0.148375,-0.175651,-0.815055,-0.27529,-0.392366,0.0167644
31,65,-0.654498,-0.814493,-0.174533,-0.174533,-0.646348,-0.804661,-0.148375,-0.175651,-0.815055,-0.27529,-0.392366,0.0167644
31,65,-0.654498,-0.814493,-0.174533,-0.174533,-0.646348,-0.804661,-0.148375,-0.175651,-0.815055,-0.27529,-0.392366,0.0167644
31,65,-0.654498,-0.814493,-0.174533,-0.174533,-0.646348,-0.804661,-0.148375,-0.175651,-0.815055,-0.27529,-0.392366,0.0167644
31,65,-0.654498,-0.814493,-0.174533,-0.174533,-0.646348,-0.804661,-0.148375,-0.175651,-0.815055,-0.27529,-0.392366,0.0167644
31,65,-0.654498,-0.814493,-0.174533,-0.174533,-0.646348,-0.804661,-0.148375,-0.175651,-0.815055,-0.27529,-0.392366,0.0167644
31,65,-0.654498,-0.814493,-0.174533,-0.174533,-0.646348,-0.804661,-0.148375,-0.175651,-0.815055,-0.27529,-0.392366,0.0167644
31,65,-0.654498,-0.814493,-0.174533,-0.174533,-0.646348,-0.804661,-0.148375,-0.175651,-0.815055,-0.27529,-0.392366,0.0167644
31,65,-0.654498,-0.814493,-0.174533,-0.174533,-0.646348,-0.804661,-0.148375,-0.175651,-0.815055,-0.27529,-0.392366,0.0167644
31,65,-0.654498,-0.814493,-0.174533,-0.174533,-0.646348,-0.804661,-0.148375,-0.175651,-0.815055,-0.27529,-0.392366,0.0167644
31,65,-0.654498,-0.814493,-0.174533,-0.174533,-0.646348,-0.804661,-0.148375,-0.175651,-0.815055,-0.27529,-0.392366,0.0167644
31,65,-0.654498,-0.814493,-0.174533,-0.174533,-0.646348,-0.804661,-0.148375,-0.175651,-0.815055,-0.27529,-0.392366,0.0167644
31,65,-0.654498,-0.814493,-0.174533,-0.174533,-0.646348,-0.804661,-0.148375,-0.175651,-0.815055,-0.27529,-0.392366,0.0167644
31,65,-0.654498,-0.814493,-0.174533,-0.174533,-0.646348,-0.804661,-0.148375,-0.175651,-0.815055,-0.27529,-0.392366,0.0167644
31,65,-0.654498,-0.814493,-0.174533,-0.174533,-0.646348,-0.804661,-0.148375,-0.175651,-0.815055,-0.27529,-0.392366,0.0167644
31,65,-0.654498,-0.814493,-0.174533,-0.174533,-0.646348,-0.804712,-0.148375,-0.175651,-0.815055,-0.273867,-0.392366,0.0167644
31,65,-0.654498,-0.814493,-0.174533,-0.174533,-0.646348,-0.804712,-0.148375,-0.175651,-0.815055,-0.273867,-0.392366,0.0167644
31,65,-0.654498,-0.814493,-0.174533,-0.174533,-0.646348,-0.804712,-0.148375,-0.175651,-0.815055,-0.273867,-0.392366,0.0167644
31,65,-0.654498,-0.814493,-0.174533,-0.174533,-0.646348,-0.804712,-0.148375,-0.175651,-0.815055,-0.273867,-0.392366,0.0167644
31,65,-0.654498,-0.814493,-0.174533,-0.174533,-0.646348,-0.804712,-0.148375,-0.175651,-0.815055,-0.273867,-0.392366,0.0167644
31,65,-0.654498,-0.814493,-0.174533,-0.174533,-0.646348,-0.804712,-0.148375,-0.175651,-0.815055,-0.273867,-0.392366,0.0167644
31,65,-0.654498,-0.814493,-0.174533,-0.174533,-0.646348,-0.804712,-0.148375,-0.175651,-0.815055,-0.273867,-0.392366,0.0167644
31,65,-0.654498,-0.814493,-0.174533,-0.174533,-0.646348,-0.804712,-0.148375,-0.175651,-0.815055,-0.273867,-0.392366,0.0167644
31,65,-0.654498,-0.814493,-0.174533,-0.174533,-0.646348,-0.804712,-0.148375,-0.175651,-0.815055,-0.273867,-0.392366,0.0167644
31,65,-0.654498,-0.814493,-0.174533,-0.174533,-0.646348,-0.804712,-0.148375,-0.175651,-0.815055,-0.273867,-0.392366,0.0167644
31,65,-0.654498,-0.814493,-0.174533,-0.174533,-0.646348,-0.804712,-0.148375,-0.175651,-0.815055,-0.273867,-0.392366,0.0167644
31,65,-0.654498,-0.814493,-0.174533,-0.174533,-0.646348,-0.804712,-0.148375,-0.175651,-0.815055,-0.273867,-0.392366,0.0167644
31,65,-0.654498,-0.814493,-0.174533,-0.174533,-0.646348,-0.804712,-0.148375,-0.175651,-0.815055,-0.273867,-0.392366,0.0167644
31,65,-0.654498,-0.814493,-0.174533,-0.174533,-0.646348,-0.804712,-0.148375,-0.175651,-0.815055,-0.273867,-0.392366,0.0167644
31,65,-0.654498,-0.814493,-0.174533,-0.174533,-0.646348,-0.804712,-0.148375,-0.175651,-0.815055,-0.273867,-0.392366,0.0167644
31,65,-0.654498,-0.814493,-0.174533,-0.174533,-0.646348,-0.804712,-0.148375,-0.175651,-0.815055,-0.273867,-0.392366,0.0167644
31,65,-0.654498,-0.814493,-0.174533,-0.174533,-0.646348,-0.804712,-0.148439,-0.175692,-0.815055,-0.273867,-0.391403,0.0173858
31,65,-0.654498,-0.814493,-0.174533,-0.174533,-0.646348,-0.804712,-0.148439,-0.175692,-0.815055,-0.273867,-0.391403,0.0173858
31,65,-0.654498,-0.814493,-0.174533,-0.174533,-0.646348,-0.804712,-0.148439,-0.175692,-0.815055,-0.273867,-0.391403,0.0173858
31,65,-0.654498,-0.814493,-0.174533,-0.174533,-0.646348,-0.804712,-0.148439,-0.175692,-0.815055,-0.273867,-0.391403,0.0173858
31,65,-0.654498,-0.814493,-0.174533,-0.174533,-0.646348,-0.804712,-0.148439,-0.175692,-0.815055,-0.273867,-0.391403,0.0173858
31,65,-0.654498,-0.814493,-0.174533,-0.174533,-0.646348,-0.804712,-0.148439,-0.175692,-0.815055,-0.273867,-0.391403,0.0173858
31,65,-0.654498,-0.814493,-0.174533,-0.174533,-0.646348,-0.804712,-0.148439,-0.175692,-0.815055,-0.273867,-0.391403,0.0173858
31,65,-0.654498,-0.814493,-0.174533,-0.174533,-0.646348,-0.804712,-0.148439,-0.175692,-0.815055,-0.273867,-0.391403,0.0173858
31,65,-0.654498,-0.814493,-0.174533,-0.174533,-0.646348,-0.804712,-0.148439,-0.175692,-0.815055,-0.273867,-0.391403,0.0173858
31,65,-0.654498,-0.814493,-0.174533,-0.174533,-0.646348,-0.804712,-0.148439,-0.175692,-0.815055,-0.273867,-0.391403,0.0173858
31,65,-0.654498,-0.814493,-0.174533,-0.174533,-0.646348,-0.804712,-0.148439,-0.175692,-0.815055,-0.273867,-0.391403,0.0173858
31,65,-0.654498,-0.814493,-0.174533,-0.174533,-0.646348,-0.804712,-0.148439,-0.175692,-0.815055,-0.273867,-0.391403,0.0173858
31,65,-0.654498,-0.814493,-0.174533,-0.174533,-0.646348,-0.804712,-0.148439,-0.175692,-0.815055,-0.273867,-0.391403,0.0173858
31,65,-0.654498,-0.814493,-0.174533,-0.174533,-0.646348,-0.804712,-0.148439,-0.175692,-0.815055,-0.273867,-0.391403,0.0173858
31,65,-0.654498,-0.814493,-0.174533,-0.174533,-0.646348,-0.804712,-0.148439,-0.175692,-0.815055,-0.273867,-0.391403,0.0173858
31,65,-0.654498,-0.814493,-0.174533,-0.174533,-0.646348,-0.804712,-0.148439,-0.175692,-0.815055,-0.273867,-0.391403,0.0173858
31,65,-0.654498,-0.814493,-0.174533,-0.174533,-0.646348,-0.804712,-0.148439,-0.175692,-0.815055,-0.273867,-0.391403,0.0173858
31,65,-0.654498,-0.814493,-0.174533,-0.174533,-0.646348,-0.804712,-0.148439,-0.175692,-0.815055,-0.273867,-0.391403,0.0173858
31,65,-0.654498,-0.814493,-0.174533,-0.174533,-0.646348,-0.804712,-0.148439,-0.175692,-0.815055,-0.273867,-0.391403,0.0173858
31,65,-0.654498,-0.814493,-0.174533,-0.174533,-0.646348,-0.804712,-0.148439,-0.175692,-0.815055,-0.273867,-0.391403,0.0173858
31,65,-0.654498,-0.814493,-0.174533,-0.174533,-0.646348,-0.804712,-0.148439,-0.175692,-0.815055,-0.273867,-0.391403,0.0173858
31,65,-0.654498,-0.814493,-0.174533,-0.174533,-0.646348,-0.804712,-0.148439,-0.175692,-0.815055,-0.273867,-0.391403,0.0173858
31,65,-0.654498,-0.814493,-0.174533,-0.174533,-0.646348,-0.804712,-0.148439,-0.175692,-0.815055,-0.273867,-0.391403,0.0173858
31,65,-0.654498,-0.814493,-0.174533,-0.174533,-0.646348,-0.804712,-0.148439,-0.175692,-0.815055,-0.273867,-0.391403,0.0173858
31,65,-0.654498,-0.814493,-0.174533,-0.174533,-0.646348,-0.804712,-0.148439,-0.175692,-0.815055,-0.273867,-0.391403,0.0173858
31,65,-0.654498,-0.814493,-0.174533,-0.174533,-0.646348,-0.804712,-0.148439,-0.175692,-0.815055,-0.273867,-0.391403,0.0173858
31,65,-0.654498,-0.814493,-0.174533,-0.174533,-0.646348,-0.804712,-0.148439,-0.175692,-0.815055,-0.273867,-0.391403,0.0173858
31,65,-0.654498,-0.814493,-0.174533,-0.174533,-0.646348,-0.804712,-0.148439,-0.175692,-0.815055,-0.273867,-0.391403,0.0173858
31,65,-0.654498,-0.814493,-0.174533,-0.174533,-0.646348,-0.804712,-0.148439,-0.175692,-0.815055,-0.273867,-0.391403,0.0173858
31,65,-0.654498,-0.814493,-0.174533,-0.174533,-0.646348,-0.804712,-0.148439,-0.175692,-0.815055,-0.273867,-0.391403,0.0173858
31,65,-0.654498,-0.814493,-0.174533,-0.174533,-0.646348,-0.804712,-0.148439,-0.175692,-0.815055,-0.273867,-0.391403,0.0173858
31,65,-0.654498,-0.814493,-0.174533,-0.174533,-0.646348,-0.804712,-0.148439,-0.175692,-0.815055,-0.273867,-0.391403,0.0173858
31,65,-0.654498,-0.814493,-0.174533,-0.174533,-0.646348,-0.804712,-0.148439,-0.175692,-0.815055,-0.273867,-0.391403,0.0173858
31,65,-0.654498,-0.814493,-0.174533,-0.174533,-0.646348,-0.804712,-0.148439,-0.175692,-0.815055,-0.273867,-0.391403,0.0173858
31,65,-0.654498,-0.814493,-0.174533,-0.174533,-0.646348,-0.804712,-0.148439,-0.175692,-0.815055,-0.273867,-0.391403,0.0173858
31,65,-0.654498,-0.814493,-0.174533,-0.174533,-0.646348,-0.804712,-0.148439,-0.175692,-0.815055,-0.273867,-0.391403,0.0173858
31,65,-0.654498,-0.814493,-0.174533,-0.174533,-0.646348,-0.804712,-0.148439,-0.175692,-0.815055,-0.273867,-0.391403,0.0173858
31,65,-0.654498,-0.814493,-0.174533,-0.174533,-0.646348,-0.804712,-0.148439,-0.175692,-0.815055,-0.273867,-0.391403,0.0173858
31,65,-0.654498,-0.814493,-0.174533,-0.174533,-0.646348,-0.804712,-0.148439,-0.175692,-0.815055,-0.273867,-0.391403,0.0173858
31,65,-0.654498,-0.814493,-0.174533,-0.174533,-0.646348,-0.804712,-0.148439,-0.175692,-0.815055,-0.273867,-0.391403,0.0173858
31,65,-0.654498,-0.814493,-0.174533,-0.174533,-0.646348,-0.804712,-0.148439,-0.175692,-0.815055,-0.273867,-0.391403,0.0173858
31,65,-0.654498,-0.814493,-0.174533,-0.174533,-0.646348,-0.804712,-0.148439,-0.175692,-0.815055,-0.273867,-0.391403,0.0173858
31,65,-0.654498,-0.814493,-0.174533,-0.174533,-0.646348,-0.804712,-0.148439,-0.175692,-0.815055,-0.273867,-0.391403,0.0173858
31,65,-0.654498,-0.814493,-0.174533,-0.174533,-0.646348,-0.804712,-0.148439,-0.175692,-0.815055,-0.273867,-0.391403,0.0173858
31,65,-0.654498,-0.814493,-0.174533,-0.174533,-0.646348,-0.804712,-0.148439,-0.175692,-0.815055,-0.273867,-0.391403,0.0173858
31,65,-0.654498,-0.814493,-0.174533,-0.174533,-0.646348,-0.804712,-0.148439,-0.175692,-0.815055,-0.273867,-0.391403,0.0173858
31,65,-0.654498,-0.814493,-0.174533,-0.174533,-0.646348,-0.804712,-0.148439,-0.175692,-0.815055,-0.273867,-0.391403,0.0173858
31,65,-0.654498,-0.814493,-0.174533,-0.174533,-0.646348,-0.804712,-0.148439,-0.175692,-0.815055,-0.273867,-0.391403,0.0173858
31,65,-0.654498,-0.814493,-0.174533,-0.174533,-0.646348,-0.804712,-0.148439,-0.175692,-0.815055,-0.273867,-0.391403,0.0173858
31,65,-0.654498,-0.814493,-0.174533,-0.174533,-0.646348,-0.804712,-0.148504,-0.175733,-0.815055,-0.273867,-0.390439,0.0180072
31,65,-0.654498,-0.814493,-0.174533,-0.174533,-0.646348,-0.804712,-0.148504,-0.175733,-0.815055,-0.273867,-0.390439,0.0180072
31,65,-0.654498,-0.814493,-0.174533,-0.174533,-0.646348,-0.804712,-0.148504,-0.175733,-0.815055,-0.273867,-0.390439,0.0180072
31,65,-0.654498,-0.814493,-0.174533,-0.174533,-0.646348,-0.804712,-0.148504,-0.175733,-0.815055,-0.273867,-0.390439,0.0180072
31,65,-0.654498,-0.814493,-0.174533,-0.174533,-0.646348,-0.804712,-0.148504,-0.175733,-0.815055,-0.273867,-0.390439,0.0180072
31,65,-0.654498,-0.814493,-0.174533,-0.174533,-0.646348,-0.804712,-0.148504,-0.175733,-0.815055,-0.273867,-0.390439,0.0180072
31,65,-0.654498,-0.814493,-0.174533,-0.174533,-0.646348,-0.804712,-0.148504,-0.175733,-0.815055,-0.273867,-0.390439,0.0180072
31,65,-0.654498,-0.814493,-0.174533,-0.174533,-0.646348,-0.804712,-0.148444,-0.175753,-0.815055,-0.273867,-0.391339,0.0183051
31,65,-0.654498,-0.814493,-0.174533,-0.174533,-0.646348,-0.804712,-0.148444,-0.175753,-0.815055,-0.273867,-0.391339,0.0183051
31,65,-0.654498,-0.814493,-0.174533,-0.174533,-0.646348,-0.804712,-0.148444,-0.175753,-0.815055,-0.273867,-0.391339,0.0183051
31,65,-0.654498,-0.814493,-0.174533,-0.174533,-0.646348,-0.804712,-0.148444,-0.175753,-0.815055,-0.273867,-0.391339,0.0183051
31,65,-0.654498,-0.814493,-0.174533,-0.174533,-0.646348,-0.804712,-0.148444,-0.175753,-0.815055,-0.273867,-0.391339,0.0183051
31,65,-0.654498,-0.814493,-0.174533,-0.174533,-0.646348,-0.804712,-0.148444,-0.175753,-0.815055,-0.273867,-0.391339,0.0183051
31,65,-0.654498,-0.814493,-0.174533,-0.174533,-0.646348,-0.804712,-0.148444,-0.175753,-0.815055,-0.273867,-0.391339,0.0183051
31,65,-0.654498,-0.814493,-0.174533,-0.174533,-0.646348,-0.804712,-0.148444,-0.175753,-0.815055,-0.273867,-0.391339,0.0183051
31,65,-0.654498,-0.814493,-0.174533,-0.174533,-0.646348,-0.804712,-0.148444,-0.175753,-0.815055,-0.273867,-0.391339,0.0183051
31,65,-0.654498,-0.814493,-0.174533,-0.174533,-0.646348,-0.804712,-0.148444,-0.175753,-0.815055,-0.273867,-0.391339,0.0183051
31,65,-0.654498,-0.814493,-0.174533,-0.174533,-0.646348,-0.804712,-0.148444,-0.175753,-0.815055,-0.273867,-0.391339,0.0183051
31,65,-0.654498,-0.814493,-0.174533,-0.174533,-0.646348,-0.804712,-0.148444,-0.175753,-0.815055,-0.273867,-0.391339,0.0183051
31,65,-0.654498,-0.814493,-0.174533,-0.174533,-0.646348,-0.804712,-0.148444,-0.175753,-0.815055,-0.273867,-0.391339,0.0183051
31,65,-0.654498,-0.814493,-0.174533,-0.174533,-0.646348,-0.804712,-0.148444,-0.175753,-0.815055,-0.273867,-0.391339,0.0183051
31,65,-0.654498,-0.814493,-0.174533,-0.174533,-0.646348,-0.804712,-0.148444,-0.175753,-0.815055,-0.273867,-0.391339,0.0183051
31,65,-0.654498,-0.814493,-0.174533,-0.174533,-0.646348,-0.804712,-0.148444,-0.175753,-0.815055,-0.273867,-0.391339,0.0183051
31,65,-0.654498,-0.814493,-0.174533,-0.174533,-0.646348,-0.804712,-0.148444,-0.175753,-0.815055,-0.273867,-0.391339,0.0183051
31,65,-0.654498,-0.814493,-0.174533,-0.174533,-0.646348,-0.804712,-0.148444,-0.175753,-0.815055,-0.273867,-0.391339,0.0183051
31,65,-0.654498,-0.814493,-0.174533,-0.174533,-0.646348,-0.804712,-0.148444,-0.175753,-0.815055,-0.273867,-0.391339,0.0183051
31,65,-0.654498,-0.814493,-0.174533,-0.174533,-0.646348,-0.804712,-0.148444,-0.175753,-0.815055,-0.273867,-0.391339,0.0183051
31,65,-0.654498,-0.814493,-0.174533,-0.174533,-0.646348,-0.804712,-0.148444,-0.175753,-0.815055,-0.273867,-0.391339,0.0183051
31,65,-0.654498,-0.814493,-0.174533,-0.174533,-0.646348,-0.804712,-0.148444,-0.175753,-0.815055,-0.273867,-0.391339,0.0183051
31,65,-0.654498,-0.814493,-0.174533,-0.174533,-0.646348,-0.804712,-0.148444,-0.175753,-0.815055,-0.273867,-0.391339,0.0183051
31,65,-0.654498,-0.814493,-0.174533,-0.174533,-0.646348,-0.804712,-0.148444,-0.175753,-0.815055,-0.273867,-0.391339,0.0183051
31,65,-0.654498,-0.814493,-0.174533,-0.174533,-0.646348,-0.804712,-0.148444,-0.175753,-0.815055,-0.273867,-0.391339,0.0183051
31,65,-0.654498,-0.814493,-0.174533,-0.174533,-0.646348,-0.804712,-0.148444,-0.175753,-0.815055,-0.273867,-0.391339,0.0183051
31,65,-0.654498,-0.814493,-0.174533,-0.174533,-0.646348,-0.804712,-0.148444,-0.175753,-0.815055,-0.273867,-0.391339,0.0183051
31,65,-0.654498,-0.814493,-0.174533,-0.174533,-0.646348,-0.804712,-0.148444,-0.175753,-0.815055,-0.273867,-0.391339,0.0183051
31,65,-0.654498,-0.814493,-0.174533,-0.174533,-0.646348,-0.804712,-0.148444,-0.175753,-0.815055,-0.273867,-0.391339,0.0183051
31,65,-0.654498,-0.814493,-0.174533,-0.174533,-0.646348,-0.804712,-0.148444,-0.175753,-0.815055,-0.273867,-0.391339,0.0183051
31,65,-0.654498,-0.814493,-0.174533,-0.174533,-0.646348,-0.804712,-0.148444,-0.175753,-0.815055,-0.273867,-0.391339,0.0183051
31,65,-0.654498,-0.814493,-0.174533,-0.174533,-0.646348,-0.804712,-0.148444,-0.175753,-0.815055,-0.273867,-0.391339,0.0183051
31,65,-0.654498,-0.814493,-0.174533,-0.174533,-0.646348,-0.804712,-0.148444,-0.175753,-0.815055,-0.273867,-0.391339,0.0183051
31,65,-0.654498,-0.814493,-0.174533,-0.174533,-0.646348,-0.804712,-0.148444,-0.175753,-0.815055,-0.273867,-0.391339,0.0183051
31,65,-0.654498,-0.814493,-0.174533,-0.174533,-0.646348,-0.804712,-0.148444,-0.175753,-0.815055,-0.273867,-0.391339,0.0183051
31,65,-0.654498,-0.814493,-0.174533,-0.174533,-0.646348,-0.804712,-0.148444,-0.175753,-0.815055,-0.273867,-0.391339,0.0183051
31,65,-0.654498,-0.814493,-0.174533,-0.174533,-0.646348,-0.804712,-0.148444,-0.175753,-0.815055,-0.273867,-0.391339,0.0183051
31,65,-0.654498,-0.814493,-0.174533,-0.174533,-0.646348,-0.804712,-0.148444,-0.175753,-0.815055,-0.273867,-0.391339,0.0183051
31,65,-0.654498,-0.814493,-0.174533,-0.174533,-0.646348,-0.804712,-0.148444,-0.175753,-0.815055,-0.273867,-0.391339,0.0183051
31,65,-0.654498,-0.814493,-0.174533,-0.174533,-0.646348,-0.804712,-0.148444,-0.175753,-0.815055,-0.273867,-0.391339,0.0183051
31,65,-0.654498,-0.814493,-0.174533,-0.174533,-0.646348,-0.804712,-0.148444,-0.175753,-0.815055,-0.273867,-0.391339,0.0183051
31,65,-0.654498,-0.814493,-0.174533,-0.174533,-0.646348,-0.804712,-0.148444,-0.175753,-0.815055,-0.273867,-0.391339,0.0183051
31,65,-0.654498,-0.814493,-0.174533,-0.174533,-0.646348,-0.804712,-0.148444,-0.175753,-0.815055,-0.273867,-0.391339,0.0183051
31,65,-0.654498,-0.814493,-0.174533,-0.174533,-0.646348,-0.804712,-0.148444,-0.175753,-0.815055,-0.273867,-0.391339,0.0183051
31,65,-0.654498,-0.814493,-0.174533,-0.174533,-0.646348,-0.804712,-0.148444,-0.175753,-0.815055,-0.273867,-0.391339,0.0183051
31,65,-0.654498,-0.814493,-0.174533,-0.174533,-0.646348,-0.804712,-0.148384,-0.175773,-0.815055,-0.273867,-0.392238,0.0186031
31,65,-0.654498,-0.814493,-0.174533,-0.174533,-0.646348,-0.804712,-0.148384,-0.175773,-0.815055,-0.273867,-0.392238,0.0186031
31,65,-0.654498,-0.814493,-0.174533,-0.174533,-0.646348,-0.804712,-0.148384,-0.175773,-0.815055,-0.273867,-0.392238,0.0186031
31,65,-0.654498,-0.814493,-0.174533,-0.174533,-0.646348,-0.804712,-0.148384,-0.175773,-0.815055,-0.273867,-0.392238,0.0186031
31,65,-0.654498,-0.814493,-0.174533,-0.174533,-0.646348,-0.804712,-0.148384,-0.175773,-0.815055,-0.273867,-0.392238,0.0186031
31,65,-0.654498,-0.814493,-0.174533,-0.174533,-0.646348,-0.804712,-0.148384,-0.175773,-0.815055,-0.273867,-0.392238,0.0186031
31,65,-0.654498,-0.814493,-0.174533,-0.174533,-0.646348,-0.804712,-0.148384,-0.175773,-0.815055,-0.273867,-0.392238,0.0186031
31,65,-0.654498,-0.814493,-0.174533,-0.174533,-0.646348,-0.804712,-0.148384,-0.175773,-0.815055,-0.273867,-0.392238,0.0186031
31,65,-0.654498,-0.814493,-0.174533,-0.174533,-0.646348,-0.804712,-0.148384,-0.175773,-0.815055,-0.273867,-0.392238,0.0186031
31,65,-0.654498,-0.814493,-0.174533,-0.174533,-0.646348,-0.804712,-0.148384,-0.175773,-0.815055,-0.273867,-0.392238,0.0186031
31,65,-0.654498,-0.814493,-0.174533,-0.174533,-0.646348,-0.804712,-0.148384,-0.175773,-0.815055,-0.273867,-0.392238,0.0186031
31,65,-0.654498,-0.814493,-0.174533,-0.174533,-0.646348,-0.804712,-0.148384,-0.175773,-0.815055,-0.273867,-0.392238,0.0186031
31,65,-0.654498,-0.814493,-0.174533,-0.174533,-0.646348,-0.804712,-0.148384,-0.175773,-0.815055,-0.273867,-0.392238,0.0186031
31,65,-0.654498,-0.814493,-0.174533,-0.174533,-0.646348,-0.804712,-0.148384,-0.175773,-0.815055,-0.273867,-0.392238,0.0186031
31,65,-0.654498,-0.814493,-0.174533,-0.174533,-0.646348,-0.804712,-0.148384,-0.175773,-0.815055,-0.273867,-0.392238,0.0186031
31,65,-0.654498,-0.814493,-0.174533,-0.174533,-0.646348,-0.804712,-0.148384,-0.175773,-0.815055,-0.273867,-0.392238,0.0186031
31,65,-0.654498,-0.814493,-0.174533,-0.174533,-0.646348,-0.804712,-0.148384,-0.175773,-0.815055,-0.273867,-0.392238,0.0186031
31,65,-0.654498,-0.814493,-0.174533,-0.174533,-0.646348,-0.804712,-0.148384,-0.175773,-0.815055,-0.273867,-0.392238,0.0186031
31,65,-0.654498,-0.814493,-0.174533,-0.174533,-0.646348,-0.804712,-0.148384,-0.175773,-0.815055,-0.273867,-0.392238,0.0186031
31,65,-0.654498,-0.814493,-0.174533,-0.174533,-0.646348,-0.804712,-0.148384,-0.175773,-0.815055,-0.273867,-0.392238,0.0186031
31,65,-0.654498,-0.814493,-0.174533,-0.174533,-0.646348,-0.804712,-0.148384,-0.175773,-0.815055,-0.273867,-0.392238,0.0186031
31,65,-0.654498,-0.814493,-0.174533,-0.174533,-0.646348,-0.804712,-0.148384,-0.175773,-0.815055,-0.273867,-0.392238,0.0186031
31,65,-0.654498,-0.814493,-0.174533,-0.174533,-0.646348,-0.804712,-0.148384,-0.175773,-0.815055,-0.273867,-0.392238,0.0186031
31,65,-0.654498,-0.814493,-0.174533,-0.174533,-0.646348,-0.804712,-0.148324,-0.175793,-0.815055,-0.273867,-0.393138,0.0189011
31,65,-0.654498,-0.814493,-0.174533,-0.174533,-0.646348,-0.804712,-0.148324,-0.175793,-0.815055,-0.273867,-0.393138,0.0189011
31,65,-0.654498,-0.814493,-0.174533,-0.174533,-0.646348,-0.804712,-0.148324,-0.175793,-0.815055,-0.273867,-0.393138,0.0189011
31,65,-0.654498,-0.814493,-0.174533,-0.174533,-0.646348,-0.804712,-0.148324,-0.175793,-0.815055,-0.273867,-0.393138,0.0189011
31,65,-0.654498,-0.814493,-0.174533,-0.174533,-0.646348,-0.804712,-0.148324,-0.175793,-0.815055,-0.273867,-0.393138,0.0189011
31,65,-0.654498,-0.814493,-0.174533,-0.174533,-0.646348,-0.804712,-0.148324,-0.175793,-0.815055,-0.273867,-0.393138,0.0189011
31,65,-0.654498,-0.814493,-0.174533,-0.174533,-0.646348,-0.804712,-0.148324,-0.175793,-0.815055,-0.273867,-0.393138,0.0189011
31,65,-0.654498,-0.814493,-0.174533,-0.174533,-0.646348,-0.804712,-0.148324,-0.175793,-0.815055,-0.273867,-0.393138,0.0189011
31,65,-0.654498,-0.814493,-0.174533,-0.174533,-0.646348,-0.804712,-0.148324,-0.175793,-0.815055,-0.273867,-0.393138,0.0189011
31,65,-0.654498,-0.814493,-0.174533,-0.174533,-0.646348,-0.804712,-0.148324,-0.175793,-0.815055,-0.273867,-0.393138,0.0189011
31,65,-0.654498,-0.814493,-0.174533,-0.174533,-0.646348,-0.804712,-0.148324,-0.175793,-0.815055,-0.273867,-0.393138,0.0189011
31,65,-0.654498,-0.814493,-0.174533,-0.174533,-0.646348,-0.804712,-0.148324,-0.175793,-0.815055,-0.273867,-0.393138,0.0189011
31,65,-0.654498,-0.814493,-0.174533,-0.174533,-0.646348,-0.804712,-0.148324,-0.175793,-0.815055,-0.273867,-0.393138,0.0189011
31,65,-0.654498,-0.814493,-0.174533,-0.174533,-0.646348,-0.804712,-0.148324,-0.175793,-0.815055,-0.273867,-0.393138,0.0189011
31,65,-0.654498,-0.814493,-0.174533,-0.174533,-0.646348,-0.804712,-0.148324,-0.175793,-0.815055,-0.273867,-0.393138,0.0189011
31,65,-0.654498,-0.814493,-0.174533,-0.174533,-0.646348,-0.804712,-0.148324,-0.175793,-0.815055,-0.273867,-0.393138,0.0189011
31,65,-0.654498,-0.814493,-0.174533,-0.174533,-0.646348,-0.804712,-0.148324,-0.175793,-0.815055,-0.273867,-0.393138,0.0189011
31,65,-0.654498,-0.814493,-0.174533,-0.174533,-0.646348,-0.804712,-0.148324,-0.175793,-0.815055,-0.273867,-0.393138,0.0189011
31,65,-0.654498,-0.814493,-0.174533,-0.174533,-0.646348,-0.804712,-0.148324,-0.175793,-0.815055,-0.273867,-0.393138,0.0189011
31,65,-0.654498,-0.814493,-0.174533,-0.174533,-0.646348,-0.804712,-0.148324,-0.175793,-0.815055,-0.273867,-0.393138,0.0189011
31,65,-0.654498,-0.814493,-0.174533,-0.174533,-0.646348,-0.804712,-0.148324,-0.175793,-0.815055,-0.273867,-0.393138,0.0189011
31,65,-0.654498,-0.814493,-0.174533,-0.174533,-0.646348,-0.804712,-0.148324,-0.175793,-0.815055,-0.273867,-0.393138,0.0189011
31,65,-0.654498,-0.814493,-0.174533,-0.174533,-0.646348,-0.804712,-0.148324,-0.175793,-0.815055,-0.273867,-0.393138,0.0189011
31,65,-0.654498,-0.814493,-0.174533,-0.174533,-0.646348,-0.804712,-0.148324,-0.175793,-0.815055,-0.273867,-0.393138,0.0189011
31,65,-0.654498,-0.814493,-0.174533,-0.174533,-0.646348,-0.804712,-0.148324,-0.175793,-0.815055,-0.273867,-0.393138,0.0189011
31,65,-0.654498,-0.814493,-0.174533,-0.174533,-0.646348,-0.804712,-0.148324,-0.175793,-0.815055,-0.273867,-0.393138,0.0189011
31,65,-0.654498,-0.814493,-0.174533,-0.174533,-0.646348,-0.804712,-0.148324,-0.175793,-0.815055,-0.273867,-0.393138,0.0189011
31,65,-0.654498,-0.814493,-0.174533,-0.174533,-0.646348,-0.804712,-0.148324,-0.175793,-0.815055,-0.273867,-0.393138,0.0189011
31,65,-0.654498,-0.814493,-0.174533,-0.174533,-0.646348,-0.804712,-0.148324,-0.175793,-0.815055,-0.273867,-0.393138,0.0189011
31,65,-0.654498,-0.814493,-0.174533,-0.174533,-0.646348,-0.804712,-0.148324,-0.175793,-0.815055,-0.273867,-0.393138,0.0189011
31,65,-0.654498,-0.814493,-0.174533,-0.174533,-0.646348,-0.804712,-0.148324,-0.175793,-0.815055,-0.273867,-0.393138,0.0189011
31,65,-0.654498,-0.814493,-0.174533,-0.174533,-0.646348,-0.804712,-0.148324,-0.175793,-0.815055,-0.273867,-0.393138,0.0189011
31,65,-0.654498,-0.814493,-0.174533,-0.174533,-0.646348,-0.804712,-0.148324,-0.175793,-0.815055,-0.273867,-0.393138,0.0189011
31,65,-0.654498,-0.814493,-0.174533,-0.174533,-0.646348,-0.804712,-0.148324,-0.175793,-0.815055,-0.273867,-0.393138,0.0189011
31,65,-0.654498,-0.814493,-0.174533,-0.174533,-0.646348,-0.804712,-0.148324,-0.175793,-0.815055,-0.273867,-0.393138,0.0189011
31,65,-0.654498,-0.814493,-0.174533,-0.174533,-0.646348,-0.804712,-0.148324,-0.175793,-0.815055,-0.273867,-0.393138,0.0189011
31,65,-0.654498,-0.814493,-0.174533,-0.174533,-0.646348,-0.804712,-0.148324,-0.175793,-0.815055,-0.273867,-0.393138,0.0189011
31,65,-0.654498,-0.814493,-0.174533,-0.174533,-0.646348,-0.804712,-0.148324,-0.175793,-0.815055,-0.273867,-0.393138,0.0189011
31,65,-0.654498,-0.814493,-0.174533,-0.174533,-0.646348,-0.804712,-0.148324,-0.175793,-0.815055,-0.273867,-0.393138,0.0189011
31,65,-0.654498,-0.814493,-0.174533,-0.174533,-0.646348,-0.804712,-0.148324,-0.175793,-0.815055,-0.273867,-0.393138,0.0189011
31,65,-0.654498,-0.814493,-0.174533,-0.174533,-0.646348,-0.804712,-0.148324,-0.175793,-0.815055,-0.273867,-0.393138,0.0189011
31,65,-0.654498,-0.814493,-0.174533,-0.174533,-0.646348,-0.804712,-0.148324,-0.175793,-0.815055,-0.273867,-0.393138,0.0189011
31,65,-0.654498,-0.814493,-0.174533,-0.174533,-0.646348,-0.804712,-0.148324,-0.175793,-0.815055,-0.273867,-0.393138,0.0189011
31,65,-0.654498,-0.814493,-0.174533,-0.174533,-0.646348,-0.804712,-0.148324,-0.175793,-0.815055,-0.273867,-0.393138,0.0189011
31,65,-0.654498,-0.814493,-0.174533,-0.174533,-0.646348,-0.804712,-0.148324,-0.175793,-0.815055,-0.273867,-0.393138,0.0189011
31,65,-0.654498,-0.814493,-0.174533,-0.174533,-0.646348,-0.804712,-0.148324,-0.175793,-0.815055,-0.273867,-0.393138,0.0189011
31,65,-0.654498,-0.814493,-0.174533,-0.174533,-0.646348,-0.804712,-0.148324,-0.175793,-0.815055,-0.273867,-0.393138,0.0189011
31,65,-0.654498,-0.814493,-0.174533,-0.174533,-0.646348,-0.804712,-0.148324,-0.175793,-0.815055,-0.273867,-0.393138,0.0189011
31,65,-0.654498,-0.814493,-0.174533,-0.174533,-0.646348,-0.804712,-0.148324,-0.175793,-0.815055,-0.273867,-0.393138,0.0189011
31,65,-0.654498,-0.814493,-0.174533,-0.174533,-0.646348,-0.804712,-0.148324,-0.175793,-0.815055,-0.273867,-0.393138,0.0189011
31,65,-0.654498,-0.814493,-0.174533,-0.174533,-0.646348,-0.804712,-0.148324,-0.175793,-0.815055,-0.273867,-0.393138,0.0189011
31,65,-0.654498,-0.814493,-0.174533,-0.174533,-0.646348,-0.804712,-0.148324,-0.175793,-0.815055,-0.273867,-0.393138,0.0189011
31,65,-0.654498,-0.814493,-0.174533,-0.174533,-0.646348,-0.804712,-0.148324,-0.175793,-0.815055,-0.273867,-0.393138,0.0189011
31,65,-0.654498,-0.814493,-0.174533,-0.174533,-0.646348,-0.804712,-0.148264,-0.175813,-0.815055,-0.273867,-0.394037,0.0191991
31,65,-0.654498,-0.814493,-0.174533,-0.174533,-0.646348,-0.804712,-0.148264,-0.175813,-0.815055,-0.273867,-0.394037,0.0191991
31,65,-0.654498,-0.814493,-0.174533,-0.174533,-0.646348,-0.804712,-0.148264,-0.175813,-0.815055,-0.273867,-0.394037,0.0191991
31,65,-0.654498,-0.814493,-0.174533,-0.174533,-0.646348,-0.804712,-0.148264,-0.175813,-0.815055,-0.273867,-0.394037,0.0191991
31,65,-0.654498,-0.814493,-0.174533,-0.174533,-0.646348,-0.804712,-0.148264,-0.175813,-0.815055,-0.273867,-0.394037,0.0191991
31,65,-0.654498,-0.814493,-0.174533,-0.174533,-0.646348,-0.804712,-0.148328,-0.175854,-0.815055,-0.273867,-0.393074,0.0198204
31,65,-0.654498,-0.814493,-0.174533,-0.174533,-0.646348,-0.804712,-0.148328,-0.175854,-0.815055,-0.273867,-0.393074,0.0198204
31,65,-0.654498,-0.814493,-0.174533,-0.174533,-0.646348,-0.804712,-0.148328,-0.175854,-0.815055,-0.273867,-0.393074,0.0198204
31,65,-0.654498,-0.814493,-0.174533,-0.174533,-0.646348,-0.804712,-0.148328,-0.175854,-0.815055,-0.273867,-0.393074,0.0198204
31,65,-0.654498,-0.814493,-0.174533,-0.174533,-0.646348,-0.804712,-0.148328,-0.175854,-0.815055,-0.273867,-0.393074,0.0198204
31,65,-0.654498,-0.814493,-0.174533,-0.174533,-0.646348,-0.804712,-0.148328,-0.175854,-0.815055,-0.273867,-0.393074,0.0198204
31,65,-0.654498,-0.814493,-0.174533,-0.174533,-0.646348,-0.804712,-0.148328,-0.175854,-0.815055,-0.273867,-0.393074,0.0198204
31,65,-0.654498,-0.814493,-0.174533,-0.174533,-0.646348,-0.804712,-0.148328,-0.175854,-0.815055,-0.273867,-0.393074,0.0198204
31,65,-0.654498,-0.814493,-0.174533,-0.174533,-0.646348,-0.804712,-0.148328,-0.175854,-0.815055,-0.273867,-0.393074,0.0198204
31,65,-0.654498,-0.814493,-0.174533,-0.174533,-0.646348,-0.804712,-0.148328,-0.175854,-0.815055,-0.273867,-0.393074,0.0198204
31,65,-0.654498,-0.814493,-0.174533,-0.174533,-0.646348,-0.804712,-0.148328,-0.175854,-0.815055,-0.273867,-0.393074,0.0198204
31,65,-0.654498,-0.814493,-0.174533,-0.174533,-0.646348,-0.804712,-0.148328,-0.175854,-0.815055,-0.273867,-0.393074,0.0198204
31,65,-0.654498,-0.814493,-0.174533,-0.174533,-0.646348,-0.804712,-0.148328,-0.175854,-0.815055,-0.273867,-0.393074,0.0198204
31,65,-0.654498,-0.814493,-0.174533,-0.174533,-0.646348,-0.804712,-0.148328,-0.175854,-0.815055,-0.273867,-0.393074,0.0198204
31,65,-0.654498,-0.814493,-0.174533,-0.174533,-0.646348,-0.804712,-0.148328,-0.175854,-0.815055,-0.273867,-0.393074,0.0198204
31,65,-0.654498,-0.814493,-0.174533,-0.174533,-0.646348,-0.804712,-0.148328,-0.175854,-0.815055,-0.273867,-0.393074,0.0198204
31,65,-0.654498,-0.814493,-0.174533,-0.174533,-0.646348,-0.804712,-0.148328,-0.175854,-0.815055,-0.273867,-0.393074,0.0198204
31,65,-0.654498,-0.814493,-0.174533,-0.174533,-0.646348,-0.804712,-0.148328,-0.175854,-0.815055,-0.273867,-0.393074,0.0198204
31,65,-0.654498,-0.814493,-0.174533,-0.174533,-0.646348,-0.804712,-0.148328,-0.175854,-0.815055,-0.273867,-0.393074,0.0198204
31,65,-0.654498,-0.814493,-0.174533,-0.174533,-0.646348,-0.804712,-0.148328,-0.175854,-0.815055,-0.273867,-0.393074,0.0198204
31,65,-0.654498,-0.814493,-0.174533,-0.174533,-0.646348,-0.804712,-0.148328,-0.175854,-0.815055,-0.273867,-0.393074,0.0198204
31,65,-0.654498,-0.814493,-0.174533,-0.174533,-0.646348,-0.804712,-0.148328,-0.175854,-0.815055,-0.273867,-0.393074,0.0198204
31,65,-0.654498,-0.814493,-0.174533,-0.174533,-0.646348,-0.804712,-0.148268,-0.175874,-0.815055,-0.273867,-0.393973,0.0201184
31,65,-0.654498,-0.814493,-0.174533,-0.174533,-0.646348,-0.804712,-0.148268,-0.175874,-0.815055,-0.273867,-0.393973,0.0201184
31,65,-0.654498,-0.814493,-0.174533,-0.174533,-0.646348,-0.804712,-0.148268,-0.175874,-0.815055,-0.273867,-0.393973,0.0201184
31,65,-0.654498,-0.814493,-0.174533,-0.174533,-0.646348,-0.804712,-0.148268,-0.175874,-0.815055,-0.273867,-0.393973,0.0201184
31,65,-0.654498,-0.814493,-0.174533,-0.174533,-0.646348,-0.804712,-0.148268,-0.175874,-0.815055,-0.273867,-0.393973,0.0201184
31,65,-0.654498,-0.814493,-0.174533,-0.174533,-0.646348,-0.804712,-0.148268,-0.175874,-0.815055,-0.273867,-0.393973,0.0201184
31,65,-0.654498,-0.814493,-0.174533,-0.174533,-0.646348,-0.804712,-0.148268,-0.175874,-0.815055,-0.273867,-0.393973,0.0201184
31,65,-0.654498,-0.814493,-0.174533,-0.174533,-0.646348,-0.804712,-0.148268,-0.175874,-0.815055,-0.273867,-0.393973,0.0201184
31,65,-0.654498,-0.814493,-0.174533,-0.174533,-0.646348,-0.804712,-0.148268,-0.175874,-0.815055,-0.273867,-0.393973,0.0201184
31,65,-0.654498,-0.814493,-0.174533,-0.174533,-0.646348,-0.804712,-0.148268,-0.175874,-0.815055,-0.273867,-0.393973,0.0201184
31,65,-0.654498,-0.814493,-0.174533,-0.174533,-0.646348,-0.804712,-0.148268,-0.175874,-0.815055,-0.273867,-0.393973,0.0201184
31,65,-0.654498,-0.814493,-0.174533,-0.174533,-0.646348,-0.804712,-0.148268,-0.175874,-0.815055,-0.273867,-0.393973,0.0201184
31,65,-0.654498,-0.814493,-0.174533,-0.174533,-0.646348,-0.804712,-0.148268,-0.175874,-0.815055,-0.273867,-0.393973,0.0201184
31,65,-0.654498,-0.814493,-0.174533,-0.174533,-0.646348,-0.804712,-0.148268,-0.175874,-0.815055,-0.273867,-0.393973,0.0201184
31,65,-0.654498,-0.814493,-0.174533,-0.174533,-0.646348,-0.804712,-0.148268,-0.175874,-0.815055,-0.273867,-0.393973,0.0201184
31,65,-0.654498,-0.814493,-0.174533,-0.174533,-0.646348,-0.804712,-0.148268,-0.175874,-0.815055,-0.273867,-0.393973,0.0201184
31,65,-0.654498,-0.814493,-0.174533,-0.174533,-0.646348,-0.804712,-0.148268,-0.175874,-0.815055,-0.273867,-0.393973,0.0201184
31,65,-0.654498,-0.814493,-0.174533,-0.174533,-0.646348,-0.804712,-0.148268,-0.175874,-0.815055,-0.273867,-0.393973,0.0201184
31,65,-0.654498,-0.814493,-0.174533,-0.174533,-0.646348,-0.804712,-0.148268,-0.175874,-0.815055,-0.273867,-0.393973,0.0201184
31,65,-0.654498,-0.814493,-0.174533,-0.174533,-0.646348,-0.804712,-0.148268,-0.175874,-0.815055,-0.273867,-0.393973,0.0201184
31,65,-0.654498,-0.814493,-0.174533,-0.174533,-0.646348,-0.804712,-0.148268,-0.175874,-0.815055,-0.273867,-0.393973,0.0201184
31,65,-0.654498,-0.814493,-0.174533,-0.174533,-0.646348,-0.804712,-0.148268,-0.175874,-0.815055,-0.273867,-0.393973,0.0201184
31,65,-0.654498,-0.814493,-0.174533,-0.174533,-0.646348,-0.804712,-0.148268,-0.175874,-0.815055,-0.273867,-0.393973,0.0201184
31,65,-0.654498,-0.814493,-0.174533,-0.174533,-0.646348,-0.804712,-0.148268,-0.175874,-0.815055,-0.273867,-0.393973,0.0201184
31,65,-0.654498,-0.814493,-0.174533,-0.174533,-0.646348,-0.804712,-0.148268,-0.175874,-0.815055,-0.273867,-0.393973,0.0201184
31,65,-0.654498,-0.814493,-0.174533,-0.174533,-0.646348,-0.804712,-0.148268,-0.175874,-0.815055,-0.273867,-0.393973,0.0201184
31,65,-0.654498,-0.814493,-0.174533,-0.174533,-0.646348,-0.804712,-0.148268,-0.175874,-0.815055,-0.273867,-0.393973,0.0201184
31,65,-0.654498,-0.814493,-0.174533,-0.174533,-0.646348,-0.804712,-0.148268,-0.175874,-0.815055,-0.273867,-0.393973,0.0201184
31,65,-0.654498,-0.814493,-0.174533,-0.174533,-0.646348,-0.804712,-0.148268,-0.175874,-0.815055,-0.273867,-0.393973,0.0201184
31,65,-0.654498,-0.814493,-0.174533,-0.174533,-0.646348,-0.804712,-0.148268,-0.175874,-0.815055,-0.273867,-0.393973,0.0201184
31,65,-0.654498,-0.814493,-0.174533,-0.174533,-0.646348,-0.804712,-0.148268,-0.175874,-0.815055,-0.273867,-0.393973,0.0201184
31,65,-0.654498,-0.814493,-0.174533,-0.174533,-0.646348,-0.804712,-0.148268,-0.175874,-0.815055,-0.273867,-0.393973,0.0201184
31,65,-0.654498,-0.814493,-0.174533,-0.174533,-0.646348,-0.804712,-0.148268,-0.175874,-0.815055,-0.273867,-0.393973,0.0201184
31,65,-0.654498,-0.814493,-0.174533,-0.174533,-0.646348,-0.804712,-0.148268,-0.175874,-0.815055,-0.273867,-0.393973,0.0201184
31,65,-0.654498,-0.814493,-0.174533,-0.174533,-0.646348,-0.804712,-0.148268,-0.175874,-0.815055,-0.273867,-0.393973,0.0201184
31,65,-0.654498,-0.814493,-0.174533,-0.174533,-0.646348,-0.804712,-0.148268,-0.175874,-0.815055,-0.273867,-0.393973,0.0201184
31,65,-0.654498,-0.814493,-0.174533,-0.174533,-0.646348,-0.804712,-0.148268,-0.175874,-0.815055,-0.273867,-0.393973,0.0201184
31,65,-0.654498,-0.814493,-0.174533,-0.174533,-0.646348,-0.804712,-0.148268,-0.175874,-0.815055,-0.273867,-0.393973,0.0201184
31,65,-0.654498,-0.814493,-0.174533,-0.174533,-0.646348,-0.804712,-0.148268,-0.175874,-0.815055,-0.273867,-0.393973,0.0201184
31,65,-0.654498,-0.814493,-0.174533,-0.174533,-0.646348,-0.804712,-0.148268,-0.175874,-0.815055,-0.273867,-0.393973,0.0201184
31,65,-0.654498,-0.814493,-0.174533,-0.174533,-0.646348,-0.804712,-0.148268,-0.175874,-0.815055,-0.273867,-0.393973,0.0201184
31,65,-0.654498,-0.814493,-0.174533,-0.174533,-0.646348,-0.804712,-0.148268,-0.175874,-0.815055,-0.273867,-0.393973,0.0201184
31,65,-0.654498,-0.814493,-0.174533,-0.174533,-0.646348,-0.804712,-0.148268,-0.175874,-0.815055,-0.273867,-0.393973,0.0201184
31,65,-0.654498,-0.814493,-0.174533,-0.174533,-0.646348,-0.804712,-0.148268,-0.175874,-0.815055,-0.273867,-0.393973,0.0201184
31,65,-0.654498,-0.814493,-0.174533,-0.174533,-0.646348,-0.804712,-0.148268,-0.175874,-0.815055,-0.273867,-0.393973,0.0201184
31,65,-0.654498,-0.814493,-0.174533,-0.174533,-0.646348,-0.804712,-0.148268,-0.175874,-0.815055,-0.273867,-0.393973,0.0201184
31,65,-0.654498,-0.814493,-0.174533,-0.174533,-0.646348,-0.804712,-0.148268,-0.175874,-0.815055,-0.273867,-0.393973,0.0201184
31,65,-0.654498,-0.814493,-0.174533,-0.174533,-0.646348,-0.804712,-0.148268,-0.175874,-0.815055,-0.273867,-0.393973,0.0201184
31,65,-0.654498,-0.814493,-0.174533,-0.174533,-0.646348,-0.804712,-0.148268,-0.175874,-0.815055,-0.273867,-0.393973,0.0201184
31,65,-0.654498,-0.814493,-0.174533,-0.174533,-0.646348,-0.804712,-0.148268,-0.175874,-0.815055,-0.273867,-0.393973,0.0201184
31,65,-0.654498,-0.814493,-0.174533,-0.174533,-0.646348,-0.804712,-0.148268,-0.175874,-0.815055,-0.273867,-0.393973,0.0201184
31,65,-0.654498,-0.814493,-0.174533,-0.174533,-0.646348,-0.804712,-0.148268,-0.175874,-0.815055,-0.273867,-0.393973,0.0201184
31,65,-0.654498,-0.814493,-0.174533,-0.174533,-0.646348,-0.804712,-0.148268,-0.175874,-0.815055,-0.273867,-0.393973,0.0201184
31,65,-0.654498,-0.814493,-0.174533,-0.174533,-0.646348,-0.804712,-0.148268,-0.175874,-0.815055,-0.273867,-0.393973,0.0201184
31,65,-0.654498,-0.814493,-0.174533,-0.174533,-0.646348,-0.804712,-0.148208,-0.175894,-0.815055,-0.273867,-0.394873,0.0204164
31,65,-0.654498,-0.814493,-0.174533,-0.174533,-0.646348,-0.804712,-0.148208,-0.175894,-0.815055,-0.273867,-0.394873,0.0204164
31,65,-0.654498,-0.814493,-0.174533,-0.174533,-0.646348,-0.804712,-0.148208,-0.175894,-0.815055,-0.273867,-0.394873,0.0204164
31,65,-0.654498,-0.814493,-0.174533,-0.174533,-0.646348,-0.804712,-0.148208,-0.175894,-0.815055,-0.273867,-0.394873,0.0204164
31,65,-0.654498,-0.814493,-0.174533,-0.174533,-0.646348,-0.804712,-0.148208,-0.175894,-0.815055,-0.273867,-0.394873,0.0204164
31,65,-0.654498,-0.814493,-0.174533,-0.174533,-0.646348,-0.804712,-0.148208,-0.175894,-0.815055,-0.273867,-0.394873,0.0204164
31,65,-0.654498,-0.814493,-0.174533,-0.174533,-0.646348,-0.804712,-0.148208,-0.175894,-0.815055,-0.273867,-0.394873,0.0204164
31,65,-0.654498,-0.814493,-0.174533,-0.174533,-0.646348,-0.804712,-0.148208,-0.175894,-0.815055,-0.273867,-0.394873,0.0204164
31,65,-0.654498,-0.814493,-0.174533,-0.174533,-0.646348,-0.804712,-0.148208,-0.175894,-0.815055,-0.273867,-0.394873,0.0204164
31,65,-0.654498,-0.814493,-0.174533,-0.174533,-0.646348,-0.804712,-0.148208,-0.175894,-0.815055,-0.273867,-0.394873,0.0204164
31,65,-0.654498,-0.814493,-0.174533,-0.174533,-0.646348,-0.804712,-0.148208,-0.175894,-0.815055,-0.273867,-0.394873,0.0204164
31,65,-0.654498,-0.814493,-0.174533,-0.174533,-0.646348,-0.804712,-0.148208,-0.175894,-0.815055,-0.273867,-0.394873,0.0204164
31,65,-0.654498,-0.814493,-0.174533,-0.174533,-0.646348,-0.804712,-0.148208,-0.175894,-0.815055,-0.273867,-0.394873,0.0204164
31,65,-0.654498,-0.814493,-0.174533,-0.174533,-0.646348,-0.804712,-0.148208,-0.175894,-0.815055,-0.273867,-0.394873,0.0204164
31,65,-0.654498,-0.814493,-0.174533,-0.174533,-0.646348,-0.804712,-0.148208,-0.175894,-0.815055,-0.273867,-0.394873,0.0204164
31,65,-0.654498,-0.814493,-0.174533,-0.174533,-0.646348,-0.804712,-0.148208,-0.175894,-0.815055,-0.273867,-0.394873,0.0204164
31,65,-0.654498,-0.814493,-0.174533,-0.174533,-0.646348,-0.804712,-0.148208,-0.175894,-0.815055,-0.273867,-0.394873,0.0204164
31,65,-0.654498,-0.814493,-0.174533,-0.174533,-0.646348,-0.804712,-0.148208,-0.175894,-0.815055,-0.273867,-0.394873,0.0204164
31,65,-0.654498,-0.814493,-0.174533,-0.174533,-0.646348,-0.804712,-0.148208,-0.175894,-0.815055,-0.273867,-0.394873,0.0204164
31,65,-0.654498,-0.814493,-0.174533,-0.174533,-0.646348,-0.804712,-0.148208,-0.175894,-0.815055,-0.273867,-0.394873,0.0204164
31,65,-0.654498,-0.814493,-0.174533,-0.174533,-0.646348,-0.804712,-0.148208,-0.175894,-0.815055,-0.273867,-0.394873,0.0204164
31,65,-0.654498,-0.814493,-0.174533,-0.174533,-0.646348,-0.804712,-0.148208,-0.175894,-0.815055,-0.273867,-0.394873,0.0204164
31,65,-0.654498,-0.814493,-0.174533,-0.174533,-0.646348,-0.804712,-0.148208,-0.175894,-0.815055,-0.273867,-0.394873,0.0204164
31,65,-0.654498,-0.814493,-0.174533,-0.174533,-0.646348,-0.804712,-0.148208,-0.175894,-0.815055,-0.273867,-0.394873,0.0204164
31,65,-0.654498,-0.814493,-0.174533,-0.174533,-0.646348,-0.804712,-0.148208,-0.175894,-0.815055,-0.273867,-0.394873,0.0204164
31,65,-0.654498,-0.814493,-0.174533,-0.174533,-0.646348,-0.804712,-0.148208,-0.175894,-0.815055,-0.273867,-0.394873,0.0204164
31,65,-0.654498,-0.814493,-0.174533,-0.174533,-0.646348,-0.804712,-0.148208,-0.175894,-0.815055,-0.273867,-0.394873,0.0204164
31,65,-0.654498,-0.814493,-0.174533,-0.174533,-0.646348,-0.804712,-0.148208,-0.175894,-0.815055,-0.273867,-0.394873,0.0204164
31,65,-0.654498,-0.814493,-0.174533,-0.174533,-0.646348,-0.804712,-0.148208,-0.175894,-0.815055,-0.273867,-0.394873,0.0204164
31,65,-0.654498,-0.814493,-0.174533,-0.174533,-0.646348,-0.804712,-0.148208,-0.175894,-0.815055,-0.273867,-0.394873,0.0204164
31,65,-0.654498,-0.814493,-0.174533,-0.174533,-0.646348,-0.804712,-0.148208,-0.175894,-0.815055,-0.273867,-0.394873,0.0204164
31,65,-0.654498,-0.814493,-0.174533,-0.174533,-0.646348,-0.804712,-0.148208,-0.175894,-0.815055,-0.273867,-0.394873,0.0204164
31,65,-0.654498,-0.814493,-0.174533,-0.174533,-0.646348,-0.804712,-0.148208,-0.175894,-0.815055,-0.273867,-0.394873,0.0204164
31,65,-0.654498,-0.814493,-0.174533,-0.174533,-0.646348,-0.804712,-0.148208,-0.175894,-0.815055,-0.273867,-0.394873,0.0204164
31,65,-0.654498,-0.814493,-0.174533,-0.174533,-0.646348,-0.804712,-0.148208,-0.175894,-0.815055,-0.273867,-0.394873,0.0204164
31,65,-0.654498,-0.814493,-0.174533,-0.174533,-0.646348,-0.804712,-0.148208,-0.175894,-0.815055,-0.273867,-0.394873,0.0204164
31,65,-0.654498,-0.814493,-0.174533,-0.174533,-0.646348,-0.804712,-0.148208,-0.175894,-0.815055,-0.273867,-0.394873,0.0204164
31,65,-0.654498,-0.814493,-0.174533,-0.174533,-0.646348,-0.804712,-0.148208,-0.175894,-0.815055,-0.273867,-0.394873,0.0204164
31,65,-0.654498,-0.814493,-0.174533,-0.174533,-0.646348,-0.804712,-0.148208,-0.175894,-0.815055,-0.273867,-0.394873,0.0204164
31,65,-0.654498,-0.814493,-0.174533,-0.174533,-0.646348,-0.804712,-0.148208,-0.175894,-0.815055,-0.273867,-0.394873,0.0204164
31,65,-0.654498,-0.814493,-0.174533,-0.174533,-0.646348,-0.804712,-0.148208,-0.175894,-0.815055,-0.273867,-0.394873,0.0204164
31,65,-0.654498,-0.814493,-0.174533,-0.174533,-0.646348,-0.804712,-0.148208,-0.175894,-0.815055,-0.273867,-0.394873,0.0204164
31,65,-0.654498,-0.814493,-0.174533,-0.174533,-0.646348,-0.804712,-0.148208,-0.175894,-0.815055,-0.273867,-0.394873,0.0204164
31,65,-0.654498,-0.814493,-0.174533,-0.174533,-0.646348,-0.804712,-0.148208,-0.175894,-0.815055,-0.273867,-0.394873,0.0204164
31,65,-0.654498,-0.814493,-0.174533,-0.174533,-0.646348,-0.804712,-0.148208,-0.175894,-0.815055,-0.273867,-0.394873,0.0204164
31,65,-0.654498,-0.814493,-0.174533,-0.174533,-0.646348,-0.804712,-0.148208,-0.175894,-0.815055,-0.273867,-0.394873,0.0204164
31,65,-0.654498,-0.814493,-0.174533,-0.174533,-0.646348,-0.804712,-0.148208,-0.175894,-0.815055,-0.273867,-0.394873,0.0204164
31,65,-0.654498,-0.814493,-0.174533,-0.174533,-0.646348,-0.804712,-0.148208,-0.175894,-0.815055,-0.273867,-0.394873,0.0204164
31,65,-0.654498,-0.814493,-0.174533,-0.174533,-0.646348,-0.804712,-0.148208,-0.175894,-0.815055,-0.273867,-0.394873,0.0204164
31,65,-0.654498,-0.814493,-0.174533,-0.174533,-0.646348,-0.804712,-0.148208,-0.175894,-0.815055,-0.273867,-0.394873,0.0204164
31,65,-0.654498,-0.814493,-0.174533,-0.174533,-0.646348,-0.804712,-0.148208,-0.175894,-0.815055,-0.273867,-0.394873,0.0204164
31,65,-0.654498,-0.814493,-0.174533,-0.174533,-0.646348,-0.804712,-0.148208,-0.175894,-0.815055,-0.273867,-0.394873,0.0204164
31,65,-0.654498,-0.814493,-0.174533,-0.174533,-0.646348,-0.804712,-0.148208,-0.175894,-0.815055,-0.273867,-0.394873,0.0204164
31,65,-0.654498,-0.814493,-0.174533,-0.174533,-0.646348,-0.804712,-0.148208,-0.175894,-0.815055,-0.273867,-0.394873,0.0204164
31,65,-0.654498,-0.814493,-0.174533,-0.174533,-0.646348,-0.804712,-0.148208,-0.175894,-0.815055,-0.273867,-0.394873,0.0204164
31,65,-0.654498,-0.814493,-0.174533,-0.174533,-0.646348,-0.804712,-0.148208,-0.175894,-0.815055,-0.273867,-0.394873,0.0204164
31,65,-0.654498,-0.814493,-0.174533,-0.174533,-0.646348,-0.804712,-0.148208,-0.175894,-0.815055,-0.273867,-0.394873,0.0204164
31,65,-0.654498,-0.814493,-0.174533,-0.174533,-0.646348,-0.804712,-0.148208,-0.175894,-0.815055,-0.273867,-0.394873,0.0204164
31,65,-0.654498,-0.814493,-0.174533,-0.174533,-0.646348,-0.804712,-0.148208,-0.175894,-0.815055,-0.273867,-0.394873,0.0204164
31,65,-0.654498,-0.814493,-0.174533,-0.174533,-0.646348,-0.804712,-0.148208,-0.175894,-0.815055,-0.273867,-0.394873,0.0204164
31,65,-0.654498,-0.814493,-0.174533,-0.174533,-0.646348,-0.804712,-0.148208,-0.175894,-0.815055,-0.273867,-0.394873,0.0204164
31,65,-0.654498,-0.814493,-0.174533,-0.174533,-0.646348,-0.804712,-0.148272,-0.175935,-0.815055,-0.273867,-0.39391,0.0210377
31,65,-0.654498,-0.814493,-0.174533,-0.174533,-0.646348,-0.804712,-0.148272,-0.175935,-0.815055,-0.273867,-0.39391,0.0210377
31,65,-0.654498,-0.814493,-0.174533,-0.174533,-0.646348,-0.804712,-0.148272,-0.175935,-0.815055,-0.273867,-0.39391,0.0210377
31,65,-0.654498,-0.814493,-0.174533,-0.174533,-0.646348,-0.804712,-0.148272,-0.175935,-0.815055,-0.273867,-0.39391,0.0210377
31,65,-0.654498,-0.814493,-0.174533,-0.174533,-0.646348,-0.804712,-0.148272,-0.175935,-0.815055,-0.273867,-0.39391,0.0210377
31,65,-0.654498,-0.814493,-0.174533,-0.174533,-0.646348,-0.804712,-0.148272,-0.175935,-0.815055,-0.273867,-0.39391,0.0210377
31,65,-0.654498,-0.814493,-0.174533,-0.174533,-0.646348,-0.804712,-0.148272,-0.175935,-0.815055,-0.273867,-0.39391,0.0210377
31,65,-0.654498,-0.814493,-0.174533,-0.174533,-0.646348,-0.804712,-0.148272,-0.175935,-0.815055,-0.273867,-0.39391,0.0210377
31,65,-0.654498,-0.814493,-0.174533,-0.174533,-0.646348,-0.804712,-0.148272,-0.175935,-0.815055,-0.273867,-0.39391,0.0210377
31,65,-0.654498,-0.814493,-0.174533,-0.174533,-0.646348,-0.804712,-0.148272,-0.175935,-0.815055,-0.273867,-0.39391,0.0210377
31,65,-0.654498,-0.814493,-0.174533,-0.174533,-0.646348,-0.804712,-0.148272,-0.175935,-0.815055,-0.273867,-0.39391,0.0210377
31,65,-0.654498,-0.814493,-0.174533,-0.174533,-0.646348,-0.804712,-0.148272,-0.175935,-0.815055,-0.273867,-0.39391,0.0210377
31,65,-0.654498,-0.814493,-0.174533,-0.174533,-0.646348,-0.804712,-0.148272,-0.175935,-0.815055,-0.273867,-0.39391,0.0210377
31,65,-0.654498,-0.814493,-0.174533,-0.174533,-0.646348,-0.804712,-0.148272,-0.175935,-0.815055,-0.273867,-0.39391,0.0210377
31,65,-0.654498,-0.814493,-0.174533,-0.174533,-0.646348,-0.804712,-0.148272,-0.175935,-0.815055,-0.273867,-0.39391,0.0210377
31,65,-0.654498,-0.814493,-0.174533,-0.174533,-0.646348,-0.804712,-0.148272,-0.175935,-0.815055,-0.273867,-0.39391,0.0210377
31,65,-0.654498,-0.814493,-0.174533,-0.174533,-0.646348,-0.804712,-0.148272,-0.175935,-0.815055,-0.273867,-0.39391,0.0210377
31,65,-0.654498,-0.814493,-0.174533,-0.174533,-0.646348,-0.804712,-0.148272,-0.175935,-0.815055,-0.273867,-0.39391,0.0210377
31,65,-0.654498,-0.814493,-0.174533,-0.174533,-0.646348,-0.804712,-0.148272,-0.175935,-0.815055,-0.273867,-0.39391,0.0210377
31,65,-0.654498,-0.814493,-0.174533,-0.174533,-0.646348,-0.804763,-0.148272,-0.175935,-0.815055,-0.272443,-0.39391,0.0210377
31,65,-0.654498,-0.814493,-0.174533,-0.174533,-0.646348,-0.804763,-0.148272,-0.175935,-0.815055,-0.272443,-0.39391,0.0210377
31,65,-0.654498,-0.814493,-0.174533,-0.174533,-0.646348,-0.804763,-0.148272,-0.175935,-0.815055,-0.272443,-0.39391,0.0210377
31,65,-0.654498,-0.814493,-0.174533,-0.174533,-0.646348,-0.804763,-0.148272,-0.175935,-0.815055,-0.272443,-0.39391,0.0210377
31,65,-0.654498,-0.814493,-0.174533,-0.174533,-0.646348,-0.804763,-0.148272,-0.175935,-0.815055,-0.272443,-0.39391,0.0210377
31,65,-0.654498,-0.814493,-0.174533,-0.174533,-0.646348,-0.804763,-0.148272,-0.175935,-0.815055,-0.272443,-0.39391,0.0210377
31,65,-0.654498,-0.814493,-0.174533,-0.174533,-0.646348,-0.804763,-0.148272,-0.175935,-0.815055,-0.272443,-0.39391,0.0210377
31,65,-0.654498,-0.814493,-0.174533,-0.174533,-0.646348,-0.804763,-0.148272,-0.175935,-0.815055,-0.272443,-0.39391,0.0210377
31,65,-0.654498,-0.814493,-0.174533,-0.174533,-0.646348,-0.804763,-0.148272,-0.175935,-0.815055,-0.272443,-0.39391,0.0210377
31,65,-0.654498,-0.814493,-0.174533,-0.174533,-0.646348,-0.804763,-0.148272,-0.175935,-0.815055,-0.272443,-0.39391,0.0210377
31,65,-0.654498,-0.814493,-0.174533,-0.174533,-0.646348,-0.804763,-0.148272,-0.175935,-0.815055,-0.272443,-0.39391,0.0210377
31,65,-0.654498,-0.814493,-0.174533,-0.174533,-0.646348,-0.804763,-0.148272,-0.175935,-0.815055,-0.272443,-0.39391,0.0210377
31,65,-0.654498,-0.814493,-0.174533,-0.174533,-0.646348,-0.804763,-0.148272,-0.175935,-0.815055,-0.272443,-0.39391,0.0210377
31,65,-0.654498,-0.814493,-0.174533,-0.174533,-0.646348,-0.804763,-0.148272,-0.175935,-0.815055,-0.272443,-0.39391,0.0210377
31,65,-0.654498,-0.814493,-0.174533,-0.174533,-0.646348,-0.804763,-0.148272,-0.175935,-0.815055,-0.272443,-0.39391,0.0210377
31,65,-0.654498,-0.814493,-0.174533,-0.174533,-0.646348,-0.804763,-0.148272,-0.175935,-0.815055,-0.272443,-0.39391,0.0210377
31,65,-0.654498,-0.814493,-0.174533,-0.174533,-0.646348,-0.804763,-0.148272,-0.175935,-0.815055,-0.272443,-0.39391,0.0210377
31,65,-0.654498,-0.814493,-0.174533,-0.174533,-0.646348,-0.804763,-0.148272,-0.175935,-0.815055,-0.272443,-0.39391,0.0210377
31,65,-0.654498,-0.814493,-0.174533,-0.174533,-0.646348,-0.804763,-0.148272,-0.175935,-0.815055,-0.272443,-0.39391,0.0210377
31,65,-0.654498,-0.814493,-0.174533,-0.174533,-0.646348,-0.804763,-0.148272,-0.175935,-0.815055,-0.272443,-0.39391,0.0210377
31,65,-0.654498,-0.814493,-0.174533,-0.174533,-0.646348,-0.804763,-0.148272,-0.175935,-0.815055,-0.272443,-0.39391,0.0210377
31,65,-0.654498,-0.814493,-0.174533,-0.174533,-0.646348,-0.804763,-0.148272,-0.175935,-0.815055,-0.272443,-0.39391,0.0210377
31,65,-0.654498,-0.814493,-0.174533,-0.174533,-0.646348,-0.804763,-0.148272,-0.175935,-0.815055,-0.272443,-0.39391,0.0210377
31,65,-0.654498,-0.814493,-0.174533,-0.174533,-0.646348,-0.804763,-0.148272,-0.175935,-0.815055,-0.272443,-0.39391,0.0210377
31,65,-0.654498,-0.814493,-0.174533,-0.174533,-0.646348,-0.804763,-0.148272,-0.175935,-0.815055,-0.272443,-0.39391,0.0210377
31,65,-0.654498,-0.814493,-0.174533,-0.174533,-0.646348,-0.804763,-0.148272,-0.175935,-0.815055,-0.272443,-0.39391,0.0210377
31,65,-0.654498,-0.814493,-0.174533,-0.174533,-0.646348,-0.804763,-0.148272,-0.175935,-0.815055,-0.272443,-0.39391,0.0210377
31,65,-0.654498,-0.814493,-0.174533,-0.174533,-0.646348,-0.804763,-0.148272,-0.175935,-0.815055,-0.272443,-0.39391,0.0210377
31,65,-0.654498,-0.814493,-0.174533,-0.174533,-0.646348,-0.804763,-0.148272,-0.175935,-0.815055,-0.272443,-0.39391,0.0210377
31,65,-0.654498,-0.814493,-0.174533,-0.174533,-0.646348,-0.804763,-0.148272,-0.175935,-0.815055,-0.272443,-0.39391,0.0210377
31,65,-0.654498,-0.814493,-0.174533,-0.174533,-0.646348,-0.804763,-0.148272,-0.175935,-0.815055,-0.272443,-0.39391,0.0210377
31,65,-0.654498,-0.814493,-0.174533,-0.174533,-0.646348,-0.804763,-0.148272,-0.175935,-0.815055,-0.272443,-0.39391,0.0210377
31,65,-0.654498,-0.814493,-0.174533,-0.174533,-0.646348,-0.804763,-0.148272,-0.175935,-0.815055,-0.272443,-0.39391,0.0210377
31,65,-0.654498,-0.814493,-0.174533,-0.174533,-0.646348,-0.804763,-0.148272,-0.175935,-0.815055,-0.272443,-0.39391,0.0210377
31,65,-0.654498,-0.814493,-0.174533,-0.174533,-0.646348,-0.804763,-0.148272,-0.175935,-0.815055,-0.272443,-0.39391,0.0210377
31,65,-0.654498,-0.814493,-0.174533,-0.174533,-0.646348,-0.804763,-0.148272,-0.175935,-0.815055,-0.272443,-0.39391,0.0210377
31,65,-0.654498,-0.814493,-0.174533,-0.174533,-0.646348,-0.804763,-0.148272,-0.175935,-0.815055,-0.272443,-0.39391,0.0210377
31,65,-0.654498,-0.814493,-0.174533,-0.174533,-0.646348,-0.804763,-0.148272,-0.175935,-0.815055,-0.272443,-0.39391,0.0210377
31,65,-0.654498,-0.814493,-0.174533,-0.174533,-0.646348,-0.804763,-0.148272,-0.175935,-0.815055,-0.272443,-0.39391,0.0210377
31,65,-0.654498,-0.814493,-0.174533,-0.174533,-0.646348,-0.804763,-0.148272,-0.175935,-0.815055,-0.272443,-0.39391,0.0210377
31,65,-0.654498,-0.814493,-0.174533,-0.174533,-0.646348,-0.804763,-0.148272,-0.175935,-0.815055,-0.272443,-0.39391,0.0210377
31,65,-0.654498,-0.814493,-0.174533,-0.174533,-0.646348,-0.804763,-0.148272,-0.175935,-0.815055,-0.272443,-0.39391,0.0210377
31,65,-0.654498,-0.814493,-0.174533,-0.174533,-0.646348,-0.804763,-0.148272,-0.175935,-0.815055,-0.272443,-0.39391,0.0210377
31,65,-0.654498,-0.814493,-0.174533,-0.174533,-0.646348,-0.804763,-0.148272,-0.175935,-0.815055,-0.272443,-0.39391,0.0210377
31,65,-0.654498,-0.814493,-0.174533,-0.174533,-0.646348,-0.804763,-0.148272,-0.175935,-0.815055,-0.272443,-0.39391,0.0210377
31,65,-0.654498,-0.814493,-0.174533,-0.174533,-0.646348,-0.804763,-0.148272,-0.175935,-0.815055,-0.272443,-0.39391,0.0210377
31,65,-0.654498,-0.814493,-0.174533,-0.174533,-0.646348,-0.804763,-0.148272,-0.175935,-0.815055,-0.272443,-0.39391,0.0210377
31,65,-0.654498,-0.814493,-0.174533,-0.174533,-0.646348,-0.804763,-0.148272,-0.175935,-0.815055,-0.272443,-0.39391,0.0210377
31,65,-0.654498,-0.814493,-0.174533,-0.174533,-0.646348,-0.804763,-0.148272,-0.175935,-0.815055,-0.272443,-0.39391,0.0210377
31,65,-0.654498,-0.814493,-0.174533,-0.174533,-0.646348,-0.804763,-0.148272,-0.175935,-0.815055,-0.272443,-0.39391,0.0210377
31,65,-0.654498,-0.814493,-0.174533,-0.174533,-0.646348,-0.804763,-0.148272,-0.175935,-0.815055,-0.272443,-0.39391,0.0210377
31,65,-0.654498,-0.814493,-0.174533,-0.174533,-0.646348,-0.804763,-0.148272,-0.175935,-0.815055,-0.272443,-0.39391,0.0210377
31,65,-0.654498,-0.814493,-0.174533,-0.174533,-0.646348,-0.804763,-0.148272,-0.175935,-0.815055,-0.272443,-0.39391,0.0210377
31,65,-0.654498,-0.814493,-0.174533,-0.174533,-0.646348,-0.804763,-0.148272,-0.175935,-0.815055,-0.272443,-0.39391,0.0210377
31,65,-0.654498,-0.814493,-0.174533,-0.174533,-0.646348,-0.804763,-0.148272,-0.175935,-0.815055,-0.272443,-0.39391,0.0210377
31,65,-0.654498,-0.814493,-0.174533,-0.174533,-0.646348,-0.804763,-0.148272,-0.175935,-0.815055,-0.272443,-0.39391,0.0210377
31,65,-0.654498,-0.814493,-0.174533,-0.174533,-0.646348,-0.804763,-0.148272,-0.175935,-0.815055,-0.272443,-0.39391,0.0210377
31,65,-0.654498,-0.814493,-0.174533,-0.174533,-0.646348,-0.804763,-0.148272,-0.175935,-0.815055,-0.272443,-0.39391,0.0210377
31,65,-0.654498,-0.814493,-0.174533,-0.174533,-0.646348,-0.804763,-0.148272,-0.175935,-0.815055,-0.272443,-0.39391,0.0210377
31,65,-0.654498,-0.814493,-0.174533,-0.174533,-0.646348,-0.804763,-0.148272,-0.175935,-0.815055,-0.272443,-0.39391,0.0210377
31,65,-0.654498,-0.814493,-0.174533,-0.174533,-0.646348,-0.804763,-0.148272,-0.175935,-0.815055,-0.272443,-0.39391,0.0210377
31,65,-0.654498,-0.814493,-0.174533,-0.174533,-0.646348,-0.804763,-0.148272,-0.175935,-0.815055,-0.272443,-0.39391,0.0210377
31,65,-0.654498,-0.814493,-0.174533,-0.174533,-0.646348,-0.804763,-0.148272,-0.175935,-0.815055,-0.272443,-0.39391,0.0210377
31,65,-0.654498,-0.814493,-0.174533,-0.174533,-0.646348,-0.804763,-0.148272,-0.175935,-0.815055,-0.272443,-0.39391,0.0210377
31,65,-0.654498,-0.814493,-0.174533,-0.174533,-0.646348,-0.804763,-0.148272,-0.175935,-0.815055,-0.272443,-0.39391,0.0210377
31,65,-0.654498,-0.814493,-0.174533,-0.174533,-0.646348,-0.804763,-0.148272,-0.175935,-0.815055,-0.272443,-0.39391,0.0210377
31,65,-0.654498,-0.814493,-0.174533,-0.174533,-0.646348,-0.804763,-0.148272,-0.175935,-0.815055,-0.272443,-0.39391,0.0210377
31,65,-0.654498,-0.814493,-0.174533,-0.174533,-0.646348,-0.804763,-0.148272,-0.175935,-0.815055,-0.272443,-0.39391,0.0210377
31,65,-0.654498,-0.814493,-0.174533,-0.174533,-0.646348,-0.804763,-0.148272,-0.175935,-0.815055,-0.272443,-0.39391,0.0210377
31,65,-0.654498,-0.814493,-0.174533,-0.174533,-0.646348,-0.804763,-0.148272,-0.175935,-0.815055,-0.272443,-0.39391,0.0210377
31,65,-0.654498,-0.814493,-0.174533,-0.174533,-0.646348,-0.804763,-0.148272,-0.175935,-0.815055,-0.272443,-0.39391,0.0210377
31,65,-0.654498,-0.814493,-0.174533,-0.174533,-0.646348,-0.804763,-0.148272,-0.175935,-0.815055,-0.272443,-0.39391,0.0210377
31,65,-0.654498,-0.814493,-0.174533,-0.174533,-0.646348,-0.804763,-0.148272,-0.175935,-0.815055,-0.272443,-0.39391,0.0210377
31,65,-0.654498,-0.814493,-0.174533,-0.174533,-0.646348,-0.804763,-0.148272,-0.175935,-0.815055,-0.272443,-0.39391,0.0210377
31,65,-0.654498,-0.814493,-0.174533,-0.174533,-0.646348,-0.804763,-0.148272,-0.175935,-0.815055,-0.272443,-0.39391,0.0210377
31,65,-0.654498,-0.814493,-0.174533,-0.174533,-0.646348,-0.804763,-0.148272,-0.175935,-0.815055,-0.272443,-0.39391,0.0210377
31,65,-0.654498,-0.814493,-0.174533,-0.174533,-0.646348,-0.804763,-0.148272,-0.175935,-0.815055,-0.272443,-0.39391,0.0210377
31,65,-0.654498,-0.814493,-0.174533,-0.174533,-0.646348,-0.804763,-0.148272,-0.175935,-0.815055,-0.272443,-0.39391,0.0210377
31,65,-0.654498,-0.814493,-0.174533,-0.174533,-0.646348,-0.804763,-0.148272,-0.175935,-0.815055,-0.272443,-0.39391,0.0210377
31,65,-0.654498,-0.814493,-0.174533,-0.174533,-0.646348,-0.804763,-0.148272,-0.175935,-0.815055,-0.272443,-0.39391,0.0210377
31,65,-0.654498,-0.814493,-0.174533,-0.174533,-0.646348,-0.804763,-0.148272,-0.175935,-0.815055,-0.272443,-0.39391,0.0210377
31,65,-0.654498,-0.814493,-0.174533,-0.174533,-0.646348,-0.804763,-0.148272,-0.175935,-0.815055,-0.272443,-0.39391,0.0210377
31,65,-0.654498,-0.814493,-0.174533,-0.174533,-0.646348,-0.804763,-0.148272,-0.175935,-0.815055,-0.272443,-0.39391,0.0210377
31,65,-0.654498,-0.814493,-0.174533,-0.174533,-0.646348,-0.804763,-0.148272,-0.175935,-0.815055,-0.272443,-0.39391,0.0210377
31,65,-0.654498,-0.814493,-0.174533,-0.174533,-0.646348,-0.804763,-0.148272,-0.175935,-0.815055,-0.272443,-0.39391,0.0210377
31,65,-0.654498,-0.814493,-0.174533,-0.174533,-0.646348,-0.804763,-0.148272,-0.175935,-0.815055,-0.272443,-0.39391,0.0210377
31,65,-0.654498,-0.814493,-0.174533,-0.174533,-0.646348,-0.804763,-0.148272,-0.175935,-0.815055,-0.272443,-0.39391,0.0210377
31,65,-0.654498,-0.814493,-0.174533,-0.174533,-0.646348,-0.804763,-0.148272,-0.175935,-0.815055,-0.272443,-0.39391,0.0210377
31,65,-0.654498,-0.814493,-0.174533,-0.174533,-0.646348,-0.804763,-0.148272,-0.175935,-0.815055,-0.272443,-0.39391,0.0210377
31,65,-0.654498,-0.814493,-0.174533,-0.174533,-0.646348,-0.804763,-0.148272,-0.175935,-0.815055,-0.272443,-0.39391,0.0210377
31,65,-0.654498,-0.814493,-0.174533,-0.174533,-0.646348,-0.804763,-0.148272,-0.175935,-0.815055,-0.272443,-0.39391,0.0210377
31,65,-0.654498,-0.814493,-0.174533,-0.174533,-0.646348,-0.804763,-0.148272,-0.175935,-0.815055,-0.272443,-0.39391,0.0210377
31,65,-0.654498,-0.814493,-0.174533,-0.174533,-0.646348,-0.804763,-0.148272,-0.175935,-0.815055,-0.272443,-0.39391,0.0210377
31,65,-0.654498,-0.814493,-0.174533,-0.174533,-0.646348,-0.804763,-0.148272,-0.175935,-0.815055,-0.272443,-0.39391,0.0210377
31,65,-0.654498,-0.814493,-0.174533,-0.174533,-0.646348,-0.804763,-0.148272,-0.175935,-0.815055,-0.272443,-0.39391,0.0210377
31,65,-0.654498,-0.814493,-0.174533,-0.174533,-0.646348,-0.804763,-0.148272,-0.175935,-0.815055,-0.272443,-0.39391,0.0210377
31,65,-0.654498,-0.814493,-0.174533,-0.174533,-0.646348,-0.804763,-0.148272,-0.175935,-0.815055,-0.272443,-0.39391,0.0210377
31,65,-0.654498,-0.814493,-0.174533,-0.174533,-0.646348,-0.804763,-0.148272,-0.175935,-0.815055,-0.272443,-0.39391,0.0210377
31,65,-0.654498,-0.814493,-0.174533,-0.174533,-0.646348,-0.804763,-0.148272,-0.175935,-0.815055,-0.272443,-0.39391,0.0210377
31,65,-0.654498,-0.814493,-0.174533,-0.174533,-0.646348,-0.804763,-0.148272,-0.175935,-0.815055,-0.272443,-0.39391,0.0210377
31,65,-0.654498,-0.814493,-0.174533,-0.174533,-0.646348,-0.804763,-0.148272,-0.175935,-0.815055,-0.272443,-0.39391,0.0210377
31,65,-0.654498,-0.814493,-0.174533,-0.174533,-0.646348,-0.804763,-0.148272,-0.175935,-0.815055,-0.272443,-0.39391,0.0210377
31,65,-0.654498,-0.814493,-0.174533,-0.174533,-0.646348,-0.804763,-0.148272,-0.175935,-0.815055,-0.272443,-0.39391,0.0210377
31,65,-0.654498,-0.814493,-0.174533,-0.174533,-0.646348,-0.804763,-0.148272,-0.175935,-0.815055,-0.272443,-0.39391,0.0210377
31,65,-0.654498,-0.814493,-0.174533,-0.174533,-0.646348,-0.804763,-0.148272,-0.175935,-0.815055,-0.272443,-0.39391,0.0210377
31,65,-0.654498,-0.814493,-0.174533,-0.174533,-0.646348,-0.804763,-0.148272,-0.175935,-0.815055,-0.272443,-0.39391,0.0210377
31,65,-0.654498,-0.814493,-0.174533,-0.174533,-0.646348,-0.804763,-0.148272,-0.175935,-0.815055,-0.272443,-0.39391,0.0210377
31,65,-0.654498,-0.814493,-0.174533,-0.174533,-0.646348,-0.804763,-0.148272,-0.175935,-0.815055,-0.272443,-0.39391,0.0210377
31,65,-0.654498,-0.814493,-0.174533,-0.174533,-0.646348,-0.804763,-0.148272,-0.175935,-0.815055,-0.272443,-0.39391,0.0210377
31,65,-0.654498,-0.814493,-0.174533,-0.174533,-0.646348,-0.804763,-0.148272,-0.175935,-0.815055,-0.272443,-0.39391,0.0210377
31,65,-0.654498,-0.814493,-0.174533,-0.174533,-0.646348,-0.804763,-0.148272,-0.175935,-0.815055,-0.272443,-0.39391,0.0210377
31,65,-0.654498,-0.814493,-0.174533,-0.174533,-0.646348,-0.804763,-0.148272,-0.175935,-0.815055,-0.272443,-0.39391,0.0210377
31,65,-0.654498,-0.814493,-0.174533,-0.174533,-0.646348,-0.804763,-0.148272,-0.175935,-0.815055,-0.272443,-0.39391,0.0210377
31,65,-0.654498,-0.814493,-0.174533,-0.174533,-0.646348,-0.804763,-0.148272,-0.175935,-0.815055,-0.272443,-0.39391,0.0210377
31,65,-0.654498,-0.814493,-0.174533,-0.174533,-0.646348,-0.804763,-0.148272,-0.175935,-0.815055,-0.272443,-0.39391,0.0210377
31,65,-0.654498,-0.814493,-0.174533,-0.174533,-0.646348,-0.804763,-0.148272,-0.175935,-0.815055,-0.272443,-0.39391,0.0210377
31,65,-0.654498,-0.814493,-0.174533,-0.174533,-0.646348,-0.804763,-0.148272,-0.175935,-0.815055,-0.272443,-0.39391,0.0210377
31,65,-0.654498,-0.814493,-0.174533,-0.174533,-0.646348,-0.804763,-0.148272,-0.175935,-0.815055,-0.272443,-0.39391,0.0210377
31,65,-0.654498,-0.814493,-0.174533,-0.174533,-0.646348,-0.804763,-0.148272,-0.175935,-0.815055,-0.272443,-0.39391,0.0210377
31,65,-0.654498,-0.814493,-0.174533,-0.174533,-0.646348,-0.804763,-0.148272,-0.175935,-0.815055,-0.272443,-0.39391,0.0210377
31,65,-0.654498,-0.814493,-0.174533,-0.174533,-0.646348,-0.804763,-0.148272,-0.175935,-0.815055,-0.272443,-0.39391,0.0210377
31,65,-0.654498,-0.814493,-0.174533,-0.174533,-0.646348,-0.804763,-0.148272,-0.175935,-0.815055,-0.272443,-0.39391,0.0210377
31,65,-0.654498,-0.814493,-0.174533,-0.174533,-0.646348,-0.804763,-0.148272,-0.175935,-0.815055,-0.272443,-0.39391,0.0210377
31,65,-0.654498,-0.814493,-0.174533,-0.174533,-0.646348,-0.804763,-0.148272,-0.175935,-0.815055,-0.272443,-0.39391,0.0210377
31,65,-0.654498,-0.814493,-0.174533,-0.174533,-0.646348,-0.804763,-0.148272,-0.175935,-0.815055,-0.272443,-0.39391,0.0210377
31,65,-0.654498,-0.814493,-0.174533,-0.174533,-0.646348,-0.804763,-0.148272,-0.175935,-0.815055,-0.272443,-0.39391,0.0210377
31,65,-0.654498,-0.814493,-0.174533,-0.174533,-0.646348,-0.804763,-0.148272,-0.175935,-0.815055,-0.272443,-0.39391,0.0210377
31,65,-0.654498,-0.814493,-0.174533,-0.174533,-0.646348,-0.804763,-0.148272,-0.175935,-0.815055,-0.272443,-0.39391,0.0210377
31,65,-0.654498,-0.814493,-0.174533,-0.174533,-0.646348,-0.804763,-0.148272,-0.175935,-0.815055,-0.272443,-0.39391,0.0210377
31,65,-0.654498,-0.814493,-0.174533,-0.174533,-0.646348,-0.804763,-0.148272,-0.175935,-0.815055,-0.272443,-0.39391,0.0210377
31,65,-0.654498,-0.814493,-0.174533,-0.174533,-0.646348,-0.804763,-0.148272,-0.175935,-0.815055,-0.272443,-0.39391,0.0210377
31,65,-0.654498,-0.814493,-0.174533,-0.174533,-0.646348,-0.804763,-0.148272,-0.175935,-0.815055,-0.272443,-0.39391,0.0210377
31,65,-0.654498,-0.814493,-0.174533,-0.174533,-0.646348,-0.804763,-0.148337,-0.175977,-0.815055,-0.272443,-0.392946,0.021659
31,65,-0.654498,-0.814493,-0.174533,-0.174533,-0.646348,-0.804763,-0.148337,-0.175977,-0.815055,-0.272443,-0.392946,0.021659
31,65,-0.654498,-0.814493,-0.174533,-0.174533,-0.646348,-0.804763,-0.148337,-0.175977,-0.815055,-0.272443,-0.392946,0.021659
31,65,-0.654498,-0.814493,-0.174533,-0.174533,-0.646348,-0.804763,-0.148277,-0.175997,-0.815055,-0.272443,-0.393846,0.021957
31,65,-0.654498,-0.814493,-0.174533,-0.174533,-0.646348,-0.804763,-0.148277,-0.175997,-0.815055,-0.272443,-0.393846,0.021957
31,65,-0.654498,-0.814493,-0.174533,-0.174533,-0.646348,-0.804763,-0.148277,-0.175997,-0.815055,-0.272443,-0.393846,0.021957
31,65,-0.654498,-0.814493,-0.174533,-0.174533,-0.646348,-0.804763,-0.148277,-0.175997,-0.815055,-0.272443,-0.393846,0.021957
31,65,-0.654498,-0.814493,-0.174533,-0.174533,-0.646348,-0.804763,-0.148277,-0.175997,-0.815055,-0.272443,-0.393846,0.021957
31,65,-0.654498,-0.814493,-0.174533,-0.174533,-0.646348,-0.804763,-0.148277,-0.175997,-0.815055,-0.272443,-0.393846,0.021957
31,65,-0.654498,-0.814493,-0.174533,-0.174533,-0.646348,-0.804763,-0.148277,-0.175997,-0.815055,-0.272443,-0.393846,0.021957
31,65,-0.654498,-0.814493,-0.174533,-0.174533,-0.646348,-0.804763,-0.148277,-0.175997,-0.815055,-0.272443,-0.393846,0.021957
31,65,-0.654498,-0.814493,-0.174533,-0.174533,-0.646348,-0.804763,-0.148277,-0.175997,-0.815055,-0.272443,-0.393846,0.021957
31,65,-0.654498,-0.814493,-0.174533,-0.174533,-0.646348,-0.804763,-0.148277,-0.175997,-0.815055,-0.272443,-0.393846,0.021957
31,65,-0.654498,-0.814493,-0.174533,-0.174533,-0.646348,-0.804763,-0.148277,-0.175997,-0.815055,-0.272443,-0.393846,0.021957
31,65,-0.654498,-0.814493,-0.174533,-0.174533,-0.646348,-0.804763,-0.148277,-0.175997,-0.815055,-0.272443,-0.393846,0.021957
31,65,-0.654498,-0.814493,-0.174533,-0.174533,-0.646348,-0.804763,-0.148277,-0.175997,-0.815055,-0.272443,-0.393846,0.021957
31,65,-0.654498,-0.814493,-0.174533,-0.174533,-0.646348,-0.804763,-0.148277,-0.175997,-0.815055,-0.272443,-0.393846,0.021957
31,65,-0.654498,-0.814493,-0.174533,-0.174533,-0.646348,-0.804763,-0.148277,-0.175997,-0.815055,-0.272443,-0.393846,0.021957
31,65,-0.654498,-0.814493,-0.174533,-0.174533,-0.646348,-0.804763,-0.148277,-0.175997,-0.815055,-0.272443,-0.393846,0.021957
31,65,-0.654498,-0.814493,-0.174533,-0.174533,-0.646348,-0.804763,-0.148277,-0.175997,-0.815055,-0.272443,-0.393846,0.021957
31,65,-0.654498,-0.814493,-0.174533,-0.174533,-0.646348,-0.804763,-0.148277,-0.175997,-0.815055,-0.272443,-0.393846,0.021957
31,65,-0.654498,-0.814493,-0.174533,-0.174533,-0.646348,-0.804763,-0.148277,-0.175997,-0.815055,-0.272443,-0.393846,0.021957
31,65,-0.654498,-0.814493,-0.174533,-0.174533,-0.646348,-0.804763,-0.148277,-0.175997,-0.815055,-0.272443,-0.393846,0.021957
31,65,-0.654498,-0.814493,-0.174533,-0.174533,-0.646348,-0.804763,-0.148277,-0.175997,-0.815055,-0.272443,-0.393846,0.021957
31,65,-0.654498,-0.814493,-0.174533,-0.174533,-0.646348,-0.804763,-0.148277,-0.175997,-0.815055,-0.272443,-0.393846,0.021957
31,65,-0.654498,-0.814493,-0.174533,-0.174533,-0.646348,-0.804763,-0.148277,-0.175997,-0.815055,-0.272443,-0.393846,0.021957
31,65,-0.654498,-0.814493,-0.174533,-0.174533,-0.646348,-0.804763,-0.148277,-0.175997,-0.815055,-0.272443,-0.393846,0.021957
31,65,-0.654498,-0.814493,-0.174533,-0.174533,-0.646348,-0.804763,-0.148277,-0.175997,-0.815055,-0.272443,-0.393846,0.021957
31,65,-0.654498,-0.814493,-0.174533,-0.174533,-0.646348,-0.804763,-0.148277,-0.175997,-0.815055,-0.272443,-0.393846,0.021957
31,65,-0.654498,-0.814493,-0.174533,-0.174533,-0.646348,-0.804763,-0.148277,-0.175997,-0.815055,-0.272443,-0.393846,0.021957
31,65,-0.654498,-0.814493,-0.174533,-0.174533,-0.646348,-0.804763,-0.148277,-0.175997,-0.815055,-0.272443,-0.393846,0.021957
31,65,-0.654498,-0.814493,-0.174533,-0.174533,-0.646348,-0.804763,-0.148277,-0.175997,-0.815055,-0.272443,-0.393846,0.021957
31,65,-0.654498,-0.814493,-0.174533,-0.174533,-0.646348,-0.804763,-0.148277,-0.175997,-0.815055,-0.272443,-0.393846,0.021957
31,65,-0.654498,-0.814493,-0.174533,-0.174533,-0.646348,-0.804763,-0.148277,-0.175997,-0.815055,-0.272443,-0.393846,0.021957
31,65,-0.654498,-0.814493,-0.174533,-0.174533,-0.646348,-0.804763,-0.148277,-0.175997,-0.815055,-0.272443,-0.393846,0.021957
31,65,-0.654498,-0.814493,-0.174533,-0.174533,-0.646348,-0.804763,-0.148277,-0.175997,-0.815055,-0.272443,-0.393846,0.021957
31,65,-0.654498,-0.814493,-0.174533,-0.174533,-0.646348,-0.804763,-0.148277,-0.175997,-0.815055,-0.272443,-0.393846,0.021957
31,65,-0.654498,-0.814493,-0.174533,-0.174533,-0.646348,-0.804763,-0.148277,-0.175997,-0.815055,-0.272443,-0.393846,0.021957
31,65,-0.654498,-0.814493,-0.174533,-0.174533,-0.646348,-0.804763,-0.148277,-0.175997,-0.815055,-0.272443,-0.393846,0.021957
31,65,-0.654498,-0.814493,-0.174533,-0.174533,-0.646348,-0.804763,-0.148277,-0.175997,-0.815055,-0.272443,-0.393846,0.021957
31,65,-0.654498,-0.814493,-0.174533,-0.174533,-0.646348,-0.804763,-0.148277,-0.175997,-0.815055,-0.272443,-0.393846,0.021957
31,65,-0.654498,-0.814493,-0.174533,-0.174533,-0.646348,-0.804763,-0.148277,-0.175997,-0.815055,-0.272443,-0.393846,0.021957
31,65,-0.654498,-0.814493,-0.174533,-0.174533,-0.646348,-0.804763,-0.148277,-0.175997,-0.815055,-0.272443,-0.393846,0.021957
31,65,-0.654498,-0.814493,-0.174533,-0.174533,-0.646348,-0.804763,-0.148277,-0.175997,-0.815055,-0.272443,-0.393846,0.021957
31,65,-0.654498,-0.814493,-0.174533,-0.174533,-0.646348,-0.804763,-0.148277,-0.175997,-0.815055,-0.272443,-0.393846,0.021957
31,65,-0.654498,-0.814493,-0.174533,-0.174533,-0.646348,-0.804763,-0.148277,-0.175997,-0.815055,-0.272443,-0.393846,0.021957
31,65,-0.654498,-0.814493,-0.174533,-0.174533,-0.646348,-0.804763,-0.148277,-0.175997,-0.815055,-0.272443,-0.393846,0.021957
31,65,-0.654498,-0.814493,-0.174533,-0.174533,-0.646348,-0.804763,-0.148277,-0.175997,-0.815055,-0.272443,-0.393846,0.021957
31,65,-0.654498,-0.814493,-0.174533,-0.174533,-0.646348,-0.804763,-0.148277,-0.175997,-0.815055,-0.272443,-0.393846,0.021957
31,65,-0.654498,-0.814493,-0.174533,-0.174533,-0.646348,-0.804763,-0.148277,-0.175997,-0.815055,-0.272443,-0.393846,0.021957
31,65,-0.654498,-0.814493,-0.174533,-0.174533,-0.646348,-0.804763,-0.148277,-0.175997,-0.815055,-0.272443,-0.393846,0.021957
31,65,-0.654498,-0.814493,-0.174533,-0.174533,-0.646348,-0.804763,-0.148277,-0.175997,-0.815055,-0.272443,-0.393846,0.021957
31,65,-0.654498,-0.814493,-0.174533,-0.174533,-0.646348,-0.804763,-0.148277,-0.175997,-0.815055,-0.272443,-0.393846,0.021957
31,65,-0.654498,-0.814493,-0.174533,-0.174533,-0.646348,-0.804763,-0.148277,-0.175997,-0.815055,-0.272443,-0.393846,0.021957
31,65,-0.654498,-0.814493,-0.174533,-0.174533,-0.646348,-0.804763,-0.148277,-0.175997,-0.815055,-0.272443,-0.393846,0.021957
31,65,-0.654498,-0.814493,-0.174533,-0.174533,-0.646348,-0.804763,-0.148277,-0.175997,-0.815055,-0.272443,-0.393846,0.021957
31,65,-0.654498,-0.814493,-0.174533,-0.174533,-0.646348,-0.804763,-0.148277,-0.175997,-0.815055,-0.272443,-0.393846,0.021957
31,65,-0.654498,-0.814493,-0.174533,-0.174533,-0.646348,-0.804763,-0.148277,-0.175997,-0.815055,-0.272443,-0.393846,0.021957
31,65,-0.654498,-0.814493,-0.174533,-0.174533,-0.646348,-0.804763,-0.148277,-0.175997,-0.815055,-0.272443,-0.393846,0.021957
31,65,-0.654498,-0.814493,-0.174533,-0.174533,-0.646348,-0.804763,-0.148277,-0.175997,-0.815055,-0.272443,-0.393846,0.021957
31,65,-0.654498,-0.814493,-0.174533,-0.174533,-0.646348,-0.804763,-0.148277,-0.175997,-0.815055,-0.272443,-0.393846,0.021957
31,65,-0.654498,-0.814493,-0.174533,-0.174533,-0.646348,-0.804763,-0.148277,-0.175997,-0.815055,-0.272443,-0.393846,0.021957
31,65,-0.654498,-0.814493,-0.174533,-0.174533,-0.646348,-0.804763,-0.148277,-0.175997,-0.815055,-0.272443,-0.393846,0.021957
31,65,-0.654498,-0.814493,-0.174533,-0.174533,-0.646348,-0.804763,-0.148277,-0.175997,-0.815055,-0.272443,-0.393846,0.021957
31,65,-0.654498,-0.814493,-0.174533,-0.174533,-0.646348,-0.804763,-0.148277,-0.175997,-0.815055,-0.272443,-0.393846,0.021957
31,65,-0.654498,-0.814493,-0.174533,-0.174533,-0.646348,-0.804763,-0.148277,-0.175997,-0.815055,-0.272443,-0.393846,0.021957
31,65,-0.654498,-0.814493,-0.174533,-0.174533,-0.646348,-0.804763,-0.148277,-0.175997,-0.815055,-0.272443,-0.393846,0.021957
31,65,-0.654498,-0.814493,-0.174533,-0.174533,-0.646348,-0.804763,-0.148277,-0.175997,-0.815055,-0.272443,-0.393846,0.021957
31,65,-0.654498,-0.814493,-0.174533,-0.174533,-0.646348,-0.804763,-0.148277,-0.175997,-0.815055,-0.272443,-0.393846,0.021957
31,65,-0.654498,-0.814493,-0.174533,-0.174533,-0.646348,-0.804763,-0.148277,-0.175997,-0.815055,-0.272443,-0.393846,0.021957
31,65,-0.654498,-0.814493,-0.174533,-0.174533,-0.646348,-0.804763,-0.148277,-0.175997,-0.815055,-0.272443,-0.393846,0.021957
31,65,-0.654498,-0.814493,-0.174533,-0.174533,-0.646348,-0.804763,-0.148277,-0.175997,-0.815055,-0.272443,-0.393846,0.021957
31,65,-0.654498,-0.814493,-0.174533,-0.174533,-0.646348,-0.804763,-0.148277,-0.175997,-0.815055,-0.272443,-0.393846,0.021957
31,65,-0.654498,-0.814493,-0.174533,-0.174533,-0.646348,-0.804763,-0.148277,-0.175997,-0.815055,-0.272443,-0.393846,0.021957
31,65,-0.654498,-0.814493,-0.174533,-0.174533,-0.646348,-0.804763,-0.148277,-0.175997,-0.815055,-0.272443,-0.393846,0.021957
31,65,-0.654498,-0.814493,-0.174533,-0.174533,-0.646348,-0.804763,-0.148277,-0.175997,-0.815055,-0.272443,-0.393846,0.021957
31,65,-0.654498,-0.814493,-0.174533,-0.174533,-0.646348,-0.804763,-0.148277,-0.175997,-0.815055,-0.272443,-0.393846,0.021957
31,65,-0.654498,-0.814493,-0.174533,-0.174533,-0.646348,-0.804763,-0.148277,-0.175997,-0.815055,-0.272443,-0.393846,0.021957
31,65,-0.654498,-0.814493,-0.174533,-0.174533,-0.646348,-0.804763,-0.148277,-0.175997,-0.815055,-0.272443,-0.393846,0.021957
31,65,-0.654498,-0.814493,-0.174533,-0.174533,-0.646348,-0.804763,-0.148277,-0.175997,-0.815055,-0.272443,-0.393846,0.021957
31,65,-0.654498,-0.814493,-0.174533,-0.174533,-0.646348,-0.804763,-0.148277,-0.175997,-0.815055,-0.272443,-0.393846,0.021957
31,65,-0.654498,-0.814493,-0.174533,-0.174533,-0.646348,-0.804763,-0.148277,-0.175997,-0.815055,-0.272443,-0.393846,0.021957
31,65,-0.654498,-0.814493,-0.174533,-0.174533,-0.646348,-0.804763,-0.148277,-0.175997,-0.815055,-0.272443,-0.393846,0.021957
31,65,-0.654498,-0.814493,-0.174533,-0.174533,-0.646348,-0.804763,-0.148277,-0.175997,-0.815055,-0.272443,-0.393846,0.021957
31,65,-0.654498,-0.814493,-0.174533,-0.174533,-0.646348,-0.804763,-0.148277,-0.175997,-0.815055,-0.272443,-0.393846,0.021957
31,65,-0.654498,-0.814493,-0.174533,-0.174533,-0.646348,-0.804763,-0.148277,-0.175997,-0.815055,-0.272443,-0.393846,0.021957
31,65,-0.654498,-0.814493,-0.174533,-0.174533,-0.646348,-0.804763,-0.148277,-0.175997,-0.815055,-0.272443,-0.393846,0.021957
31,65,-0.654498,-0.814493,-0.174533,-0.174533,-0.646348,-0.804763,-0.148277,-0.175997,-0.815055,-0.272443,-0.393846,0.021957
31,65,-0.654498,-0.814493,-0.174533,-0.174533,-0.646348,-0.804763,-0.148277,-0.175997,-0.815055,-0.272443,-0.393846,0.021957
31,65,-0.654498,-0.814493,-0.174533,-0.174533,-0.646348,-0.804763,-0.148277,-0.175997,-0.815055,-0.272443,-0.393846,0.021957
31,65,-0.654498,-0.814493,-0.174533,-0.174533,-0.646348,-0.804763,-0.148277,-0.175997,-0.815055,-0.272443,-0.393846,0.021957
31,65,-0.654498,-0.814493,-0.174533,-0.174533,-0.646348,-0.804763,-0.148277,-0.175997,-0.815055,-0.272443,-0.393846,0.021957
31,65,-0.654498,-0.814493,-0.174533,-0.174533,-0.646348,-0.804763,-0.148277,-0.175997,-0.815055,-0.272443,-0.393846,0.021957
31,65,-0.654498,-0.814493,-0.174533,-0.174533,-0.646348,-0.804763,-0.148277,-0.175997,-0.815055,-0.272443,-0.393846,0.021957
31,65,-0.654498,-0.814493,-0.174533,-0.174533,-0.646348,-0.804763,-0.148277,-0.175997,-0.815055,-0.272443,-0.393846,0.021957
31,65,-0.654498,-0.814493,-0.174533,-0.174533,-0.646348,-0.804763,-0.148277,-0.175997,-0.815055,-0.272443,-0.393846,0.021957
31,65,-0.654498,-0.814493,-0.174533,-0.174533,-0.646348,-0.804763,-0.148277,-0.175997,-0.815055,-0.272443,-0.393846,0.021957
31,65,-0.654498,-0.814493,-0.174533,-0.174533,-0.646348,-0.804763,-0.148277,-0.175997,-0.815055,-0.272443,-0.393846,0.021957
31,65,-0.654498,-0.814493,-0.174533,-0.174533,-0.646348,-0.804763,-0.148277,-0.175997,-0.815055,-0.272443,-0.393846,0.021957
31,65,-0.654498,-0.814493,-0.174533,-0.174533,-0.646348,-0.804763,-0.148277,-0.175997,-0.815055,-0.272443,-0.393846,0.021957
31,65,-0.654498,-0.814493,-0.174533,-0.174533,-0.646348,-0.804763,-0.148277,-0.175997,-0.815055,-0.272443,-0.393846,0.021957
31,65,-0.654498,-0.814493,-0.174533,-0.174533,-0.646348,-0.804763,-0.148277,-0.175997,-0.815055,-0.272443,-0.393846,0.021957
31,65,-0.654498,-0.814493,-0.174533,-0.174533,-0.646348,-0.804763,-0.148277,-0.175997,-0.815055,-0.272443,-0.393846,0.021957
31,65,-0.654498,-0.814493,-0.174533,-0.174533,-0.646348,-0.804763,-0.148277,-0.175997,-0.815055,-0.272443,-0.393846,0.021957
31,65,-0.654498,-0.814493,-0.174533,-0.174533,-0.646348,-0.804763,-0.148277,-0.175997,-0.815055,-0.272443,-0.393846,0.021957
31,65,-0.654498,-0.814493,-0.174533,-0.174533,-0.646348,-0.804763,-0.148277,-0.175997,-0.815055,-0.272443,-0.393846,0.021957
31,65,-0.654498,-0.814493,-0.174533,-0.174533,-0.646348,-0.804763,-0.148277,-0.175997,-0.815055,-0.272443,-0.393846,0.021957
31,65,-0.654498,-0.814493,-0.174533,-0.174533,-0.646348,-0.804763,-0.148277,-0.175997,-0.815055,-0.272443,-0.393846,0.021957
31,65,-0.654498,-0.814493,-0.174533,-0.174533,-0.646348,-0.804763,-0.148277,-0.175997,-0.815055,-0.272443,-0.393846,0.021957
31,65,-0.654498,-0.814493,-0.174533,-0.174533,-0.646348,-0.804763,-0.148277,-0.175997,-0.815055,-0.272443,-0.393846,0.021957
31,65,-0.654498,-0.814493,-0.174533,-0.174533,-0.646348,-0.804763,-0.148277,-0.175997,-0.815055,-0.272443,-0.393846,0.021957
31,65,-0.654498,-0.814493,-0.174533,-0.174533,-0.646348,-0.804763,-0.148277,-0.175997,-0.815055,-0.272443,-0.393846,0.021957
31,65,-0.654498,-0.814493,-0.174533,-0.174533,-0.646348,-0.804763,-0.148277,-0.175997,-0.815055,-0.272443,-0.393846,0.021957
31,65,-0.654498,-0.814493,-0.174533,-0.174533,-0.646348,-0.804763,-0.148277,-0.175997,-0.815055,-0.272443,-0.393846,0.021957
31,65,-0.654498,-0.814493,-0.174533,-0.174533,-0.646348,-0.804763,-0.148277,-0.175997,-0.815055,-0.272443,-0.393846,0.021957
31,65,-0.654498,-0.814493,-0.174533,-0.174533,-0.646348,-0.804763,-0.148277,-0.175997,-0.815055,-0.272443,-0.393846,0.021957
31,65,-0.654498,-0.814493,-0.174533,-0.174533,-0.646348,-0.804763,-0.148277,-0.175997,-0.815055,-0.272443,-0.393846,0.021957
31,65,-0.654498,-0.814493,-0.174533,-0.174533,-0.646348,-0.804763,-0.148277,-0.175997,-0.815055,-0.272443,-0.393846,0.021957
31,65,-0.654498,-0.814493,-0.174533,-0.174533,-0.646348,-0.804763,-0.148277,-0.175997,-0.815055,-0.272443,-0.393846,0.021957
31,65,-0.654498,-0.814493,-0.174533,-0.174533,-0.646348,-0.804763,-0.148277,-0.175997,-0.815055,-0.272443,-0.393846,0.021957
31,65,-0.654498,-0.814493,-0.174533,-0.174533,-0.646348,-0.804763,-0.148277,-0.175997,-0.815055,-0.272443,-0.393846,0.021957
31,65,-0.654498,-0.814493,-0.174533,-0.174533,-0.646348,-0.804763,-0.148277,-0.175997,-0.815055,-0.272443,-0.393846,0.021957
31,65,-0.654498,-0.814493,-0.174533,-0.174533,-0.646348,-0.804763,-0.148277,-0.175997,-0.815055,-0.272443,-0.393846,0.021957
31,65,-0.654498,-0.814493,-0.174533,-0.174533,-0.646348,-0.804763,-0.148277,-0.175997,-0.815055,-0.272443,-0.393846,0.021957
31,65,-0.654498,-0.814493,-0.174533,-0.174533,-0.646348,-0.804763,-0.148277,-0.175997,-0.815055,-0.272443,-0.393846,0.021957
31,65,-0.654498,-0.814493,-0.174533,-0.174533,-0.646348,-0.804763,-0.148277,-0.175997,-0.815055,-0.272443,-0.393846,0.021957
31,65,-0.654498,-0.814493,-0.174533,-0.174533,-0.646348,-0.804763,-0.148277,-0.175997,-0.815055,-0.272443,-0.393846,0.021957
31,65,-0.654498,-0.814493,-0.174533,-0.174533,-0.646348,-0.804763,-0.148277,-0.175997,-0.815055,-0.272443,-0.393846,0.021957
31,65,-0.654498,-0.814493,-0.174533,-0.174533,-0.646348,-0.804763,-0.148277,-0.175997,-0.815055,-0.272443,-0.393846,0.021957
31,65,-0.654498,-0.814493,-0.174533,-0.174533,-0.646348,-0.804763,-0.148277,-0.175997,-0.815055,-0.272443,-0.393846,0.021957
31,65,-0.654498,-0.814493,-0.174533,-0.174533,-0.646348,-0.804763,-0.148277,-0.175997,-0.815055,-0.272443,-0.393846,0.021957
31,65,-0.654498,-0.814493,-0.174533,-0.174533,-0.646348,-0.804763,-0.148277,-0.175997,-0.815055,-0.272443,-0.393846,0.021957
31,65,-0.654498,-0.814493,-0.174533,-0.174533,-0.646348,-0.804763,-0.148341,-0.176038,-0.815055,-0.272443,-0.392882,0.0225783
31,65,-0.654498,-0.814493,-0.174533,-0.174533,-0.646348,-0.804763,-0.148341,-0.176038,-0.815055,-0.272443,-0.392882,0.0225783
31,65,-0.654498,-0.814493,-0.174533,-0.174533,-0.646348,-0.804763,-0.148341,-0.176038,-0.815055,-0.272443,-0.392882,0.0225783
31,65,-0.654498,-0.814493,-0.174533,-0.174533,-0.646348,-0.804763,-0.148341,-0.176038,-0.815055,-0.272443,-0.392882,0.0225783
31,65,-0.654498,-0.814493,-0.174533,-0.174533,-0.646348,-0.804763,-0.148341,-0.176038,-0.815055,-0.272443,-0.392882,0.0225783
31,65,-0.654498,-0.814493,-0.174533,-0.174533,-0.646348,-0.804763,-0.148341,-0.176038,-0.815055,-0.272443,-0.392882,0.0225783
31,65,-0.654498,-0.814493,-0.174533,-0.174533,-0.646348,-0.804763,-0.148341,-0.176038,-0.815055,-0.272443,-0.392882,0.0225783
31,65,-0.654498,-0.814493,-0.174533,-0.174533,-0.646348,-0.804763,-0.148341,-0.176038,-0.815055,-0.272443,-0.392882,0.0225783
31,65,-0.654498,-0.814493,-0.174533,-0.174533,-0.646348,-0.804763,-0.148341,-0.176038,-0.815055,-0.272443,-0.392882,0.0225783
31,65,-0.654498,-0.814493,-0.174533,-0.174533,-0.646348,-0.804763,-0.148341,-0.176038,-0.815055,-0.272443,-0.392882,0.0225783
31,65,-0.654498,-0.814493,-0.174533,-0.174533,-0.646348,-0.804763,-0.148341,-0.176038,-0.815055,-0.272443,-0.392882,0.0225783
31,65,-0.654498,-0.814493,-0.174533,-0.174533,-0.646348,-0.804763,-0.148341,-0.176038,-0.815055,-0.272443,-0.392882,0.0225783
31,65,-0.654498,-0.814493,-0.174533,-0.174533,-0.646348,-0.804763,-0.148341,-0.176038,-0.815055,-0.272443,-0.392882,0.0225783
31,65,-0.654498,-0.814493,-0.174533,-0.174533,-0.646348,-0.804763,-0.148341,-0.176038,-0.815055,-0.272443,-0.392882,0.0225783
31,65,-0.654498,-0.814493,-0.174533,-0.174533,-0.646348,-0.804763,-0.148341,-0.176038,-0.815055,-0.272443,-0.392882,0.0225783
31,65,-0.654498,-0.814493,-0.174533,-0.174533,-0.646348,-0.804763,-0.148341,-0.176038,-0.815055,-0.272443,-0.392882,0.0225783
31,65,-0.654498,-0.814493,-0.174533,-0.174533,-0.646348,-0.804763,-0.148341,-0.176038,-0.815055,-0.272443,-0.392882,0.0225783
31,65,-0.654498,-0.814493,-0.174533,-0.174533,-0.646348,-0.804763,-0.148341,-0.176038,-0.815055,-0.272443,-0.392882,0.0225783
31,65,-0.654498,-0.814493,-0.174533,-0.174533,-0.646348,-0.804763,-0.148341,-0.176038,-0.815055,-0.272443,-0.392882,0.0225783
31,65,-0.654498,-0.814493,-0.174533,-0.174533,-0.646348,-0.804763,-0.148341,-0.176038,-0.815055,-0.272443,-0.392882,0.0225783
31,65,-0.654498,-0.814493,-0.174533,-0.174533,-0.646348,-0.804763,-0.148341,-0.176038,-0.815055,-0.272443,-0.392882,0.0225783
31,65,-0.654498,-0.814493,-0.174533,-0.174533,-0.646348,-0.804763,-0.148341,-0.176038,-0.815055,-0.272443,-0.392882,0.0225783
31,65,-0.654498,-0.814493,-0.174533,-0.174533,-0.646348,-0.804763,-0.148341,-0.176038,-0.815055,-0.272443,-0.392882,0.0225783
31,65,-0.654498,-0.814493,-0.174533,-0.174533,-0.646348,-0.804763,-0.148341,-0.176038,-0.815055,-0.272443,-0.392882,0.0225783
31,65,-0.654498,-0.814493,-0.174533,-0.174533,-0.646348,-0.804763,-0.148341,-0.176038,-0.815055,-0.272443,-0.392882,0.0225783
31,65,-0.654498,-0.814493,-0.174533,-0.174533,-0.646348,-0.804763,-0.148341,-0.176038,-0.815055,-0.272443,-0.392882,0.0225783
31,65,-0.654498,-0.814493,-0.174533,-0.174533,-0.646348,-0.804763,-0.148341,-0.176038,-0.815055,-0.272443,-0.392882,0.0225783
31,65,-0.654498,-0.814493,-0.174533,-0.174533,-0.646348,-0.804763,-0.148341,-0.176038,-0.815055,-0.272443,-0.392882,0.0225783
31,65,-0.654498,-0.814493,-0.174533,-0.174533,-0.646348,-0.804763,-0.148341,-0.176038,-0.815055,-0.272443,-0.392882,0.0225783
31,65,-0.654498,-0.814493,-0.174533,-0.174533,-0.646348,-0.804763,-0.148341,-0.176038,-0.815055,-0.272443,-0.392882,0.0225783
31,65,-0.654498,-0.814493,-0.174533,-0.174533,-0.646348,-0.804763,-0.148341,-0.176038,-0.815055,-0.272443,-0.392882,0.0225783
31,65,-0.654498,-0.814493,-0.174533,-0.174533,-0.646348,-0.804763,-0.148341,-0.176038,-0.815055,-0.272443,-0.392882,0.0225783
31,65,-0.654498,-0.814493,-0.174533,-0.174533,-0.646348,-0.804763,-0.148341,-0.176038,-0.815055,-0.272443,-0.392882,0.0225783
31,65,-0.654498,-0.814493,-0.174533,-0.174533,-0.646348,-0.804763,-0.148341,-0.176038,-0.815055,-0.272443,-0.392882,0.0225783
31,65,-0.654498,-0.814493,-0.174533,-0.174533,-0.646348,-0.804763,-0.148341,-0.176038,-0.815055,-0.272443,-0.392882,0.0225783
31,65,-0.654498,-0.814493,-0.174533,-0.174533,-0.646348,-0.804763,-0.148341,-0.176038,-0.815055,-0.272443,-0.392882,0.0225783
31,65,-0.654498,-0.814493,-0.174533,-0.174533,-0.646348,-0.804763,-0.148341,-0.176038,-0.815055,-0.272443,-0.392882,0.0225783
31,65,-0.654498,-0.814493,-0.174533,-0.174533,-0.646348,-0.804763,-0.148341,-0.176038,-0.815055,-0.272443,-0.392882,0.0225783
31,65,-0.654498,-0.814493,-0.174533,-0.174533,-0.646348,-0.804763,-0.148341,-0.176038,-0.815055,-0.272443,-0.392882,0.0225783
31,65,-0.654498,-0.814493,-0.174533,-0.174533,-0.646348,-0.804763,-0.148341,-0.176038,-0.815055,-0.272443,-0.392882,0.0225783
31,65,-0.654498,-0.814493,-0.174533,-0.174533,-0.646348,-0.804763,-0.148341,-0.176038,-0.815055,-0.272443,-0.392882,0.0225783
31,65,-0.654498,-0.814493,-0.174533,-0.174533,-0.646348,-0.804763,-0.148341,-0.176038,-0.815055,-0.272443,-0.392882,0.0225783
31,65,-0.654498,-0.814493,-0.174533,-0.174533,-0.646348,-0.804763,-0.148341,-0.176038,-0.815055,-0.272443,-0.392882,0.0225783
31,65,-0.654498,-0.814493,-0.174533,-0.174533,-0.646348,-0.804763,-0.148341,-0.176038,-0.815055,-0.272443,-0.392882,0.0225783
31,65,-0.654498,-0.814493,-0.174533,-0.174533,-0.646348,-0.804763,-0.148341,-0.176038,-0.815055,-0.272443,-0.392882,0.0225783
31,65,-0.654498,-0.814493,-0.174533,-0.174533,-0.646348,-0.804763,-0.148341,-0.176038,-0.815055,-0.272443,-0.392882,0.0225783
31,65,-0.654498,-0.814493,-0.174533,-0.174533,-0.646348,-0.804763,-0.148341,-0.176038,-0.815055,-0.272443,-0.392882,0.0225783
31,65,-0.654498,-0.814493,-0.174533,-0.174533,-0.646348,-0.804763,-0.148341,-0.176038,-0.815055,-0.272443,-0.392882,0.0225783
31,65,-0.654498,-0.814493,-0.174533,-0.174533,-0.646348,-0.804763,-0.148341,-0.176038,-0.815055,-0.272443,-0.392882,0.0225783
31,65,-0.654498,-0.814493,-0.174533,-0.174533,-0.646348,-0.804763,-0.148341,-0.176038,-0.815055,-0.272443,-0.392882,0.0225783
31,65,-0.654498,-0.814493,-0.174533,-0.174533,-0.646348,-0.804763,-0.148341,-0.176038,-0.815055,-0.272443,-0.392882,0.0225783
31,65,-0.654498,-0.814493,-0.174533,-0.174533,-0.646348,-0.804763,-0.148341,-0.176038,-0.815055,-0.272443,-0.392882,0.0225783
31,65,-0.654498,-0.814493,-0.174533,-0.174533,-0.646348,-0.804763,-0.148341,-0.176038,-0.815055,-0.272443,-0.392882,0.0225783
31,65,-0.654498,-0.814493,-0.174533,-0.174533,-0.646348,-0.804763,-0.148341,-0.176038,-0.815055,-0.272443,-0.392882,0.0225783
31,65,-0.654498,-0.814493,-0.174533,-0.174533,-0.646348,-0.804763,-0.148341,-0.176038,-0.815055,-0.272443,-0.392882,0.0225783
31,65,-0.654498,-0.814493,-0.174533,-0.174533,-0.646348,-0.804763,-0.148341,-0.176038,-0.815055,-0.272443,-0.392882,0.0225783
31,65,-0.654498,-0.814493,-0.174533,-0.174533,-0.646348,-0.804763,-0.148341,-0.176038,-0.815055,-0.272443,-0.392882,0.0225783
31,65,-0.654498,-0.814493,-0.174533,-0.174533,-0.646348,-0.804763,-0.148341,-0.176038,-0.815055,-0.272443,-0.392882,0.0225783
31,65,-0.654498,-0.814493,-0.174533,-0.174533,-0.646348,-0.804763,-0.148341,-0.176038,-0.815055,-0.272443,-0.392882,0.0225783
31,65,-0.654498,-0.814493,-0.174533,-0.174533,-0.646348,-0.804763,-0.148341,-0.176038,-0.815055,-0.272443,-0.392882,0.0225783
31,65,-0.654498,-0.814493,-0.174533,-0.174533,-0.646348,-0.804763,-0.148341,-0.176038,-0.815055,-0.272443,-0.392882,0.0225783
31,65,-0.654498,-0.814493,-0.174533,-0.174533,-0.646348,-0.804763,-0.148341,-0.176038,-0.815055,-0.272443,-0.392882,0.0225783
31,65,-0.654498,-0.814493,-0.174533,-0.174533,-0.646348,-0.804763,-0.148341,-0.176038,-0.815055,-0.272443,-0.392882,0.0225783
31,65,-0.654498,-0.814493,-0.174533,-0.174533,-0.646348,-0.804763,-0.148341,-0.176038,-0.815055,-0.272443,-0.392882,0.0225783
31,65,-0.654498,-0.814493,-0.174533,-0.174533,-0.646348,-0.804763,-0.148341,-0.176038,-0.815055,-0.272443,-0.392882,0.0225783
31,65,-0.654498,-0.814493,-0.174533,-0.174533,-0.646348,-0.804763,-0.148341,-0.176038,-0.815055,-0.272443,-0.392882,0.0225783
31,65,-0.654498,-0.814493,-0.174533,-0.174533,-0.646348,-0.804763,-0.148341,-0.176038,-0.815055,-0.272443,-0.392882,0.0225783
31,65,-0.654498,-0.814493,-0.174533,-0.174533,-0.646348,-0.804763,-0.148341,-0.176038,-0.815055,-0.272443,-0.392882,0.0225783
31,65,-0.654498,-0.814493,-0.174533,-0.174533,-0.646348,-0.804763,-0.148341,-0.176038,-0.815055,-0.272443,-0.392882,0.0225783
31,65,-0.654498,-0.814493,-0.174533,-0.174533,-0.646348,-0.804763,-0.148341,-0.176038,-0.815055,-0.272443,-0.392882,0.0225783
31,65,-0.654498,-0.814493,-0.174533,-0.174533,-0.646348,-0.804763,-0.148341,-0.176038,-0.815055,-0.272443,-0.392882,0.0225783
31,65,-0.654498,-0.814493,-0.174533,-0.174533,-0.646348,-0.804763,-0.148341,-0.176038,-0.815055,-0.272443,-0.392882,0.0225783
31,65,-0.654498,-0.814493,-0.174533,-0.174533,-0.646348,-0.804763,-0.148341,-0.176038,-0.815055,-0.272443,-0.392882,0.0225783
31,65,-0.654498,-0.814493,-0.174533,-0.174533,-0.646348,-0.804763,-0.148341,-0.176038,-0.815055,-0.272443,-0.392882,0.0225783
31,65,-0.654498,-0.814493,-0.174533,-0.174533,-0.646348,-0.804763,-0.148341,-0.176038,-0.815055,-0.272443,-0.392882,0.0225783
31,65,-0.654498,-0.814493,-0.174533,-0.174533,-0.646348,-0.804763,-0.148341,-0.176038,-0.815055,-0.272443,-0.392882,0.0225783
31,65,-0.654498,-0.814493,-0.174533,-0.174533,-0.646348,-0.804763,-0.148341,-0.176038,-0.815055,-0.272443,-0.392882,0.0225783
31,65,-0.654498,-0.814493,-0.174533,-0.174533,-0.646348,-0.804763,-0.148341,-0.176038,-0.815055,-0.272443,-0.392882,0.0225783
31,65,-0.654498,-0.814493,-0.174533,-0.174533,-0.646348,-0.804763,-0.148341,-0.176038,-0.815055,-0.272443,-0.392882,0.0225783
31,65,-0.654498,-0.814493,-0.174533,-0.174533,-0.646348,-0.804763,-0.148341,-0.176038,-0.815055,-0.272443,-0.392882,0.0225783
31,65,-0.654498,-0.814493,-0.174533,-0.174533,-0.646348,-0.804763,-0.148341,-0.176038,-0.815055,-0.272443,-0.392882,0.0225783
31,65,-0.654498,-0.814493,-0.174533,-0.174533,-0.646348,-0.804763,-0.148341,-0.176038,-0.815055,-0.272443,-0.392882,0.0225783
31,65,-0.654498,-0.814493,-0.174533,-0.174533,-0.646348,-0.804763,-0.148341,-0.176038,-0.815055,-0.272443,-0.392882,0.0225783
31,65,-0.654498,-0.814493,-0.174533,-0.174533,-0.646348,-0.804763,-0.148341,-0.176038,-0.815055,-0.272443,-0.392882,0.0225783
31,65,-0.654498,-0.814493,-0.174533,-0.174533,-0.646348,-0.804763,-0.148341,-0.176038,-0.815055,-0.272443,-0.392882,0.0225783
31,65,-0.654498,-0.814493,-0.174533,-0.174533,-0.646348,-0.804763,-0.148341,-0.176038,-0.815055,-0.272443,-0.392882,0.0225783
31,65,-0.654498,-0.814493,-0.174533,-0.174533,-0.646348,-0.804763,-0.148341,-0.176038,-0.815055,-0.272443,-0.392882,0.0225783
31,65,-0.654498,-0.814493,-0.174533,-0.174533,-0.646348,-0.804763,-0.148341,-0.176038,-0.815055,-0.272443,-0.392882,0.0225783
31,65,-0.654498,-0.814493,-0.174533,-0.174533,-0.646348,-0.804763,-0.148341,-0.176038,-0.815055,-0.272443,-0.392882,0.0225783
31,65,-0.654498,-0.814493,-0.174533,-0.174533,-0.646348,-0.804763,-0.148341,-0.176038,-0.815055,-0.272443,-0.392882,0.0225783
31,65,-0.654498,-0.814493,-0.174533,-0.174533,-0.646348,-0.804763,-0.148341,-0.176038,-0.815055,-0.272443,-0.392882,0.0225783
31,65,-0.654498,-0.814493,-0.174533,-0.174533,-0.646348,-0.804763,-0.148341,-0.176038,-0.815055,-0.272443,-0.392882,0.0225783
31,65,-0.654498,-0.814493,-0.174533,-0.174533,-0.646348,-0.804763,-0.148341,-0.176038,-0.815055,-0.272443,-0.392882,0.0225783
31,65,-0.654498,-0.814493,-0.174533,-0.174533,-0.646348,-0.804763,-0.148341,-0.176038,-0.815055,-0.272443,-0.392882,0.0225783
31,65,-0.654498,-0.814493,-0.174533,-0.174533,-0.646348,-0.804763,-0.148341,-0.176038,-0.815055,-0.272443,-0.392882,0.0225783
31,65,-0.654498,-0.814493,-0.174533,-0.174533,-0.646348,-0.804763,-0.148341,-0.176038,-0.815055,-0.272443,-0.392882,0.0225783
31,65,-0.654498,-0.814493,-0.174533,-0.174533,-0.646348,-0.804763,-0.148341,-0.176038,-0.815055,-0.272443,-0.392882,0.0225783
31,65,-0.654498,-0.814493,-0.174533,-0.174533,-0.646348,-0.804763,-0.148341,-0.176038,-0.815055,-0.272443,-0.392882,0.0225783
31,65,-0.654498,-0.814493,-0.174533,-0.174533,-0.646348,-0.804763,-0.148341,-0.176038,-0.815055,-0.272443,-0.392882,0.0225783
31,65,-0.654498,-0.814493,-0.174533,-0.174533,-0.646348,-0.804763,-0.148341,-0.176038,-0.815055,-0.272443,-0.392882,0.0225783
31,65,-0.654498,-0.814493,-0.174533,-0.174533,-0.646348,-0.804763,-0.148341,-0.176038,-0.815055,-0.272443,-0.392882,0.0225783
31,65,-0.654498,-0.814493,-0.174533,-0.174533,-0.646348,-0.804763,-0.148341,-0.176038,-0.815055,-0.272443,-0.392882,0.0225783
31,65,-0.654498,-0.814493,-0.174533,-0.174533,-0.646348,-0.804763,-0.148341,-0.176038,-0.815055,-0.272443,-0.392882,0.0225783
31,65,-0.654498,-0.814493,-0.174533,-0.174533,-0.646348,-0.804763,-0.148341,-0.176038,-0.815055,-0.272443,-0.392882,0.0225783
31,65,-0.654498,-0.814493,-0.174533,-0.174533,-0.646348,-0.804763,-0.148341,-0.176038,-0.815055,-0.272443,-0.392882,0.0225783
31,65,-0.654498,-0.814493,-0.174533,-0.174533,-0.646348,-0.804763,-0.148341,-0.176038,-0.815055,-0.272443,-0.392882,0.0225783
31,65,-0.654498,-0.814493,-0.174533,-0.174533,-0.646348,-0.804763,-0.148341,-0.176038,-0.815055,-0.272443,-0.392882,0.0225783
31,65,-0.654498,-0.814493,-0.174533,-0.174533,-0.646348,-0.804763,-0.148341,-0.176038,-0.815055,-0.272443,-0.392882,0.0225783
31,65,-0.654498,-0.814493,-0.174533,-0.174533,-0.646348,-0.804763,-0.148341,-0.176038,-0.815055,-0.272443,-0.392882,0.0225783
31,65,-0.654498,-0.814493,-0.174533,-0.174533,-0.646348,-0.804763,-0.148341,-0.176038,-0.815055,-0.272443,-0.392882,0.0225783
31,65,-0.654498,-0.814493,-0.174533,-0.174533,-0.646348,-0.804763,-0.148341,-0.176038,-0.815055,-0.272443,-0.392882,0.0225783
31,65,-0.654498,-0.814493,-0.174533,-0.174533,-0.646348,-0.804763,-0.148341,-0.176038,-0.815055,-0.272443,-0.392882,0.0225783
31,65,-0.654498,-0.814493,-0.174533,-0.174533,-0.646348,-0.804763,-0.148341,-0.176038,-0.815055,-0.272443,-0.392882,0.0225783
31,65,-0.654498,-0.814493,-0.174533,-0.174533,-0.646348,-0.804763,-0.148341,-0.176038,-0.815055,-0.272443,-0.392882,0.0225783
31,65,-0.654498,-0.814493,-0.174533,-0.174533,-0.646348,-0.804763,-0.148341,-0.176038,-0.815055,-0.272443,-0.392882,0.0225783
31,65,-0.654498,-0.814493,-0.174533,-0.174533,-0.646348,-0.804763,-0.148341,-0.176038,-0.815055,-0.272443,-0.392882,0.0225783
31,65,-0.654498,-0.814493,-0.174533,-0.174533,-0.646348,-0.804763,-0.148341,-0.176038,-0.815055,-0.272443,-0.392882,0.0225783
31,65,-0.654498,-0.814493,-0.174533,-0.174533,-0.646348,-0.804763,-0.148341,-0.176038,-0.815055,-0.272443,-0.392882,0.0225783
31,65,-0.654498,-0.814493,-0.174533,-0.174533,-0.646348,-0.804763,-0.148341,-0.176038,-0.815055,-0.272443,-0.392882,0.0225783
31,65,-0.654498,-0.814493,-0.174533,-0.174533,-0.646348,-0.804763,-0.148341,-0.176038,-0.815055,-0.272443,-0.392882,0.0225783
31,65,-0.654498,-0.814493,-0.174533,-0.174533,-0.646348,-0.804763,-0.148341,-0.176038,-0.815055,-0.272443,-0.392882,0.0225783
31,65,-0.654498,-0.814493,-0.174533,-0.174533,-0.646348,-0.804763,-0.148341,-0.176038,-0.815055,-0.272443,-0.392882,0.0225783
31,65,-0.654498,-0.814493,-0.174533,-0.174533,-0.646348,-0.804763,-0.148341,-0.176038,-0.815055,-0.272443,-0.392882,0.0225783
31,65,-0.654498,-0.814493,-0.174533,-0.174533,-0.646348,-0.804763,-0.148341,-0.176038,-0.815055,-0.272443,-0.392882,0.0225783
31,65,-0.654498,-0.814493,-0.174533,-0.174533,-0.646348,-0.804763,-0.148341,-0.176038,-0.815055,-0.272443,-0.392882,0.0225783
31,65,-0.654498,-0.814493,-0.174533,-0.174533,-0.646348,-0.804763,-0.148341,-0.176038,-0.815055,-0.272443,-0.392882,0.0225783
31,65,-0.654498,-0.814493,-0.174533,-0.174533,-0.646348,-0.804763,-0.148341,-0.176038,-0.815055,-0.272443,-0.392882,0.0225783
31,65,-0.654498,-0.814493,-0.174533,-0.174533,-0.646348,-0.804763,-0.148341,-0.176038,-0.815055,-0.272443,-0.392882,0.0225783
31,65,-0.654498,-0.814493,-0.174533,-0.174533,-0.646348,-0.804763,-0.148341,-0.176038,-0.815055,-0.272443,-0.392882,0.0225783
31,65,-0.654498,-0.814493,-0.174533,-0.174533,-0.646348,-0.804763,-0.148341,-0.176038,-0.815055,-0.272443,-0.392882,0.0225783
31,65,-0.654498,-0.814493,-0.174533,-0.174533,-0.646348,-0.804763,-0.148341,-0.176038,-0.815055,-0.272443,-0.392882,0.0225783
31,65,-0.654498,-0.814493,-0.174533,-0.174533,-0.646348,-0.804763,-0.148341,-0.176038,-0.815055,-0.272443,-0.392882,0.0225783
31,65,-0.654498,-0.814493,-0.174533,-0.174533,-0.646348,-0.804763,-0.148341,-0.176038,-0.815055,-0.272443,-0.392882,0.0225783
31,65,-0.654498,-0.814493,-0.174533,-0.174533,-0.646348,-0.804763,-0.148341,-0.176038,-0.815055,-0.272443,-0.392882,0.0225783
31,65,-0.654498,-0.814493,-0.174533,-0.174533,-0.646348,-0.804763,-0.148341,-0.176038,-0.815055,-0.272443,-0.392882,0.0225783
31,65,-0.654498,-0.814493,-0.174533,-0.174533,-0.646348,-0.804763,-0.148341,-0.176038,-0.815055,-0.272443,-0.392882,0.0225783
31,65,-0.654498,-0.814493,-0.174533,-0.174533,-0.646348,-0.804763,-0.148341,-0.176038,-0.815055,-0.272443,-0.392882,0.0225783
31,65,-0.654498,-0.814493,-0.174533,-0.174533,-0.646348,-0.804763,-0.148341,-0.176038,-0.815055,-0.272443,-0.392882,0.0225783
31,65,-0.654498,-0.814493,-0.174533,-0.174533,-0.646348,-0.804763,-0.148341,-0.176038,-0.815055,-0.272443,-0.392882,0.0225783
31,65,-0.654498,-0.814493,-0.174533,-0.174533,-0.646348,-0.804763,-0.148341,-0.176038,-0.815055,-0.272443,-0.392882,0.0225783
31,65,-0.654498,-0.814493,-0.174533,-0.174533,-0.646348,-0.804763,-0.148341,-0.176038,-0.815055,-0.272443,-0.392882,0.0225783
31,65,-0.654498,-0.814493,-0.174533,-0.174533,-0.646348,-0.804763,-0.148341,-0.176038,-0.815055,-0.272443,-0.392882,0.0225783
31,65,-0.654498,-0.814493,-0.174533,-0.174533,-0.646348,-0.804763,-0.148341,-0.176038,-0.815055,-0.272443,-0.392882,0.0225783
31,65,-0.654498,-0.814493,-0.174533,-0.174533,-0.646348,-0.804763,-0.148341,-0.176038,-0.815055,-0.272443,-0.392882,0.0225783
31,65,-0.654498,-0.814493,-0.174533,-0.174533,-0.646348,-0.804763,-0.148341,-0.176038,-0.815055,-0.272443,-0.392882,0.0225783
31,65,-0.654498,-0.814493,-0.174533,-0.174533,-0.646348,-0.804763,-0.148341,-0.176038,-0.815055,-0.272443,-0.392882,0.0225783
31,65,-0.654498,-0.814493,-0.174533,-0.174533,-0.646348,-0.804763,-0.148341,-0.176038,-0.815055,-0.272443,-0.392882,0.0225783
31,65,-0.654498,-0.814493,-0.174533,-0.174533,-0.646348,-0.804763,-0.148341,-0.176038,-0.815055,-0.272443,-0.392882,0.0225783
31,65,-0.654498,-0.814493,-0.174533,-0.174533,-0.646348,-0.804763,-0.148341,-0.176038,-0.815055,-0.272443,-0.392882,0.0225783
31,65,-0.654498,-0.814493,-0.174533,-0.174533,-0.646348,-0.804763,-0.148341,-0.176038,-0.815055,-0.272443,-0.392882,0.0225783
31,65,-0.654498,-0.814493,-0.174533,-0.174533,-0.646348,-0.804763,-0.148341,-0.176038,-0.815055,-0.272443,-0.392882,0.0225783
31,65,-0.654498,-0.814493,-0.174533,-0.174533,-0.646348,-0.804763,-0.148341,-0.176038,-0.815055,-0.272443,-0.392882,0.0225783
31,65,-0.654498,-0.814493,-0.174533,-0.174533,-0.646348,-0.804763,-0.148341,-0.176038,-0.815055,-0.272443,-0.392882,0.0225783
31,65,-0.654498,-0.814493,-0.174533,-0.174533,-0.646348,-0.804763,-0.148341,-0.176038,-0.815055,-0.272443,-0.392882,0.0225783
31,65,-0.654498,-0.814493,-0.174533,-0.174533,-0.646348,-0.804763,-0.148341,-0.176038,-0.815055,-0.272443,-0.392882,0.0225783
31,65,-0.654498,-0.814493,-0.174533,-0.174533,-0.646348,-0.804763,-0.148341,-0.176038,-0.815055,-0.272443,-0.392882,0.0225783
31,65,-0.654498,-0.814493,-0.174533,-0.174533,-0.646348,-0.804763,-0.148341,-0.176038,-0.815055,-0.272443,-0.392882,0.0225783
31,65,-0.654498,-0.814493,-0.174533,-0.174533,-0.646348,-0.804763,-0.148341,-0.176038,-0.815055,-0.272443,-0.392882,0.0225783
31,65,-0.654498,-0.814493,-0.174533,-0.174533,-0.646348,-0.804763,-0.148341,-0.176038,-0.815055,-0.272443,-0.392882,0.0225783
31,65,-0.654498,-0.814493,-0.174533,-0.174533,-0.646348,-0.804763,-0.148341,-0.176038,-0.815055,-0.272443,-0.392882,0.0225783
31,65,-0.654498,-0.814493,-0.174533,-0.174533,-0.646348,-0.804763,-0.148341,-0.176038,-0.815055,-0.272443,-0.392882,0.0225783
31,65,-0.654498,-0.814493,-0.174533,-0.174533,-0.646348,-0.804763,-0.148341,-0.176038,-0.815055,-0.272443,-0.392882,0.0225783
31,65,-0.654498,-0.814493,-0.174533,-0.174533,-0.646348,-0.804763,-0.148341,-0.176038,-0.815055,-0.272443,-0.392882,0.0225783
31,65,-0.654498,-0.814493,-0.174533,-0.174533,-0.646348,-0.804763,-0.148341,-0.176038,-0.815055,-0.272443,-0.392882,0.0225783
31,65,-0.654498,-0.814493,-0.174533,-0.174533,-0.646348,-0.804763,-0.148341,-0.176038,-0.815055,-0.272443,-0.392882,0.0225783
31,65,-0.654498,-0.814493,-0.174533,-0.174533,-0.646348,-0.804763,-0.148341,-0.176038,-0.815055,-0.272443,-0.392882,0.0225783
31,65,-0.654498,-0.814493,-0.174533,-0.174533,-0.646348,-0.804763,-0.148341,-0.176038,-0.815055,-0.272443,-0.392882,0.0225783
31,65,-0.654498,-0.814493,-0.174533,-0.174533,-0.646348,-0.804763,-0.148341,-0.176038,-0.815055,-0.272443,-0.392882,0.0225783
31,65,-0.654498,-0.814493,-0.174533,-0.174533,-0.646348,-0.804763,-0.148341,-0.176038,-0.815055,-0.272443,-0.392882,0.0225783
31,65,-0.654498,-0.814493,-0.174533,-0.174533,-0.646348,-0.804763,-0.148341,-0.176038,-0.815055,-0.272443,-0.392882,0.0225783
31,65,-0.654498,-0.814493,-0.174533,-0.174533,-0.646348,-0.804763,-0.148341,-0.176038,-0.815055,-0.272443,-0.392882,0.0225783
31,65,-0.654498,-0.814493,-0.174533,-0.174533,-0.646348,-0.804763,-0.148341,-0.176038,-0.815055,-0.272443,-0.392882,0.0225783
31,65,-0.654498,-0.814493,-0.174533,-0.174533,-0.646348,-0.804763,-0.148341,-0.176038,-0.815055,-0.272443,-0.392882,0.0225783
31,65,-0.654498,-0.814493,-0.174533,-0.174533,-0.646348,-0.804763,-0.148341,-0.176038,-0.815055,-0.272443,-0.392882,0.0225783
31,65,-0.654498,-0.814493,-0.174533,-0.174533,-0.646348,-0.804763,-0.148341,-0.176038,-0.815055,-0.272443,-0.392882,0.0225783
31,65,-0.654498,-0.814493,-0.174533,-0.174533,-0.646348,-0.804763,-0.148341,-0.176038,-0.815055,-0.272443,-0.392882,0.0225783
31,65,-0.654498,-0.814493,-0.174533,-0.174533,-0.646348,-0.804763,-0.148341,-0.176038,-0.815055,-0.272443,-0.392882,0.0225783
31,65,-0.654498,-0.814493,-0.174533,-0.174533,-0.646348,-0.804763,-0.148341,-0.176038,-0.815055,-0.272443,-0.392882,0.0225783
31,65,-0.654498,-0.814493,-0.174533,-0.174533,-0.646348,-0.804763,-0.148341,-0.176038,-0.815055,-0.272443,-0.392882,0.0225783
31,65,-0.654498,-0.814493,-0.174533,-0.174533,-0.646348,-0.804763,-0.148341,-0.176038,-0.815055,-0.272443,-0.392882,0.0225783
31,65,-0.654498,-0.814493,-0.174533,-0.174533,-0.646348,-0.804763,-0.148341,-0.176038,-0.815055,-0.272443,-0.392882,0.0225783
31,65,-0.654498,-0.814493,-0.174533,-0.174533,-0.646348,-0.804763,-0.148341,-0.176038,-0.815055,-0.272443,-0.392882,0.0225783
31,65,-0.654498,-0.814493,-0.174533,-0.174533,-0.646348,-0.804763,-0.148341,-0.176038,-0.815055,-0.272443,-0.392882,0.0225783
31,65,-0.654498,-0.814493,-0.174533,-0.174533,-0.646348,-0.804763,-0.148341,-0.176038,-0.815055,-0.272443,-0.392882,0.0225783
31,65,-0.654498,-0.814493,-0.174533,-0.174533,-0.646348,-0.804763,-0.148341,-0.176038,-0.815055,-0.272443,-0.392882,0.0225783
31,65,-0.654498,-0.814493,-0.174533,-0.174533,-0.646348,-0.804763,-0.148341,-0.176038,-0.815055,-0.272443,-0.392882,0.0225783
31,65,-0.654498,-0.814493,-0.174533,-0.174533,-0.646348,-0.804763,-0.148341,-0.176038,-0.815055,-0.272443,-0.392882,0.0225783
31,65,-0.654498,-0.814493,-0.174533,-0.174533,-0.646348,-0.804763,-0.148341,-0.176038,-0.815055,-0.272443,-0.392882,0.0225783
31,65,-0.654498,-0.814493,-0.174533,-0.174533,-0.646348,-0.804763,-0.148341,-0.176038,-0.815055,-0.272443,-0.392882,0.0225783
31,65,-0.654498,-0.814493,-0.174533,-0.174533,-0.646348,-0.804763,-0.148341,-0.176038,-0.815055,-0.272443,-0.392882,0.0225783
31,65,-0.654498,-0.814493,-0.174533,-0.174533,-0.646348,-0.804763,-0.148341,-0.176038,-0.815055,-0.272443,-0.392882,0.0225783
31,65,-0.654498,-0.814493,-0.174533,-0.174533,-0.646348,-0.804763,-0.148341,-0.176038,-0.815055,-0.272443,-0.392882,0.0225783
31,65,-0.654498,-0.814493,-0.174533,-0.174533,-0.646348,-0.804763,-0.148341,-0.176038,-0.815055,-0.272443,-0.392882,0.0225783
31,65,-0.654498,-0.814493,-0.174533,-0.174533,-0.646348,-0.804763,-0.148341,-0.176038,-0.815055,-0.272443,-0.392882,0.0225783
31,65,-0.654498,-0.814493,-0.174533,-0.174533,-0.646348,-0.804763,-0.148341,-0.176038,-0.815055,-0.272443,-0.392882,0.0225783
31,65,-0.654498,-0.814493,-0.174533,-0.174533,-0.646348,-0.804763,-0.148341,-0.176038,-0.815055,-0.272443,-0.392882,0.0225783
31,65,-0.654498,-0.814493,-0.174533,-0.174533,-0.646348,-0.804763,-0.148341,-0.176038,-0.815055,-0.272443,-0.392882,0.0225783
31,65,-0.654498,-0.814493,-0.174533,-0.174533,-0.646348,-0.804763,-0.148341,-0.176038,-0.815055,-0.272443,-0.392882,0.0225783
31,65,-0.654498,-0.814493,-0.174533,-0.174533,-0.646348,-0.804763,-0.148341,-0.176038,-0.815055,-0.272443,-0.392882,0.0225783
31,65,-0.654498,-0.814493,-0.174533,-0.174533,-0.646348,-0.804763,-0.148341,-0.176038,-0.815055,-0.272443,-0.392882,0.0225783
31,65,-0.654498,-0.814493,-0.174533,-0.174533,-0.646348,-0.804763,-0.148341,-0.176038,-0.815055,-0.272443,-0.392882,0.0225783
31,65,-0.654498,-0.814493,-0.174533,-0.174533,-0.646348,-0.804763,-0.148341,-0.176038,-0.815055,-0.272443,-0.392882,0.0225783
31,65,-0.654498,-0.814493,-0.174533,-0.174533,-0.646348,-0.804763,-0.148341,-0.176038,-0.815055,-0.272443,-0.392882,0.0225783
31,65,-0.654498,-0.814493,-0.174533,-0.174533,-0.646348,-0.804763,-0.148341,-0.176038,-0.815055,-0.272443,-0.392882,0.0225783
31,65,-0.654498,-0.814493,-0.174533,-0.174533,-0.646348,-0.804763,-0.148341,-0.176038,-0.815055,-0.272443,-0.392882,0.0225783
31,65,-0.654498,-0.814493,-0.174533,-0.174533,-0.646348,-0.804763,-0.148341,-0.176038,-0.815055,-0.272443,-0.392882,0.0225783
31,65,-0.654498,-0.814493,-0.174533,-0.174533,-0.646348,-0.804763,-0.148341,-0.176038,-0.815055,-0.272443,-0.392882,0.0225783
31,65,-0.654498,-0.814493,-0.174533,-0.174533,-0.646348,-0.804763,-0.148341,-0.176038,-0.815055,-0.272443,-0.392882,0.0225783
31,65,-0.654498,-0.814493,-0.174533,-0.174533,-0.646348,-0.804763,-0.148341,-0.176038,-0.815055,-0.272443,-0.392882,0.0225783
31,65,-0.654498,-0.814493,-0.174533,-0.174533,-0.646348,-0.804763,-0.148341,-0.176038,-0.815055,-0.272443,-0.392882,0.0225783
31,65,-0.654498,-0.814493,-0.174533,-0.174533,-0.646348,-0.804763,-0.148341,-0.176038,-0.815055,-0.272443,-0.392882,0.0225783
31,65,-0.654498,-0.814493,-0.174533,-0.174533,-0.646348,-0.804763,-0.148341,-0.176038,-0.815055,-0.272443,-0.392882,0.0225783
31,65,-0.654498,-0.814493,-0.174533,-0.174533,-0.646348,-0.804763,-0.148341,-0.176038,-0.815055,-0.272443,-0.392882,0.0225783
31,65,-0.654498,-0.814493,-0.174533,-0.174533,-0.646348,-0.804763,-0.148341,-0.176038,-0.815055,-0.272443,-0.392882,0.0225783
31,65,-0.654498,-0.814493,-0.174533,-0.174533,-0.646348,-0.804763,-0.148341,-0.176038,-0.815055,-0.272443,-0.392882,0.0225783
31,65,-0.654498,-0.814493,-0.174533,-0.174533,-0.646348,-0.804763,-0.148341,-0.176038,-0.815055,-0.272443,-0.392882,0.0225783
31,65,-0.654498,-0.814493,-0.174533,-0.174533,-0.646348,-0.804763,-0.148341,-0.176038,-0.815055,-0.272443,-0.392882,0.0225783
31,65,-0.654498,-0.814493,-0.174533,-0.174533,-0.646348,-0.804763,-0.148341,-0.176038,-0.815055,-0.272443,-0.392882,0.0225783
31,65,-0.654498,-0.814493,-0.174533,-0.174533,-0.646348,-0.804763,-0.148341,-0.176038,-0.815055,-0.272443,-0.392882,0.0225783
31,65,-0.654498,-0.814493,-0.174533,-0.174533,-0.646348,-0.804763,-0.148341,-0.176038,-0.815055,-0.272443,-0.392882,0.0225783
31,65,-0.654498,-0.814493,-0.174533,-0.174533,-0.646348,-0.804763,-0.148341,-0.176038,-0.815055,-0.272443,-0.392882,0.0225783
31,65,-0.654498,-0.814493,-0.174533,-0.174533,-0.646348,-0.804763,-0.148341,-0.176038,-0.815055,-0.272443,-0.392882,0.0225783
31,65,-0.654498,-0.814493,-0.174533,-0.174533,-0.646348,-0.804763,-0.148341,-0.176038,-0.815055,-0.272443,-0.392882,0.0225783
31,65,-0.654498,-0.814493,-0.174533,-0.174533,-0.646348,-0.804763,-0.148341,-0.176038,-0.815055,-0.272443,-0.392882,0.0225783
31,65,-0.654498,-0.814493,-0.174533,-0.174533,-0.646348,-0.804763,-0.148341,-0.176038,-0.815055,-0.272443,-0.392882,0.0225783
31,65,-0.654498,-0.814493,-0.174533,-0.174533,-0.646348,-0.804763,-0.148341,-0.176038,-0.815055,-0.272443,-0.392882,0.0225783
31,65,-0.654498,-0.814493,-0.174533,-0.174533,-0.646348,-0.804763,-0.148341,-0.176038,-0.815055,-0.272443,-0.392882,0.0225783
31,65,-0.654498,-0.814493,-0.174533,-0.174533,-0.646348,-0.804763,-0.148341,-0.176038,-0.815055,-0.272443,-0.392882,0.0225783
31,65,-0.654498,-0.814493,-0.174533,-0.174533,-0.646348,-0.804763,-0.148341,-0.176038,-0.815055,-0.272443,-0.392882,0.0225783
31,65,-0.654498,-0.814493,-0.174533,-0.174533,-0.646348,-0.804763,-0.148341,-0.176038,-0.815055,-0.272443,-0.392882,0.0225783
31,65,-0.654498,-0.814493,-0.174533,-0.174533,-0.646348,-0.804763,-0.148341,-0.176038,-0.815055,-0.272443,-0.392882,0.0225783
31,65,-0.654498,-0.814493,-0.174533,-0.174533,-0.646348,-0.804763,-0.148341,-0.176038,-0.815055,-0.272443,-0.392882,0.0225783
31,65,-0.654498,-0.814493,-0.174533,-0.174533,-0.646348,-0.804763,-0.148341,-0.176038,-0.815055,-0.272443,-0.392882,0.0225783
31,65,-0.654498,-0.814493,-0.174533,-0.174533,-0.646348,-0.804763,-0.148341,-0.176038,-0.815055,-0.272443,-0.392882,0.0225783
31,65,-0.654498,-0.814493,-0.174533,-0.174533,-0.646348,-0.804763,-0.148341,-0.176038,-0.815055,-0.272443,-0.392882,0.0225783
31,65,-0.654498,-0.814493,-0.174533,-0.174533,-0.646348,-0.804763,-0.148341,-0.176038,-0.815055,-0.272443,-0.392882,0.0225783
31,65,-0.654498,-0.814493,-0.174533,-0.174533,-0.646348,-0.804763,-0.148341,-0.176038,-0.815055,-0.272443,-0.392882,0.0225783
31,65,-0.654498,-0.814493,-0.174533,-0.174533,-0.646348,-0.804763,-0.148341,-0.176038,-0.815055,-0.272443,-0.392882,0.0225783
31,65,-0.654498,-0.814493,-0.174533,-0.174533,-0.646348,-0.804763,-0.148341,-0.176038,-0.815055,-0.272443,-0.392882,0.0225783
31,65,-0.654498,-0.814493,-0.174533,-0.174533,-0.646348,-0.804763,-0.148341,-0.176038,-0.815055,-0.272443,-0.392882,0.0225783
31,65,-0.654498,-0.814493,-0.174533,-0.174533,-0.646348,-0.804763,-0.148341,-0.176038,-0.815055,-0.272443,-0.392882,0.0225783
31,65,-0.654498,-0.814493,-0.174533,-0.174533,-0.646348,-0.804763,-0.148341,-0.176038,-0.815055,-0.272443,-0.392882,0.0225783
31,65,-0.654498,-0.814493,-0.174533,-0.174533,-0.646348,-0.804763,-0.148341,-0.176038,-0.815055,-0.272443,-0.392882,0.0225783
31,65,-0.654498,-0.814493,-0.174533,-0.174533,-0.646348,-0.804763,-0.148341,-0.176038,-0.815055,-0.272443,-0.392882,0.0225783
31,65,-0.654498,-0.814493,-0.174533,-0.174533,-0.646348,-0.804763,-0.148341,-0.176038,-0.815055,-0.272443,-0.392882,0.0225783
31,65,-0.654498,-0.814493,-0.174533,-0.174533,-0.646348,-0.804763,-0.148341,-0.176038,-0.815055,-0.272443,-0.392882,0.0225783
31,65,-0.654498,-0.814493,-0.174533,-0.174533,-0.646348,-0.804763,-0.148341,-0.176038,-0.815055,-0.272443,-0.392882,0.0225783
31,65,-0.654498,-0.814493,-0.174533,-0.174533,-0.646348,-0.804763,-0.148341,-0.176038,-0.815055,-0.272443,-0.392882,0.0225783
31,65,-0.654498,-0.814493,-0.174533,-0.174533,-0.646348,-0.804763,-0.148341,-0.176038,-0.815055,-0.272443,-0.392882,0.0225783
31,65,-0.654498,-0.814493,-0.174533,-0.174533,-0.646348,-0.804763,-0.148341,-0.176038,-0.815055,-0.272443,-0.392882,0.0225783
31,65,-0.654498,-0.814493,-0.174533,-0.174533,-0.646348,-0.804763,-0.148341,-0.176038,-0.815055,-0.272443,-0.392882,0.0225783
31,65,-0.654498,-0.814493,-0.174533,-0.174533,-0.646348,-0.804763,-0.148341,-0.176038,-0.815055,-0.272443,-0.392882,0.0225783
31,65,-0.654498,-0.814493,-0.174533,-0.174533,-0.646348,-0.804763,-0.148341,-0.176038,-0.815055,-0.272443,-0.392882,0.0225783
31,65,-0.654498,-0.814493,-0.174533,-0.174533,-0.646348,-0.804763,-0.148341,-0.176038,-0.815055,-0.272443,-0.392882,0.0225783
31,65,-0.654498,-0.814493,-0.174533,-0.174533,-0.646348,-0.804763,-0.148341,-0.176038,-0.815055,-0.272443,-0.392882,0.0225783
31,65,-0.654498,-0.814493,-0.174533,-0.174533,-0.646348,-0.804763,-0.148341,-0.176038,-0.815055,-0.272443,-0.392882,0.0225783
31,65,-0.654498,-0.814493,-0.174533,-0.174533,-0.646348,-0.804763,-0.148341,-0.176038,-0.815055,-0.272443,-0.392882,0.0225783
31,65,-0.654498,-0.814493,-0.174533,-0.174533,-0.646348,-0.804763,-0.148341,-0.176038,-0.815055,-0.272443,-0.392882,0.0225783
31,65,-0.654498,-0.814493,-0.174533,-0.174533,-0.646348,-0.804763,-0.148341,-0.176038,-0.815055,-0.272443,-0.392882,0.0225783
31,65,-0.654498,-0.814493,-0.174533,-0.174533,-0.646348,-0.804763,-0.148341,-0.176038,-0.815055,-0.272443,-0.392882,0.0225783
31,65,-0.654498,-0.814493,-0.174533,-0.174533,-0.646348,-0.804763,-0.148341,-0.176038,-0.815055,-0.272443,-0.392882,0.0225783
31,65,-0.654498,-0.814493,-0.174533,-0.174533,-0.646348,-0.804763,-0.148341,-0.176038,-0.815055,-0.272443,-0.392882,0.0225783
31,65,-0.654498,-0.814493,-0.174533,-0.174533,-0.646348,-0.804763,-0.148341,-0.176038,-0.815055,-0.272443,-0.392882,0.0225783
31,65,-0.654498,-0.814493,-0.174533,-0.174533,-0.646348,-0.804763,-0.148341,-0.176038,-0.815055,-0.272443,-0.392882,0.0225783
31,65,-0.654498,-0.814493,-0.174533,-0.174533,-0.646348,-0.804763,-0.148341,-0.176038,-0.815055,-0.272443,-0.392882,0.0225783
31,65,-0.654498,-0.814493,-0.174533,-0.174533,-0.646348,-0.804763,-0.148341,-0.176038,-0.815055,-0.272443,-0.392882,0.0225783
31,65,-0.654498,-0.814493,-0.174533,-0.174533,-0.646348,-0.804763,-0.148341,-0.176038,-0.815055,-0.272443,-0.392882,0.0225783
31,65,-0.654498,-0.814493,-0.174533,-0.174533,-0.646348,-0.804763,-0.148341,-0.176038,-0.815055,-0.272443,-0.392882,0.0225783
31,65,-0.654498,-0.814493,-0.174533,-0.174533,-0.646348,-0.804763,-0.148341,-0.176038,-0.815055,-0.272443,-0.392882,0.0225783
31,65,-0.654498,-0.814493,-0.174533,-0.174533,-0.646348,-0.804763,-0.148341,-0.176038,-0.815055,-0.272443,-0.392882,0.0225783
31,65,-0.654498,-0.814493,-0.174533,-0.174533,-0.646348,-0.804763,-0.148341,-0.176038,-0.815055,-0.272443,-0.392882,0.0225783
31,65,-0.654498,-0.814493,-0.174533,-0.174533,-0.646348,-0.804763,-0.148341,-0.176038,-0.815055,-0.272443,-0.392882,0.0225783
31,65,-0.654498,-0.814493,-0.174533,-0.174533,-0.646348,-0.804763,-0.148341,-0.176038,-0.815055,-0.272443,-0.392882,0.0225783
31,65,-0.654498,-0.814493,-0.174533,-0.174533,-0.646348,-0.804763,-0.148341,-0.176038,-0.815055,-0.272443,-0.392882,0.0225783
31,65,-0.654498,-0.814493,-0.174533,-0.174533,-0.646348,-0.804763,-0.148341,-0.176038,-0.815055,-0.272443,-0.392882,0.0225783
31,65,-0.654498,-0.814493,-0.174533,-0.174533,-0.646348,-0.804763,-0.148341,-0.176038,-0.815055,-0.272443,-0.392882,0.0225783
31,65,-0.654498,-0.814493,-0.174533,-0.174533,-0.646348,-0.804763,-0.148341,-0.176038,-0.815055,-0.272443,-0.392882,0.0225783
31,65,-0.654498,-0.814493,-0.174533,-0.174533,-0.646348,-0.804763,-0.148341,-0.176038,-0.815055,-0.272443,-0.392882,0.0225783
31,65,-0.654498,-0.814493,-0.174533,-0.174533,-0.646348,-0.804763,-0.148341,-0.176038,-0.815055,-0.272443,-0.392882,0.0225783
31,65,-0.654498,-0.814493,-0.174533,-0.174533,-0.646348,-0.804763,-0.148341,-0.176038,-0.815055,-0.272443,-0.392882,0.0225783
31,65,-0.654498,-0.814493,-0.174533,-0.174533,-0.646348,-0.804763,-0.148341,-0.176038,-0.815055,-0.272443,-0.392882,0.0225783
31,65,-0.654498,-0.814493,-0.174533,-0.174533,-0.646348,-0.804763,-0.148341,-0.176038,-0.815055,-0.272443,-0.392882,0.0225783
31,65,-0.654498,-0.814493,-0.174533,-0.174533,-0.646348,-0.804763,-0.148341,-0.176038,-0.815055,-0.272443,-0.392882,0.0225783
31,65,-0.654498,-0.814493,-0.174533,-0.174533,-0.646348,-0.804763,-0.148341,-0.176038,-0.815055,-0.272443,-0.392882,0.0225783
31,65,-0.654498,-0.814493,-0.174533,-0.174533,-0.646348,-0.804763,-0.148341,-0.176038,-0.815055,-0.272443,-0.392882,0.0225783
31,65,-0.654498,-0.814493,-0.174533,-0.174533,-0.646348,-0.804763,-0.148341,-0.176038,-0.815055,-0.272443,-0.392882,0.0225783
31,65,-0.654498,-0.814493,-0.174533,-0.174533,-0.646348,-0.804763,-0.148341,-0.176038,-0.815055,-0.272443,-0.392882,0.0225783
31,65,-0.654498,-0.814493,-0.174533,-0.174533,-0.646348,-0.804763,-0.148341,-0.176038,-0.815055,-0.272443,-0.392882,0.0225783
31,65,-0.654498,-0.814493,-0.174533,-0.174533,-0.646348,-0.804763,-0.148341,-0.176038,-0.815055,-0.272443,-0.392882,0.0225783
31,65,-0.654498,-0.814493,-0.174533,-0.174533,-0.646348,-0.804763,-0.148341,-0.176038,-0.815055,-0.272443,-0.392882,0.0225783
31,65,-0.654498,-0.814493,-0.174533,-0.174533,-0.646348,-0.804763,-0.148341,-0.176038,-0.815055,-0.272443,-0.392882,0.0225783
31,65,-0.654498,-0.814493,-0.174533,-0.174533,-0.646348,-0.804763,-0.148341,-0.176038,-0.815055,-0.272443,-0.392882,0.0225783
31,65,-0.654498,-0.814493,-0.174533,-0.174533,-0.646348,-0.804763,-0.148341,-0.176038,-0.815055,-0.272443,-0.392882,0.0225783
