stim_pw [us],stim_amp [mA],com_elbow_fe [rad],com_forearm_ps [rad],com_wrist_fe [rad],com_wrist_ru [rad],act_elbow_fe [rad],act_forearm_ps [rad],act_wrist_fe [rad],act_wrist_ru [rad],elbow_fe_trq [Nm],forearm_ps_trq [Nm],wrist_fe_trq [Nm],wrist_ru_trq [Nm]
31,65,-0.654498,-0.814493,-0.174533,-0.174533,-0.652003,-0.800238,-0.154153,-0.170715,-0.249528,-0.399139,-0.305695,-0.0572717
31,65,-0.654498,-0.814493,-0.174533,-0.174533,-0.652003,-0.800238,-0.154153,-0.170715,-0.249528,-0.399139,-0.305695,-0.0572717
31,65,-0.654498,-0.814493,-0.174533,-0.174533,-0.652003,-0.800238,-0.154153,-0.170715,-0.249528,-0.399139,-0.305695,-0.0572717
31,65,-0.654498,-0.814493,-0.174533,-0.174533,-0.652003,-0.800238,-0.154153,-0.170715,-0.249528,-0.399139,-0.305695,-0.0572717
31,65,-0.654498,-0.814493,-0.174533,-0.174533,-0.652003,-0.800238,-0.154153,-0.170715,-0.249528,-0.399139,-0.305695,-0.0572717
31,65,-0.654498,-0.814493,-0.174533,-0.174533,-0.652003,-0.800238,-0.154153,-0.170715,-0.249528,-0.399139,-0.305695,-0.0572717
31,65,-0.654498,-0.814493,-0.174533,-0.174533,-0.652003,-0.800238,-0.154153,-0.170715,-0.249528,-0.399139,-0.305695,-0.0572717
31,65,-0.654498,-0.814493,-0.174533,-0.174533,-0.652003,-0.800238,-0.154153,-0.170715,-0.249528,-0.399139,-0.305695,-0.0572717
31,65,-0.654498,-0.814493,-0.174533,-0.174533,-0.652003,-0.800238,-0.154153,-0.170715,-0.249528,-0.399139,-0.305695,-0.0572717
31,65,-0.654498,-0.814493,-0.174533,-0.174533,-0.652003,-0.800238,-0.154153,-0.170715,-0.249528,-0.399139,-0.305695,-0.0572717
31,65,-0.654498,-0.814493,-0.174533,-0.174533,-0.652003,-0.800238,-0.154153,-0.170715,-0.249528,-0.399139,-0.305695,-0.0572717
31,65,-0.654498,-0.814493,-0.174533,-0.174533,-0.652003,-0.800238,-0.154151,-0.170655,-0.249528,-0.399139,-0.305725,-0.0581659
31,65,-0.654498,-0.814493,-0.174533,-0.174533,-0.652003,-0.800238,-0.154151,-0.170655,-0.249528,-0.399139,-0.305725,-0.0581659
31,65,-0.654498,-0.814493,-0.174533,-0.174533,-0.652003,-0.800238,-0.154151,-0.170655,-0.249528,-0.399139,-0.305725,-0.0581659
31,65,-0.654498,-0.814493,-0.174533,-0.174533,-0.652003,-0.800238,-0.154151,-0.170655,-0.249528,-0.399139,-0.305725,-0.0581659
31,65,-0.654498,-0.814493,-0.174533,-0.174533,-0.652003,-0.800238,-0.154151,-0.170655,-0.249528,-0.399139,-0.305725,-0.0581659
31,65,-0.654498,-0.814493,-0.174533,-0.174533,-0.652003,-0.800238,-0.154151,-0.170655,-0.249528,-0.399139,-0.305725,-0.0581659
31,65,-0.654498,-0.814493,-0.174533,-0.174533,-0.652003,-0.800238,-0.154151,-0.170655,-0.249528,-0.399139,-0.305725,-0.0581659
31,65,-0.654498,-0.814493,-0.174533,-0.174533,-0.652003,-0.800238,-0.154151,-0.170655,-0.249528,-0.399139,-0.305725,-0.0581659
31,65,-0.654498,-0.814493,-0.174533,-0.174533,-0.652003,-0.800238,-0.154151,-0.170655,-0.249528,-0.399139,-0.305725,-0.0581659
31,65,-0.654498,-0.814493,-0.174533,-0.174533,-0.652003,-0.800238,-0.154151,-0.170655,-0.249528,-0.399139,-0.305725,-0.0581659
31,65,-0.654498,-0.814493,-0.174533,-0.174533,-0.652003,-0.800238,-0.154151,-0.170655,-0.249528,-0.399139,-0.305725,-0.0581659
31,65,-0.654498,-0.814493,-0.174533,-0.174533,-0.652003,-0.800238,-0.154151,-0.170655,-0.249528,-0.399139,-0.305725,-0.0581659
31,65,-0.654498,-0.814493,-0.174533,-0.174533,-0.652003,-0.800238,-0.154151,-0.170655,-0.249528,-0.399139,-0.305725,-0.0581659
31,65,-0.654498,-0.814493,-0.174533,-0.174533,-0.652003,-0.800238,-0.154151,-0.170655,-0.249528,-0.399139,-0.305725,-0.0581659
31,65,-0.654498,-0.814493,-0.174533,-0.174533,-0.652003,-0.800238,-0.154151,-0.170655,-0.249528,-0.399139,-0.305725,-0.0581659
31,65,-0.654498,-0.814493,-0.174533,-0.174533,-0.652003,-0.800238,-0.154151,-0.170655,-0.249528,-0.399139,-0.305725,-0.0581659
31,65,-0.654498,-0.814493,-0.174533,-0.174533,-0.652003,-0.800238,-0.154151,-0.170655,-0.249528,-0.399139,-0.305725,-0.0581659
31,65,-0.654498,-0.814493,-0.174533,-0.174533,-0.652003,-0.800238,-0.154151,-0.170655,-0.249528,-0.399139,-0.305725,-0.0581659
31,65,-0.654498,-0.814493,-0.174533,-0.174533,-0.652003,-0.800238,-0.154151,-0.170655,-0.249528,-0.399139,-0.305725,-0.0581659
31,65,-0.654498,-0.814493,-0.174533,-0.174533,-0.652003,-0.800238,-0.154151,-0.170655,-0.249528,-0.399139,-0.305725,-0.0581659
31,65,-0.654498,-0.814493,-0.174533,-0.174533,-0.652003,-0.800238,-0.154151,-0.170655,-0.249528,-0.399139,-0.305725,-0.0581659
31,65,-0.654498,-0.814493,-0.174533,-0.174533,-0.652003,-0.800238,-0.154151,-0.170655,-0.249528,-0.399139,-0.305725,-0.0581659
31,65,-0.654498,-0.814493,-0.174533,-0.174533,-0.652003,-0.800238,-0.154151,-0.170655,-0.249528,-0.399139,-0.305725,-0.0581659
31,65,-0.654498,-0.814493,-0.174533,-0.174533,-0.652003,-0.800238,-0.154151,-0.170655,-0.249528,-0.399139,-0.305725,-0.0581659
31,65,-0.654498,-0.814493,-0.174533,-0.174533,-0.652003,-0.800238,-0.154151,-0.170655,-0.249528,-0.399139,-0.305725,-0.0581659
31,65,-0.654498,-0.814493,-0.174533,-0.174533,-0.652003,-0.800238,-0.154151,-0.170655,-0.249528,-0.399139,-0.305725,-0.0581659
31,65,-0.654498,-0.814493,-0.174533,-0.174533,-0.652003,-0.800238,-0.154151,-0.170655,-0.249528,-0.399139,-0.305725,-0.0581659
31,65,-0.654498,-0.814493,-0.174533,-0.174533,-0.652003,-0.800238,-0.154151,-0.170655,-0.249528,-0.399139,-0.305725,-0.0581659
31,65,-0.654498,-0.814493,-0.174533,-0.174533,-0.652003,-0.800238,-0.154151,-0.170655,-0.249528,-0.399139,-0.305725,-0.0581659
31,65,-0.654498,-0.814493,-0.174533,-0.174533,-0.652003,-0.800238,-0.154151,-0.170655,-0.249528,-0.399139,-0.305725,-0.0581659
31,65,-0.654498,-0.814493,-0.174533,-0.174533,-0.652003,-0.800238,-0.154151,-0.170655,-0.249528,-0.399139,-0.305725,-0.0581659
31,65,-0.654498,-0.814493,-0.174533,-0.174533,-0.652003,-0.800238,-0.154151,-0.170655,-0.249528,-0.399139,-0.305725,-0.0581659
31,65,-0.654498,-0.814493,-0.174533,-0.174533,-0.652003,-0.800238,-0.154151,-0.170655,-0.249528,-0.399139,-0.305725,-0.0581659
31,65,-0.654498,-0.814493,-0.174533,-0.174533,-0.652003,-0.800238,-0.154151,-0.170655,-0.249528,-0.399139,-0.305725,-0.0581659
31,65,-0.654498,-0.814493,-0.174533,-0.174533,-0.652003,-0.800238,-0.154151,-0.170655,-0.249528,-0.399139,-0.305725,-0.0581659
31,65,-0.654498,-0.814493,-0.174533,-0.174533,-0.652003,-0.800238,-0.154151,-0.170655,-0.249528,-0.399139,-0.305725,-0.0581659
31,65,-0.654498,-0.814493,-0.174533,-0.174533,-0.652003,-0.800238,-0.154151,-0.170655,-0.249528,-0.399139,-0.305725,-0.0581659
31,65,-0.654498,-0.814493,-0.174533,-0.174533,-0.652003,-0.800238,-0.154151,-0.170655,-0.249528,-0.399139,-0.305725,-0.0581659
31,65,-0.654498,-0.814493,-0.174533,-0.174533,-0.652003,-0.800238,-0.154151,-0.170655,-0.249528,-0.399139,-0.305725,-0.0581659
31,65,-0.654498,-0.814493,-0.174533,-0.174533,-0.652003,-0.800238,-0.154151,-0.170655,-0.249528,-0.399139,-0.305725,-0.0581659
31,65,-0.654498,-0.814493,-0.174533,-0.174533,-0.652003,-0.800238,-0.154151,-0.170655,-0.249528,-0.399139,-0.305725,-0.0581659
31,65,-0.654498,-0.814493,-0.174533,-0.174533,-0.652003,-0.800238,-0.154151,-0.170655,-0.249528,-0.399139,-0.305725,-0.0581659
31,65,-0.654498,-0.814493,-0.174533,-0.174533,-0.652003,-0.800238,-0.154151,-0.170655,-0.249528,-0.399139,-0.305725,-0.0581659
31,65,-0.654498,-0.814493,-0.174533,-0.174533,-0.652003,-0.800238,-0.154151,-0.170655,-0.249528,-0.399139,-0.305725,-0.0581659
31,65,-0.654498,-0.814493,-0.174533,-0.174533,-0.652003,-0.800238,-0.154151,-0.170655,-0.249528,-0.399139,-0.305725,-0.0581659
31,65,-0.654498,-0.814493,-0.174533,-0.174533,-0.652003,-0.800238,-0.154151,-0.170655,-0.249528,-0.399139,-0.305725,-0.0581659
31,65,-0.654498,-0.814493,-0.174533,-0.174533,-0.652003,-0.800238,-0.154151,-0.170655,-0.249528,-0.399139,-0.305725,-0.0581659
31,65,-0.654498,-0.814493,-0.174533,-0.174533,-0.652003,-0.800238,-0.154151,-0.170655,-0.249528,-0.399139,-0.305725,-0.0581659
31,65,-0.654498,-0.814493,-0.174533,-0.174533,-0.652003,-0.800238,-0.154151,-0.170655,-0.249528,-0.399139,-0.305725,-0.0581659
31,65,-0.654498,-0.814493,-0.174533,-0.174533,-0.652003,-0.800238,-0.154151,-0.170655,-0.249528,-0.399139,-0.305725,-0.0581659
31,65,-0.654498,-0.814493,-0.174533,-0.174533,-0.652003,-0.800238,-0.154151,-0.170655,-0.249528,-0.399139,-0.305725,-0.0581659
31,65,-0.654498,-0.814493,-0.174533,-0.174533,-0.652003,-0.800238,-0.154151,-0.170655,-0.249528,-0.399139,-0.305725,-0.0581659
31,65,-0.654498,-0.814493,-0.174533,-0.174533,-0.652003,-0.800238,-0.154151,-0.170655,-0.249528,-0.399139,-0.305725,-0.0581659
31,65,-0.654498,-0.814493,-0.174533,-0.174533,-0.652003,-0.800238,-0.154151,-0.170655,-0.249528,-0.399139,-0.305725,-0.0581659
31,65,-0.654498,-0.814493,-0.174533,-0.174533,-0.652003,-0.800238,-0.154151,-0.170655,-0.249528,-0.399139,-0.305725,-0.0581659
31,65,-0.654498,-0.814493,-0.174533,-0.174533,-0.652003,-0.800238,-0.154151,-0.170655,-0.249528,-0.399139,-0.305725,-0.0581659
31,65,-0.654498,-0.814493,-0.174533,-0.174533,-0.652003,-0.800238,-0.154151,-0.170655,-0.249528,-0.399139,-0.305725,-0.0581659
31,65,-0.654498,-0.814493,-0.174533,-0.174533,-0.652003,-0.800238,-0.154151,-0.170655,-0.249528,-0.399139,-0.305725,-0.0581659
31,65,-0.654498,-0.814493,-0.174533,-0.174533,-0.652003,-0.800238,-0.154151,-0.170655,-0.249528,-0.399139,-0.305725,-0.0581659
31,65,-0.654498,-0.814493,-0.174533,-0.174533,-0.652003,-0.800238,-0.154151,-0.170655,-0.249528,-0.399139,-0.305725,-0.0581659
31,65,-0.654498,-0.814493,-0.174533,-0.174533,-0.652003,-0.800238,-0.154151,-0.170655,-0.249528,-0.399139,-0.305725,-0.0581659
31,65,-0.654498,-0.814493,-0.174533,-0.174533,-0.652003,-0.800238,-0.154151,-0.170655,-0.249528,-0.399139,-0.305725,-0.0581659
31,65,-0.654498,-0.814493,-0.174533,-0.174533,-0.652003,-0.800238,-0.154151,-0.170655,-0.249528,-0.399139,-0.305725,-0.0581659
31,65,-0.654498,-0.814493,-0.174533,-0.174533,-0.652003,-0.800238,-0.154151,-0.170655,-0.249528,-0.399139,-0.305725,-0.0581659
31,65,-0.654498,-0.814493,-0.174533,-0.174533,-0.652003,-0.800238,-0.154151,-0.170655,-0.249528,-0.399139,-0.305725,-0.0581659
31,65,-0.654498,-0.814493,-0.174533,-0.174533,-0.652003,-0.800238,-0.154151,-0.170655,-0.249528,-0.399139,-0.305725,-0.0581659
31,65,-0.654498,-0.814493,-0.174533,-0.174533,-0.652003,-0.800238,-0.154151,-0.170655,-0.249528,-0.399139,-0.305725,-0.0581659
31,65,-0.654498,-0.814493,-0.174533,-0.174533,-0.652003,-0.800238,-0.154151,-0.170655,-0.249528,-0.399139,-0.305725,-0.0581659
31,65,-0.654498,-0.814493,-0.174533,-0.174533,-0.652003,-0.800238,-0.154151,-0.170655,-0.249528,-0.399139,-0.305725,-0.0581659
31,65,-0.654498,-0.814493,-0.174533,-0.174533,-0.652003,-0.800238,-0.154151,-0.170655,-0.249528,-0.399139,-0.305725,-0.0581659
31,65,-0.654498,-0.814493,-0.174533,-0.174533,-0.652003,-0.800238,-0.154151,-0.170655,-0.249528,-0.399139,-0.305725,-0.0581659
31,65,-0.654498,-0.814493,-0.174533,-0.174533,-0.652003,-0.800238,-0.154151,-0.170655,-0.249528,-0.399139,-0.305725,-0.0581659
31,65,-0.654498,-0.814493,-0.174533,-0.174533,-0.652003,-0.800238,-0.154151,-0.170655,-0.249528,-0.399139,-0.305725,-0.0581659
31,65,-0.654498,-0.814493,-0.174533,-0.174533,-0.652003,-0.800238,-0.154151,-0.170655,-0.249528,-0.399139,-0.305725,-0.0581659
31,65,-0.654498,-0.814493,-0.174533,-0.174533,-0.652003,-0.800238,-0.154151,-0.170655,-0.249528,-0.399139,-0.305725,-0.0581659
31,65,-0.654498,-0.814493,-0.174533,-0.174533,-0.652003,-0.800238,-0.154151,-0.170655,-0.249528,-0.399139,-0.305725,-0.0581659
31,65,-0.654498,-0.814493,-0.174533,-0.174533,-0.652003,-0.800238,-0.154151,-0.170655,-0.249528,-0.399139,-0.305725,-0.0581659
31,65,-0.654498,-0.814493,-0.174533,-0.174533,-0.652003,-0.800238,-0.154151,-0.170655,-0.249528,-0.399139,-0.305725,-0.0581659
31,65,-0.654498,-0.814493,-0.174533,-0.174533,-0.652003,-0.800238,-0.154151,-0.170655,-0.249528,-0.399139,-0.305725,-0.0581659
31,65,-0.654498,-0.814493,-0.174533,-0.174533,-0.652003,-0.800238,-0.154151,-0.170655,-0.249528,-0.399139,-0.305725,-0.0581659
31,65,-0.654498,-0.814493,-0.174533,-0.174533,-0.652003,-0.800238,-0.154151,-0.170655,-0.249528,-0.399139,-0.305725,-0.0581659
31,65,-0.654498,-0.814493,-0.174533,-0.174533,-0.652003,-0.800238,-0.154151,-0.170655,-0.249528,-0.399139,-0.305725,-0.0581659
31,65,-0.654498,-0.814493,-0.174533,-0.174533,-0.652003,-0.800238,-0.154151,-0.170655,-0.249528,-0.399139,-0.305725,-0.0581659
31,65,-0.654498,-0.814493,-0.174533,-0.174533,-0.652003,-0.800238,-0.154151,-0.170655,-0.249528,-0.399139,-0.305725,-0.0581659
31,65,-0.654498,-0.814493,-0.174533,-0.174533,-0.652003,-0.800238,-0.154151,-0.170655,-0.249528,-0.399139,-0.305725,-0.0581659
31,65,-0.654498,-0.814493,-0.174533,-0.174533,-0.652003,-0.800238,-0.154151,-0.170655,-0.249528,-0.399139,-0.305725,-0.0581659
31,65,-0.654498,-0.814493,-0.174533,-0.174533,-0.652003,-0.800238,-0.154151,-0.170655,-0.249528,-0.399139,-0.305725,-0.0581659
31,65,-0.654498,-0.814493,-0.174533,-0.174533,-0.652003,-0.800238,-0.154151,-0.170655,-0.249528,-0.399139,-0.305725,-0.0581659
31,65,-0.654498,-0.814493,-0.174533,-0.174533,-0.652003,-0.800238,-0.154151,-0.170655,-0.249528,-0.399139,-0.305725,-0.0581659
31,65,-0.654498,-0.814493,-0.174533,-0.174533,-0.652003,-0.800238,-0.154151,-0.170655,-0.249528,-0.399139,-0.305725,-0.0581659
31,65,-0.654498,-0.814493,-0.174533,-0.174533,-0.652003,-0.800238,-0.154151,-0.170655,-0.249528,-0.399139,-0.305725,-0.0581659
31,65,-0.654498,-0.814493,-0.174533,-0.174533,-0.652003,-0.800238,-0.154151,-0.170655,-0.249528,-0.399139,-0.305725,-0.0581659
31,65,-0.654498,-0.814493,-0.174533,-0.174533,-0.652003,-0.800238,-0.154151,-0.170655,-0.249528,-0.399139,-0.305725,-0.0581659
31,65,-0.654498,-0.814493,-0.174533,-0.174533,-0.652003,-0.800238,-0.154151,-0.170655,-0.249528,-0.399139,-0.305725,-0.0581659
31,65,-0.654498,-0.814493,-0.174533,-0.174533,-0.652003,-0.800238,-0.154151,-0.170655,-0.249528,-0.399139,-0.305725,-0.0581659
31,65,-0.654498,-0.814493,-0.174533,-0.174533,-0.652003,-0.800238,-0.154151,-0.170655,-0.249528,-0.399139,-0.305725,-0.0581659
31,65,-0.654498,-0.814493,-0.174533,-0.174533,-0.652003,-0.800238,-0.154151,-0.170655,-0.249528,-0.399139,-0.305725,-0.0581659
31,65,-0.654498,-0.814493,-0.174533,-0.174533,-0.652003,-0.800238,-0.154151,-0.170655,-0.249528,-0.399139,-0.305725,-0.0581659
31,65,-0.654498,-0.814493,-0.174533,-0.174533,-0.652003,-0.800238,-0.154151,-0.170655,-0.249528,-0.399139,-0.305725,-0.0581659
31,65,-0.654498,-0.814493,-0.174533,-0.174533,-0.652003,-0.800238,-0.154151,-0.170655,-0.249528,-0.399139,-0.305725,-0.0581659
31,65,-0.654498,-0.814493,-0.174533,-0.174533,-0.652003,-0.800238,-0.154151,-0.170655,-0.249528,-0.399139,-0.305725,-0.0581659
31,65,-0.654498,-0.814493,-0.174533,-0.174533,-0.652003,-0.800238,-0.154151,-0.170655,-0.249528,-0.399139,-0.305725,-0.0581659
31,65,-0.654498,-0.814493,-0.174533,-0.174533,-0.652003,-0.800238,-0.154151,-0.170655,-0.249528,-0.399139,-0.305725,-0.0581659
31,65,-0.654498,-0.814493,-0.174533,-0.174533,-0.652003,-0.800238,-0.154151,-0.170655,-0.249528,-0.399139,-0.305725,-0.0581659
31,65,-0.654498,-0.814493,-0.174533,-0.174533,-0.652003,-0.800238,-0.154151,-0.170655,-0.249528,-0.399139,-0.305725,-0.0581659
31,65,-0.654498,-0.814493,-0.174533,-0.174533,-0.652003,-0.800238,-0.154149,-0.170596,-0.249528,-0.399139,-0.305755,-0.0590601
31,65,-0.654498,-0.814493,-0.174533,-0.174533,-0.652003,-0.800238,-0.154149,-0.170596,-0.249528,-0.399139,-0.305755,-0.0590601
31,65,-0.654498,-0.814493,-0.174533,-0.174533,-0.652003,-0.800238,-0.154149,-0.170596,-0.249528,-0.399139,-0.305755,-0.0590601
31,65,-0.654498,-0.814493,-0.174533,-0.174533,-0.652003,-0.800238,-0.154149,-0.170596,-0.249528,-0.399139,-0.305755,-0.0590601
31,65,-0.654498,-0.814493,-0.174533,-0.174533,-0.652003,-0.800238,-0.154149,-0.170596,-0.249528,-0.399139,-0.305755,-0.0590601
31,65,-0.654498,-0.814493,-0.174533,-0.174533,-0.652003,-0.800238,-0.154149,-0.170596,-0.249528,-0.399139,-0.305755,-0.0590601
31,65,-0.654498,-0.814493,-0.174533,-0.174533,-0.652003,-0.800238,-0.154149,-0.170596,-0.249528,-0.399139,-0.305755,-0.0590601
31,65,-0.654498,-0.814493,-0.174533,-0.174533,-0.652003,-0.800238,-0.154149,-0.170596,-0.249528,-0.399139,-0.305755,-0.0590601
31,65,-0.654498,-0.814493,-0.174533,-0.174533,-0.652003,-0.800238,-0.154149,-0.170596,-0.249528,-0.399139,-0.305755,-0.0590601
31,65,-0.654498,-0.814493,-0.174533,-0.174533,-0.652003,-0.800238,-0.154149,-0.170596,-0.249528,-0.399139,-0.305755,-0.0590601
31,65,-0.654498,-0.814493,-0.174533,-0.174533,-0.652003,-0.800238,-0.154149,-0.170596,-0.249528,-0.399139,-0.305755,-0.0590601
31,65,-0.654498,-0.814493,-0.174533,-0.174533,-0.652003,-0.800238,-0.154149,-0.170596,-0.249528,-0.399139,-0.305755,-0.0590601
31,65,-0.654498,-0.814493,-0.174533,-0.174533,-0.652003,-0.800238,-0.154149,-0.170596,-0.249528,-0.399139,-0.305755,-0.0590601
31,65,-0.654498,-0.814493,-0.174533,-0.174533,-0.652003,-0.800238,-0.154149,-0.170596,-0.249528,-0.399139,-0.305755,-0.0590601
31,65,-0.654498,-0.814493,-0.174533,-0.174533,-0.652003,-0.800238,-0.154149,-0.170596,-0.249528,-0.399139,-0.305755,-0.0590601
31,65,-0.654498,-0.814493,-0.174533,-0.174533,-0.652003,-0.800238,-0.154149,-0.170596,-0.249528,-0.399139,-0.305755,-0.0590601
31,65,-0.654498,-0.814493,-0.174533,-0.174533,-0.652003,-0.800238,-0.154149,-0.170596,-0.249528,-0.399139,-0.305755,-0.0590601
31,65,-0.654498,-0.814493,-0.174533,-0.174533,-0.652003,-0.800238,-0.154149,-0.170596,-0.249528,-0.399139,-0.305755,-0.0590601
31,65,-0.654498,-0.814493,-0.174533,-0.174533,-0.652003,-0.800238,-0.154149,-0.170596,-0.249528,-0.399139,-0.305755,-0.0590601
31,65,-0.654498,-0.814493,-0.174533,-0.174533,-0.652003,-0.800238,-0.154149,-0.170596,-0.249528,-0.399139,-0.305755,-0.0590601
31,65,-0.654498,-0.814493,-0.174533,-0.174533,-0.652003,-0.800238,-0.154149,-0.170596,-0.249528,-0.399139,-0.305755,-0.0590601
31,65,-0.654498,-0.814493,-0.174533,-0.174533,-0.652003,-0.800238,-0.154149,-0.170596,-0.249528,-0.399139,-0.305755,-0.0590601
31,65,-0.654498,-0.814493,-0.174533,-0.174533,-0.652003,-0.800238,-0.154149,-0.170596,-0.249528,-0.399139,-0.305755,-0.0590601
31,65,-0.654498,-0.814493,-0.174533,-0.174533,-0.652003,-0.800238,-0.154149,-0.170596,-0.249528,-0.399139,-0.305755,-0.0590601
31,65,-0.654498,-0.814493,-0.174533,-0.174533,-0.652003,-0.800238,-0.154149,-0.170596,-0.249528,-0.399139,-0.305755,-0.0590601
31,65,-0.654498,-0.814493,-0.174533,-0.174533,-0.652003,-0.800238,-0.154149,-0.170596,-0.249528,-0.399139,-0.305755,-0.0590601
31,65,-0.654498,-0.814493,-0.174533,-0.174533,-0.652003,-0.800238,-0.154149,-0.170596,-0.249528,-0.399139,-0.305755,-0.0590601
31,65,-0.654498,-0.814493,-0.174533,-0.174533,-0.652003,-0.800238,-0.154149,-0.170596,-0.249528,-0.399139,-0.305755,-0.0590601
31,65,-0.654498,-0.814493,-0.174533,-0.174533,-0.652003,-0.800238,-0.154149,-0.170596,-0.249528,-0.399139,-0.305755,-0.0590601
31,65,-0.654498,-0.814493,-0.174533,-0.174533,-0.652003,-0.800238,-0.154149,-0.170596,-0.249528,-0.399139,-0.305755,-0.0590601
31,65,-0.654498,-0.814493,-0.174533,-0.174533,-0.652003,-0.800238,-0.154149,-0.170596,-0.249528,-0.399139,-0.305755,-0.0590601
31,65,-0.654498,-0.814493,-0.174533,-0.174533,-0.652003,-0.800238,-0.154149,-0.170596,-0.249528,-0.399139,-0.305755,-0.0590601
31,65,-0.654498,-0.814493,-0.174533,-0.174533,-0.652003,-0.800238,-0.154149,-0.170596,-0.249528,-0.399139,-0.305755,-0.0590601
31,65,-0.654498,-0.814493,-0.174533,-0.174533,-0.652003,-0.800238,-0.154149,-0.170596,-0.249528,-0.399139,-0.305755,-0.0590601
31,65,-0.654498,-0.814493,-0.174533,-0.174533,-0.652003,-0.800238,-0.154149,-0.170596,-0.249528,-0.399139,-0.305755,-0.0590601
31,65,-0.654498,-0.814493,-0.174533,-0.174533,-0.652003,-0.800238,-0.154149,-0.170596,-0.249528,-0.399139,-0.305755,-0.0590601
31,65,-0.654498,-0.814493,-0.174533,-0.174533,-0.652003,-0.800238,-0.154149,-0.170596,-0.249528,-0.399139,-0.305755,-0.0590601
31,65,-0.654498,-0.814493,-0.174533,-0.174533,-0.652003,-0.800238,-0.154149,-0.170596,-0.249528,-0.399139,-0.305755,-0.0590601
31,65,-0.654498,-0.814493,-0.174533,-0.174533,-0.652003,-0.800238,-0.154149,-0.170596,-0.249528,-0.399139,-0.305755,-0.0590601
31,65,-0.654498,-0.814493,-0.174533,-0.174533,-0.652003,-0.800238,-0.154149,-0.170596,-0.249528,-0.399139,-0.305755,-0.0590601
31,65,-0.654498,-0.814493,-0.174533,-0.174533,-0.652003,-0.800238,-0.154149,-0.170596,-0.249528,-0.399139,-0.305755,-0.0590601
31,65,-0.654498,-0.814493,-0.174533,-0.174533,-0.652003,-0.800238,-0.154149,-0.170596,-0.249528,-0.399139,-0.305755,-0.0590601
31,65,-0.654498,-0.814493,-0.174533,-0.174533,-0.652003,-0.800238,-0.154149,-0.170596,-0.249528,-0.399139,-0.305755,-0.0590601
31,65,-0.654498,-0.814493,-0.174533,-0.174533,-0.652003,-0.800238,-0.154149,-0.170596,-0.249528,-0.399139,-0.305755,-0.0590601
31,65,-0.654498,-0.814493,-0.174533,-0.174533,-0.652003,-0.800238,-0.154149,-0.170596,-0.249528,-0.399139,-0.305755,-0.0590601
31,65,-0.654498,-0.814493,-0.174533,-0.174533,-0.652003,-0.800238,-0.154149,-0.170596,-0.249528,-0.399139,-0.305755,-0.0590601
31,65,-0.654498,-0.814493,-0.174533,-0.174533,-0.652003,-0.800238,-0.154149,-0.170596,-0.249528,-0.399139,-0.305755,-0.0590601
31,65,-0.654498,-0.814493,-0.174533,-0.174533,-0.652003,-0.800238,-0.154149,-0.170596,-0.249528,-0.399139,-0.305755,-0.0590601
31,65,-0.654498,-0.814493,-0.174533,-0.174533,-0.652003,-0.800238,-0.154149,-0.170596,-0.249528,-0.399139,-0.305755,-0.0590601
31,65,-0.654498,-0.814493,-0.174533,-0.174533,-0.652003,-0.800238,-0.154149,-0.170596,-0.249528,-0.399139,-0.305755,-0.0590601
31,65,-0.654498,-0.814493,-0.174533,-0.174533,-0.652003,-0.800238,-0.154149,-0.170596,-0.249528,-0.399139,-0.305755,-0.0590601
31,65,-0.654498,-0.814493,-0.174533,-0.174533,-0.652003,-0.800238,-0.154149,-0.170596,-0.249528,-0.399139,-0.305755,-0.0590601
31,65,-0.654498,-0.814493,-0.174533,-0.174533,-0.652003,-0.800238,-0.154149,-0.170596,-0.249528,-0.399139,-0.305755,-0.0590601
31,65,-0.654498,-0.814493,-0.174533,-0.174533,-0.652003,-0.800238,-0.154149,-0.170596,-0.249528,-0.399139,-0.305755,-0.0590601
31,65,-0.654498,-0.814493,-0.174533,-0.174533,-0.652003,-0.800238,-0.154149,-0.170596,-0.249528,-0.399139,-0.305755,-0.0590601
31,65,-0.654498,-0.814493,-0.174533,-0.174533,-0.652003,-0.800238,-0.154149,-0.170596,-0.249528,-0.399139,-0.305755,-0.0590601
31,65,-0.654498,-0.814493,-0.174533,-0.174533,-0.652003,-0.800238,-0.154149,-0.170596,-0.249528,-0.399139,-0.305755,-0.0590601
31,65,-0.654498,-0.814493,-0.174533,-0.174533,-0.652003,-0.800238,-0.154149,-0.170596,-0.249528,-0.399139,-0.305755,-0.0590601
31,65,-0.654498,-0.814493,-0.174533,-0.174533,-0.652003,-0.800238,-0.154149,-0.170596,-0.249528,-0.399139,-0.305755,-0.0590601
31,65,-0.654498,-0.814493,-0.174533,-0.174533,-0.652003,-0.800238,-0.154149,-0.170596,-0.249528,-0.399139,-0.305755,-0.0590601
31,65,-0.654498,-0.814493,-0.174533,-0.174533,-0.652003,-0.800238,-0.154149,-0.170596,-0.249528,-0.399139,-0.305755,-0.0590601
31,65,-0.654498,-0.814493,-0.174533,-0.174533,-0.652003,-0.800238,-0.154149,-0.170596,-0.249528,-0.399139,-0.305755,-0.0590601
31,65,-0.654498,-0.814493,-0.174533,-0.174533,-0.652003,-0.800238,-0.154149,-0.170596,-0.249528,-0.399139,-0.305755,-0.0590601
31,65,-0.654498,-0.814493,-0.174533,-0.174533,-0.652003,-0.800238,-0.154149,-0.170596,-0.249528,-0.399139,-0.305755,-0.0590601
31,65,-0.654498,-0.814493,-0.174533,-0.174533,-0.652003,-0.800238,-0.154149,-0.170596,-0.249528,-0.399139,-0.305755,-0.0590601
31,65,-0.654498,-0.814493,-0.174533,-0.174533,-0.652003,-0.800238,-0.154149,-0.170596,-0.249528,-0.399139,-0.305755,-0.0590601
31,65,-0.654498,-0.814493,-0.174533,-0.174533,-0.652003,-0.800238,-0.154149,-0.170596,-0.249528,-0.399139,-0.305755,-0.0590601
31,65,-0.654498,-0.814493,-0.174533,-0.174533,-0.652003,-0.800238,-0.154149,-0.170596,-0.249528,-0.399139,-0.305755,-0.0590601
31,65,-0.654498,-0.814493,-0.174533,-0.174533,-0.652003,-0.800238,-0.154149,-0.170596,-0.249528,-0.399139,-0.305755,-0.0590601
31,65,-0.654498,-0.814493,-0.174533,-0.174533,-0.652003,-0.800238,-0.154149,-0.170596,-0.249528,-0.399139,-0.305755,-0.0590601
31,65,-0.654498,-0.814493,-0.174533,-0.174533,-0.652003,-0.800238,-0.154149,-0.170596,-0.249528,-0.399139,-0.305755,-0.0590601
31,65,-0.654498,-0.814493,-0.174533,-0.174533,-0.652003,-0.800238,-0.154149,-0.170596,-0.249528,-0.399139,-0.305755,-0.0590601
31,65,-0.654498,-0.814493,-0.174533,-0.174533,-0.652003,-0.800238,-0.154149,-0.170596,-0.249528,-0.399139,-0.305755,-0.0590601
31,65,-0.654498,-0.814493,-0.174533,-0.174533,-0.652003,-0.800238,-0.154149,-0.170596,-0.249528,-0.399139,-0.305755,-0.0590601
31,65,-0.654498,-0.814493,-0.174533,-0.174533,-0.652003,-0.800238,-0.154149,-0.170596,-0.249528,-0.399139,-0.305755,-0.0590601
31,65,-0.654498,-0.814493,-0.174533,-0.174533,-0.652003,-0.800238,-0.154149,-0.170596,-0.249528,-0.399139,-0.305755,-0.0590601
31,65,-0.654498,-0.814493,-0.174533,-0.174533,-0.652003,-0.800238,-0.154149,-0.170596,-0.249528,-0.399139,-0.305755,-0.0590601
31,65,-0.654498,-0.814493,-0.174533,-0.174533,-0.652003,-0.800238,-0.154149,-0.170596,-0.249528,-0.399139,-0.305755,-0.0590601
31,65,-0.654498,-0.814493,-0.174533,-0.174533,-0.652003,-0.800238,-0.154149,-0.170596,-0.249528,-0.399139,-0.305755,-0.0590601
31,65,-0.654498,-0.814493,-0.174533,-0.174533,-0.652003,-0.800238,-0.154149,-0.170596,-0.249528,-0.399139,-0.305755,-0.0590601
31,65,-0.654498,-0.814493,-0.174533,-0.174533,-0.652003,-0.800238,-0.154149,-0.170596,-0.249528,-0.399139,-0.305755,-0.0590601
31,65,-0.654498,-0.814493,-0.174533,-0.174533,-0.652003,-0.800238,-0.154149,-0.170596,-0.249528,-0.399139,-0.305755,-0.0590601
31,65,-0.654498,-0.814493,-0.174533,-0.174533,-0.652003,-0.800238,-0.154149,-0.170596,-0.249528,-0.399139,-0.305755,-0.0590601
31,65,-0.654498,-0.814493,-0.174533,-0.174533,-0.652003,-0.800238,-0.154149,-0.170596,-0.249528,-0.399139,-0.305755,-0.0590601
31,65,-0.654498,-0.814493,-0.174533,-0.174533,-0.652003,-0.800238,-0.15409,-0.170615,-0.249528,-0.399139,-0.30665,-0.0587628
31,65,-0.654498,-0.814493,-0.174533,-0.174533,-0.652003,-0.800238,-0.15409,-0.170615,-0.249528,-0.399139,-0.30665,-0.0587628
31,65,-0.654498,-0.814493,-0.174533,-0.174533,-0.652003,-0.800238,-0.15409,-0.170615,-0.249528,-0.399139,-0.30665,-0.0587628
31,65,-0.654498,-0.814493,-0.174533,-0.174533,-0.652003,-0.800238,-0.15409,-0.170615,-0.249528,-0.399139,-0.30665,-0.0587628
31,65,-0.654498,-0.814493,-0.174533,-0.174533,-0.652003,-0.800238,-0.15409,-0.170615,-0.249528,-0.399139,-0.30665,-0.0587628
31,65,-0.654498,-0.814493,-0.174533,-0.174533,-0.652003,-0.800238,-0.15409,-0.170615,-0.249528,-0.399139,-0.30665,-0.0587628
31,65,-0.654498,-0.814493,-0.174533,-0.174533,-0.652003,-0.800238,-0.15409,-0.170615,-0.249528,-0.399139,-0.30665,-0.0587628
31,65,-0.654498,-0.814493,-0.174533,-0.174533,-0.652003,-0.800238,-0.15409,-0.170615,-0.249528,-0.399139,-0.30665,-0.0587628
31,65,-0.654498,-0.814493,-0.174533,-0.174533,-0.652003,-0.800238,-0.15409,-0.170615,-0.249528,-0.399139,-0.30665,-0.0587628
31,65,-0.654498,-0.814493,-0.174533,-0.174533,-0.652003,-0.800238,-0.15409,-0.170615,-0.249528,-0.399139,-0.30665,-0.0587628
31,65,-0.654498,-0.814493,-0.174533,-0.174533,-0.652003,-0.800238,-0.15409,-0.170615,-0.249528,-0.399139,-0.30665,-0.0587628
31,65,-0.654498,-0.814493,-0.174533,-0.174533,-0.652003,-0.800238,-0.15409,-0.170615,-0.249528,-0.399139,-0.30665,-0.0587628
31,65,-0.654498,-0.814493,-0.174533,-0.174533,-0.652003,-0.800238,-0.15409,-0.170615,-0.249528,-0.399139,-0.30665,-0.0587628
31,65,-0.654498,-0.814493,-0.174533,-0.174533,-0.652003,-0.800238,-0.15409,-0.170615,-0.249528,-0.399139,-0.30665,-0.0587628
31,65,-0.654498,-0.814493,-0.174533,-0.174533,-0.652003,-0.800238,-0.15409,-0.170615,-0.249528,-0.399139,-0.30665,-0.0587628
31,65,-0.654498,-0.814493,-0.174533,-0.174533,-0.652003,-0.800238,-0.15409,-0.170615,-0.249528,-0.399139,-0.30665,-0.0587628
31,65,-0.654498,-0.814493,-0.174533,-0.174533,-0.652003,-0.800238,-0.15409,-0.170615,-0.249528,-0.399139,-0.30665,-0.0587628
31,65,-0.654498,-0.814493,-0.174533,-0.174533,-0.652003,-0.800238,-0.15409,-0.170615,-0.249528,-0.399139,-0.30665,-0.0587628
31,65,-0.654498,-0.814493,-0.174533,-0.174533,-0.652003,-0.800238,-0.15409,-0.170615,-0.249528,-0.399139,-0.30665,-0.0587628
31,65,-0.654498,-0.814493,-0.174533,-0.174533,-0.652003,-0.800238,-0.15409,-0.170615,-0.249528,-0.399139,-0.30665,-0.0587628
31,65,-0.654498,-0.814493,-0.174533,-0.174533,-0.652003,-0.800238,-0.15409,-0.170615,-0.249528,-0.399139,-0.30665,-0.0587628
31,65,-0.654498,-0.814493,-0.174533,-0.174533,-0.652003,-0.800238,-0.15409,-0.170615,-0.249528,-0.399139,-0.30665,-0.0587628
31,65,-0.654498,-0.814493,-0.174533,-0.174533,-0.652003,-0.800238,-0.15409,-0.170615,-0.249528,-0.399139,-0.30665,-0.0587628
31,65,-0.654498,-0.814493,-0.174533,-0.174533,-0.652003,-0.800238,-0.15409,-0.170615,-0.249528,-0.399139,-0.30665,-0.0587628
31,65,-0.654498,-0.814493,-0.174533,-0.174533,-0.652003,-0.800238,-0.15409,-0.170615,-0.249528,-0.399139,-0.30665,-0.0587628
31,65,-0.654498,-0.814493,-0.174533,-0.174533,-0.652003,-0.800238,-0.15409,-0.170615,-0.249528,-0.399139,-0.30665,-0.0587628
31,65,-0.654498,-0.814493,-0.174533,-0.174533,-0.652003,-0.800238,-0.15409,-0.170615,-0.249528,-0.399139,-0.30665,-0.0587628
31,65,-0.654498,-0.814493,-0.174533,-0.174533,-0.652003,-0.800238,-0.15409,-0.170615,-0.249528,-0.399139,-0.30665,-0.0587628
31,65,-0.654498,-0.814493,-0.174533,-0.174533,-0.652003,-0.800238,-0.15409,-0.170615,-0.249528,-0.399139,-0.30665,-0.0587628
31,65,-0.654498,-0.814493,-0.174533,-0.174533,-0.652003,-0.800238,-0.15409,-0.170615,-0.249528,-0.399139,-0.30665,-0.0587628
31,65,-0.654498,-0.814493,-0.174533,-0.174533,-0.652003,-0.800238,-0.15409,-0.170615,-0.249528,-0.399139,-0.30665,-0.0587628
31,65,-0.654498,-0.814493,-0.174533,-0.174533,-0.652003,-0.800238,-0.15409,-0.170615,-0.249528,-0.399139,-0.30665,-0.0587628
31,65,-0.654498,-0.814493,-0.174533,-0.174533,-0.652003,-0.800238,-0.15409,-0.170615,-0.249528,-0.399139,-0.30665,-0.0587628
31,65,-0.654498,-0.814493,-0.174533,-0.174533,-0.652003,-0.800238,-0.15409,-0.170615,-0.249528,-0.399139,-0.30665,-0.0587628
31,65,-0.654498,-0.814493,-0.174533,-0.174533,-0.652003,-0.800238,-0.15409,-0.170615,-0.249528,-0.399139,-0.30665,-0.0587628
31,65,-0.654498,-0.814493,-0.174533,-0.174533,-0.652003,-0.800238,-0.15409,-0.170615,-0.249528,-0.399139,-0.30665,-0.0587628
31,65,-0.654498,-0.814493,-0.174533,-0.174533,-0.652003,-0.800238,-0.15409,-0.170615,-0.249528,-0.399139,-0.30665,-0.0587628
31,65,-0.654498,-0.814493,-0.174533,-0.174533,-0.652003,-0.800238,-0.15409,-0.170615,-0.249528,-0.399139,-0.30665,-0.0587628
31,65,-0.654498,-0.814493,-0.174533,-0.174533,-0.652003,-0.800238,-0.15409,-0.170615,-0.249528,-0.399139,-0.30665,-0.0587628
31,65,-0.654498,-0.814493,-0.174533,-0.174533,-0.652003,-0.800238,-0.15409,-0.170615,-0.249528,-0.399139,-0.30665,-0.0587628
31,65,-0.654498,-0.814493,-0.174533,-0.174533,-0.652003,-0.800238,-0.15409,-0.170615,-0.249528,-0.399139,-0.30665,-0.0587628
31,65,-0.654498,-0.814493,-0.174533,-0.174533,-0.652003,-0.800238,-0.15409,-0.170615,-0.249528,-0.399139,-0.30665,-0.0587628
31,65,-0.654498,-0.814493,-0.174533,-0.174533,-0.652003,-0.800238,-0.15409,-0.170615,-0.249528,-0.399139,-0.30665,-0.0587628
31,65,-0.654498,-0.814493,-0.174533,-0.174533,-0.652003,-0.800238,-0.15409,-0.170615,-0.249528,-0.399139,-0.30665,-0.0587628
31,65,-0.654498,-0.814493,-0.174533,-0.174533,-0.652003,-0.800238,-0.15409,-0.170615,-0.249528,-0.399139,-0.30665,-0.0587628
31,65,-0.654498,-0.814493,-0.174533,-0.174533,-0.652003,-0.800238,-0.15409,-0.170615,-0.249528,-0.399139,-0.30665,-0.0587628
31,65,-0.654498,-0.814493,-0.174533,-0.174533,-0.652003,-0.800238,-0.15409,-0.170615,-0.249528,-0.399139,-0.30665,-0.0587628
31,65,-0.654498,-0.814493,-0.174533,-0.174533,-0.652003,-0.800238,-0.15409,-0.170615,-0.249528,-0.399139,-0.30665,-0.0587628
31,65,-0.654498,-0.814493,-0.174533,-0.174533,-0.652003,-0.800238,-0.15409,-0.170615,-0.249528,-0.399139,-0.30665,-0.0587628
31,65,-0.654498,-0.814493,-0.174533,-0.174533,-0.652003,-0.800238,-0.15409,-0.170615,-0.249528,-0.399139,-0.30665,-0.0587628
31,65,-0.654498,-0.814493,-0.174533,-0.174533,-0.652003,-0.800238,-0.15409,-0.170615,-0.249528,-0.399139,-0.30665,-0.0587628
31,65,-0.654498,-0.814493,-0.174533,-0.174533,-0.652003,-0.800238,-0.15409,-0.170615,-0.249528,-0.399139,-0.30665,-0.0587628
31,65,-0.654498,-0.814493,-0.174533,-0.174533,-0.652003,-0.800238,-0.15409,-0.170615,-0.249528,-0.399139,-0.30665,-0.0587628
31,65,-0.654498,-0.814493,-0.174533,-0.174533,-0.652003,-0.800238,-0.15409,-0.170615,-0.249528,-0.399139,-0.30665,-0.0587628
31,65,-0.654498,-0.814493,-0.174533,-0.174533,-0.652003,-0.800238,-0.15409,-0.170615,-0.249528,-0.399139,-0.30665,-0.0587628
31,65,-0.654498,-0.814493,-0.174533,-0.174533,-0.652003,-0.800238,-0.15409,-0.170615,-0.249528,-0.399139,-0.30665,-0.0587628
31,65,-0.654498,-0.814493,-0.174533,-0.174533,-0.652003,-0.800238,-0.15409,-0.170615,-0.249528,-0.399139,-0.30665,-0.0587628
31,65,-0.654498,-0.814493,-0.174533,-0.174533,-0.652003,-0.800238,-0.15409,-0.170615,-0.249528,-0.399139,-0.30665,-0.0587628
31,65,-0.654498,-0.814493,-0.174533,-0.174533,-0.652003,-0.800238,-0.15409,-0.170615,-0.249528,-0.399139,-0.30665,-0.0587628
31,65,-0.654498,-0.814493,-0.174533,-0.174533,-0.652003,-0.800238,-0.15409,-0.170615,-0.249528,-0.399139,-0.30665,-0.0587628
31,65,-0.654498,-0.814493,-0.174533,-0.174533,-0.652003,-0.800238,-0.15409,-0.170615,-0.249528,-0.399139,-0.30665,-0.0587628
31,65,-0.654498,-0.814493,-0.174533,-0.174533,-0.652003,-0.800238,-0.15409,-0.170615,-0.249528,-0.399139,-0.30665,-0.0587628
31,65,-0.654498,-0.814493,-0.174533,-0.174533,-0.652003,-0.800238,-0.15409,-0.170615,-0.249528,-0.399139,-0.30665,-0.0587628
31,65,-0.654498,-0.814493,-0.174533,-0.174533,-0.652003,-0.800238,-0.15409,-0.170615,-0.249528,-0.399139,-0.30665,-0.0587628
31,65,-0.654498,-0.814493,-0.174533,-0.174533,-0.652003,-0.800238,-0.15409,-0.170615,-0.249528,-0.399139,-0.30665,-0.0587628
31,65,-0.654498,-0.814493,-0.174533,-0.174533,-0.652003,-0.800238,-0.15409,-0.170615,-0.249528,-0.399139,-0.30665,-0.0587628
31,65,-0.654498,-0.814493,-0.174533,-0.174533,-0.652003,-0.800238,-0.15409,-0.170615,-0.249528,-0.399139,-0.30665,-0.0587628
31,65,-0.654498,-0.814493,-0.174533,-0.174533,-0.652003,-0.800238,-0.15409,-0.170615,-0.249528,-0.399139,-0.30665,-0.0587628
31,65,-0.654498,-0.814493,-0.174533,-0.174533,-0.652003,-0.800238,-0.15409,-0.170615,-0.249528,-0.399139,-0.30665,-0.0587628
31,65,-0.654498,-0.814493,-0.174533,-0.174533,-0.652003,-0.800238,-0.15409,-0.170615,-0.249528,-0.399139,-0.30665,-0.0587628
31,65,-0.654498,-0.814493,-0.174533,-0.174533,-0.652003,-0.800238,-0.15409,-0.170615,-0.249528,-0.399139,-0.30665,-0.0587628
31,65,-0.654498,-0.814493,-0.174533,-0.174533,-0.652003,-0.800238,-0.15409,-0.170615,-0.249528,-0.399139,-0.30665,-0.0587628
31,65,-0.654498,-0.814493,-0.174533,-0.174533,-0.652003,-0.800238,-0.15409,-0.170615,-0.249528,-0.399139,-0.30665,-0.0587628
31,65,-0.654498,-0.814493,-0.174533,-0.174533,-0.652003,-0.800238,-0.15409,-0.170615,-0.249528,-0.399139,-0.30665,-0.0587628
31,65,-0.654498,-0.814493,-0.174533,-0.174533,-0.652003,-0.800238,-0.15409,-0.170615,-0.249528,-0.399139,-0.30665,-0.0587628
31,65,-0.654498,-0.814493,-0.174533,-0.174533,-0.652003,-0.800238,-0.15409,-0.170615,-0.249528,-0.399139,-0.30665,-0.0587628
31,65,-0.654498,-0.814493,-0.174533,-0.174533,-0.652003,-0.800238,-0.15409,-0.170615,-0.249528,-0.399139,-0.30665,-0.0587628
31,65,-0.654498,-0.814493,-0.174533,-0.174533,-0.652003,-0.800238,-0.15409,-0.170615,-0.249528,-0.399139,-0.30665,-0.0587628
31,65,-0.654498,-0.814493,-0.174533,-0.174533,-0.652003,-0.800238,-0.15409,-0.170615,-0.249528,-0.399139,-0.30665,-0.0587628
31,65,-0.654498,-0.814493,-0.174533,-0.174533,-0.652003,-0.800238,-0.15409,-0.170615,-0.249528,-0.399139,-0.30665,-0.0587628
31,65,-0.654498,-0.814493,-0.174533,-0.174533,-0.652003,-0.800238,-0.15409,-0.170615,-0.249528,-0.399139,-0.30665,-0.0587628
31,65,-0.654498,-0.814493,-0.174533,-0.174533,-0.652003,-0.800238,-0.15409,-0.170615,-0.249528,-0.399139,-0.30665,-0.0587628
31,65,-0.654498,-0.814493,-0.174533,-0.174533,-0.652003,-0.800238,-0.15409,-0.170615,-0.249528,-0.399139,-0.30665,-0.0587628
31,65,-0.654498,-0.814493,-0.174533,-0.174533,-0.652003,-0.800238,-0.15409,-0.170615,-0.249528,-0.399139,-0.30665,-0.0587628
31,65,-0.654498,-0.814493,-0.174533,-0.174533,-0.652003,-0.800238,-0.154088,-0.170556,-0.249528,-0.399139,-0.30668,-0.0596571
31,65,-0.654498,-0.814493,-0.174533,-0.174533,-0.652003,-0.800238,-0.154088,-0.170556,-0.249528,-0.399139,-0.30668,-0.0596571
31,65,-0.654498,-0.814493,-0.174533,-0.174533,-0.652003,-0.800238,-0.154088,-0.170556,-0.249528,-0.399139,-0.30668,-0.0596571
31,65,-0.654498,-0.814493,-0.174533,-0.174533,-0.652003,-0.800238,-0.154088,-0.170556,-0.249528,-0.399139,-0.30668,-0.0596571
31,65,-0.654498,-0.814493,-0.174533,-0.174533,-0.652003,-0.800238,-0.154088,-0.170556,-0.249528,-0.399139,-0.30668,-0.0596571
31,65,-0.654498,-0.814493,-0.174533,-0.174533,-0.652003,-0.800238,-0.154088,-0.170556,-0.249528,-0.399139,-0.30668,-0.0596571
31,65,-0.654498,-0.814493,-0.174533,-0.174533,-0.652003,-0.800238,-0.154088,-0.170556,-0.249528,-0.399139,-0.30668,-0.0596571
31,65,-0.654498,-0.814493,-0.174533,-0.174533,-0.652003,-0.800238,-0.154088,-0.170556,-0.249528,-0.399139,-0.30668,-0.0596571
31,65,-0.654498,-0.814493,-0.174533,-0.174533,-0.652003,-0.800238,-0.154088,-0.170556,-0.249528,-0.399139,-0.30668,-0.0596571
31,65,-0.654498,-0.814493,-0.174533,-0.174533,-0.652003,-0.800238,-0.154088,-0.170556,-0.249528,-0.399139,-0.30668,-0.0596571
31,65,-0.654498,-0.814493,-0.174533,-0.174533,-0.652003,-0.800238,-0.154088,-0.170556,-0.249528,-0.399139,-0.30668,-0.0596571
31,65,-0.654498,-0.814493,-0.174533,-0.174533,-0.652003,-0.800238,-0.154088,-0.170556,-0.249528,-0.399139,-0.30668,-0.0596571
31,65,-0.654498,-0.814493,-0.174533,-0.174533,-0.652003,-0.800238,-0.154088,-0.170556,-0.249528,-0.399139,-0.30668,-0.0596571
31,65,-0.654498,-0.814493,-0.174533,-0.174533,-0.652003,-0.800238,-0.154088,-0.170556,-0.249528,-0.399139,-0.30668,-0.0596571
31,65,-0.654498,-0.814493,-0.174533,-0.174533,-0.652003,-0.800238,-0.154088,-0.170556,-0.249528,-0.399139,-0.30668,-0.0596571
31,65,-0.654498,-0.814493,-0.174533,-0.174533,-0.652003,-0.800238,-0.154088,-0.170556,-0.249528,-0.399139,-0.30668,-0.0596571
31,65,-0.654498,-0.814493,-0.174533,-0.174533,-0.652003,-0.800238,-0.154088,-0.170556,-0.249528,-0.399139,-0.30668,-0.0596571
31,65,-0.654498,-0.814493,-0.174533,-0.174533,-0.652003,-0.800238,-0.154088,-0.170556,-0.249528,-0.399139,-0.30668,-0.0596571
31,65,-0.654498,-0.814493,-0.174533,-0.174533,-0.652003,-0.800238,-0.154028,-0.170576,-0.249528,-0.399139,-0.307574,-0.0593597
31,65,-0.654498,-0.814493,-0.174533,-0.174533,-0.652003,-0.800238,-0.154028,-0.170576,-0.249528,-0.399139,-0.307574,-0.0593597
31,65,-0.654498,-0.814493,-0.174533,-0.174533,-0.652003,-0.800238,-0.154028,-0.170576,-0.249528,-0.399139,-0.307574,-0.0593597
31,65,-0.654498,-0.814493,-0.174533,-0.174533,-0.652003,-0.800238,-0.154028,-0.170576,-0.249528,-0.399139,-0.307574,-0.0593597
31,65,-0.654498,-0.814493,-0.174533,-0.174533,-0.652003,-0.800238,-0.154028,-0.170576,-0.249528,-0.399139,-0.307574,-0.0593597
31,65,-0.654498,-0.814493,-0.174533,-0.174533,-0.652003,-0.800238,-0.154028,-0.170576,-0.249528,-0.399139,-0.307574,-0.0593597
31,65,-0.654498,-0.814493,-0.174533,-0.174533,-0.652003,-0.800238,-0.154028,-0.170576,-0.249528,-0.399139,-0.307574,-0.0593597
31,65,-0.654498,-0.814493,-0.174533,-0.174533,-0.652003,-0.800238,-0.154028,-0.170576,-0.249528,-0.399139,-0.307574,-0.0593597
31,65,-0.654498,-0.814493,-0.174533,-0.174533,-0.652003,-0.800238,-0.154028,-0.170576,-0.249528,-0.399139,-0.307574,-0.0593597
31,65,-0.654498,-0.814493,-0.174533,-0.174533,-0.652003,-0.800238,-0.154028,-0.170576,-0.249528,-0.399139,-0.307574,-0.0593597
31,65,-0.654498,-0.814493,-0.174533,-0.174533,-0.652003,-0.800238,-0.154028,-0.170576,-0.249528,-0.399139,-0.307574,-0.0593597
31,65,-0.654498,-0.814493,-0.174533,-0.174533,-0.652003,-0.800238,-0.154028,-0.170576,-0.249528,-0.399139,-0.307574,-0.0593597
31,65,-0.654498,-0.814493,-0.174533,-0.174533,-0.652003,-0.800238,-0.154028,-0.170576,-0.249528,-0.399139,-0.307574,-0.0593597
31,65,-0.654498,-0.814493,-0.174533,-0.174533,-0.652003,-0.800238,-0.154028,-0.170576,-0.249528,-0.399139,-0.307574,-0.0593597
31,65,-0.654498,-0.814493,-0.174533,-0.174533,-0.652003,-0.800238,-0.154028,-0.170576,-0.249528,-0.399139,-0.307574,-0.0593597
31,65,-0.654498,-0.814493,-0.174533,-0.174533,-0.652003,-0.800238,-0.154028,-0.170576,-0.249528,-0.399139,-0.307574,-0.0593597
31,65,-0.654498,-0.814493,-0.174533,-0.174533,-0.652003,-0.800238,-0.154028,-0.170576,-0.249528,-0.399139,-0.307574,-0.0593597
31,65,-0.654498,-0.814493,-0.174533,-0.174533,-0.652003,-0.800238,-0.154028,-0.170576,-0.249528,-0.399139,-0.307574,-0.0593597
31,65,-0.654498,-0.814493,-0.174533,-0.174533,-0.652003,-0.800238,-0.154028,-0.170576,-0.249528,-0.399139,-0.307574,-0.0593597
31,65,-0.654498,-0.814493,-0.174533,-0.174533,-0.652003,-0.800238,-0.154028,-0.170576,-0.249528,-0.399139,-0.307574,-0.0593597
31,65,-0.654498,-0.814493,-0.174533,-0.174533,-0.652003,-0.800238,-0.154028,-0.170576,-0.249528,-0.399139,-0.307574,-0.0593597
31,65,-0.654498,-0.814493,-0.174533,-0.174533,-0.652003,-0.800238,-0.154028,-0.170576,-0.249528,-0.399139,-0.307574,-0.0593597
31,65,-0.654498,-0.814493,-0.174533,-0.174533,-0.652003,-0.800238,-0.154028,-0.170576,-0.249528,-0.399139,-0.307574,-0.0593597
31,65,-0.654498,-0.814493,-0.174533,-0.174533,-0.652003,-0.800238,-0.154028,-0.170576,-0.249528,-0.399139,-0.307574,-0.0593597
31,65,-0.654498,-0.814493,-0.174533,-0.174533,-0.652003,-0.800238,-0.154028,-0.170576,-0.249528,-0.399139,-0.307574,-0.0593597
31,65,-0.654498,-0.814493,-0.174533,-0.174533,-0.652003,-0.800238,-0.154028,-0.170576,-0.249528,-0.399139,-0.307574,-0.0593597
31,65,-0.654498,-0.814493,-0.174533,-0.174533,-0.652003,-0.800238,-0.154028,-0.170576,-0.249528,-0.399139,-0.307574,-0.0593597
31,65,-0.654498,-0.814493,-0.174533,-0.174533,-0.652003,-0.800238,-0.154028,-0.170576,-0.249528,-0.399139,-0.307574,-0.0593597
31,65,-0.654498,-0.814493,-0.174533,-0.174533,-0.652003,-0.800238,-0.154028,-0.170576,-0.249528,-0.399139,-0.307574,-0.0593597
31,65,-0.654498,-0.814493,-0.174533,-0.174533,-0.652003,-0.800238,-0.154028,-0.170576,-0.249528,-0.399139,-0.307574,-0.0593597
31,65,-0.654498,-0.814493,-0.174533,-0.174533,-0.652003,-0.800238,-0.154028,-0.170576,-0.249528,-0.399139,-0.307574,-0.0593597
31,65,-0.654498,-0.814493,-0.174533,-0.174533,-0.652003,-0.800238,-0.154028,-0.170576,-0.249528,-0.399139,-0.307574,-0.0593597
31,65,-0.654498,-0.814493,-0.174533,-0.174533,-0.652003,-0.800238,-0.154028,-0.170576,-0.249528,-0.399139,-0.307574,-0.0593597
31,65,-0.654498,-0.814493,-0.174533,-0.174533,-0.652003,-0.800238,-0.154028,-0.170576,-0.249528,-0.399139,-0.307574,-0.0593597
31,65,-0.654498,-0.814493,-0.174533,-0.174533,-0.652003,-0.800238,-0.154028,-0.170576,-0.249528,-0.399139,-0.307574,-0.0593597
31,65,-0.654498,-0.814493,-0.174533,-0.174533,-0.652003,-0.800238,-0.154028,-0.170576,-0.249528,-0.399139,-0.307574,-0.0593597
31,65,-0.654498,-0.814493,-0.174533,-0.174533,-0.652003,-0.800238,-0.154028,-0.170576,-0.249528,-0.399139,-0.307574,-0.0593597
31,65,-0.654498,-0.814493,-0.174533,-0.174533,-0.652003,-0.800238,-0.154028,-0.170576,-0.249528,-0.399139,-0.307574,-0.0593597
31,65,-0.654498,-0.814493,-0.174533,-0.174533,-0.652003,-0.800238,-0.154028,-0.170576,-0.249528,-0.399139,-0.307574,-0.0593597
31,65,-0.654498,-0.814493,-0.174533,-0.174533,-0.652003,-0.800238,-0.154028,-0.170576,-0.249528,-0.399139,-0.307574,-0.0593597
31,65,-0.654498,-0.814493,-0.174533,-0.174533,-0.652003,-0.800238,-0.154028,-0.170576,-0.249528,-0.399139,-0.307574,-0.0593597
31,65,-0.654498,-0.814493,-0.174533,-0.174533,-0.652003,-0.800238,-0.154028,-0.170576,-0.249528,-0.399139,-0.307574,-0.0593597
31,65,-0.654498,-0.814493,-0.174533,-0.174533,-0.652003,-0.800238,-0.154028,-0.170576,-0.249528,-0.399139,-0.307574,-0.0593597
31,65,-0.654498,-0.814493,-0.174533,-0.174533,-0.652003,-0.800238,-0.154028,-0.170576,-0.249528,-0.399139,-0.307574,-0.0593597
31,65,-0.654498,-0.814493,-0.174533,-0.174533,-0.652003,-0.800238,-0.154028,-0.170576,-0.249528,-0.399139,-0.307574,-0.0593597
31,65,-0.654498,-0.814493,-0.174533,-0.174533,-0.652003,-0.800238,-0.154028,-0.170576,-0.249528,-0.399139,-0.307574,-0.0593597
31,65,-0.654498,-0.814493,-0.174533,-0.174533,-0.652003,-0.800238,-0.154028,-0.170576,-0.249528,-0.399139,-0.307574,-0.0593597
31,65,-0.654498,-0.814493,-0.174533,-0.174533,-0.652003,-0.800238,-0.154028,-0.170576,-0.249528,-0.399139,-0.307574,-0.0593597
31,65,-0.654498,-0.814493,-0.174533,-0.174533,-0.652003,-0.800238,-0.154028,-0.170576,-0.249528,-0.399139,-0.307574,-0.0593597
31,65,-0.654498,-0.814493,-0.174533,-0.174533,-0.652003,-0.800238,-0.154028,-0.170576,-0.249528,-0.399139,-0.307574,-0.0593597
31,65,-0.654498,-0.814493,-0.174533,-0.174533,-0.652003,-0.800238,-0.154028,-0.170576,-0.249528,-0.399139,-0.307574,-0.0593597
31,65,-0.654498,-0.814493,-0.174533,-0.174533,-0.652003,-0.800238,-0.154028,-0.170576,-0.249528,-0.399139,-0.307574,-0.0593597
31,65,-0.654498,-0.814493,-0.174533,-0.174533,-0.652003,-0.800238,-0.154028,-0.170576,-0.249528,-0.399139,-0.307574,-0.0593597
31,65,-0.654498,-0.814493,-0.174533,-0.174533,-0.652003,-0.800238,-0.154028,-0.170576,-0.249528,-0.399139,-0.307574,-0.0593597
31,65,-0.654498,-0.814493,-0.174533,-0.174533,-0.652003,-0.800238,-0.154028,-0.170576,-0.249528,-0.399139,-0.307574,-0.0593597
31,65,-0.654498,-0.814493,-0.174533,-0.174533,-0.652003,-0.800238,-0.154028,-0.170576,-0.249528,-0.399139,-0.307574,-0.0593597
31,65,-0.654498,-0.814493,-0.174533,-0.174533,-0.652003,-0.800238,-0.154028,-0.170576,-0.249528,-0.399139,-0.307574,-0.0593597
31,65,-0.654498,-0.814493,-0.174533,-0.174533,-0.652003,-0.800238,-0.154028,-0.170576,-0.249528,-0.399139,-0.307574,-0.0593597
31,65,-0.654498,-0.814493,-0.174533,-0.174533,-0.652003,-0.800238,-0.154028,-0.170576,-0.249528,-0.399139,-0.307574,-0.0593597
31,65,-0.654498,-0.814493,-0.174533,-0.174533,-0.652003,-0.800238,-0.154028,-0.170576,-0.249528,-0.399139,-0.307574,-0.0593597
31,65,-0.654498,-0.814493,-0.174533,-0.174533,-0.652003,-0.800238,-0.154028,-0.170576,-0.249528,-0.399139,-0.307574,-0.0593597
31,65,-0.654498,-0.814493,-0.174533,-0.174533,-0.652003,-0.800238,-0.154028,-0.170576,-0.249528,-0.399139,-0.307574,-0.0593597
31,65,-0.654498,-0.814493,-0.174533,-0.174533,-0.652003,-0.800238,-0.154028,-0.170576,-0.249528,-0.399139,-0.307574,-0.0593597
31,65,-0.654498,-0.814493,-0.174533,-0.174533,-0.652003,-0.800238,-0.154028,-0.170576,-0.249528,-0.399139,-0.307574,-0.0593597
31,65,-0.654498,-0.814493,-0.174533,-0.174533,-0.652003,-0.800238,-0.154028,-0.170576,-0.249528,-0.399139,-0.307574,-0.0593597
31,65,-0.654498,-0.814493,-0.174533,-0.174533,-0.652003,-0.800238,-0.154028,-0.170576,-0.249528,-0.399139,-0.307574,-0.0593597
31,65,-0.654498,-0.814493,-0.174533,-0.174533,-0.652003,-0.800238,-0.154028,-0.170576,-0.249528,-0.399139,-0.307574,-0.0593597
31,65,-0.654498,-0.814493,-0.174533,-0.174533,-0.652003,-0.800238,-0.154028,-0.170576,-0.249528,-0.399139,-0.307574,-0.0593597
31,65,-0.654498,-0.814493,-0.174533,-0.174533,-0.652003,-0.800238,-0.154028,-0.170576,-0.249528,-0.399139,-0.307574,-0.0593597
31,65,-0.654498,-0.814493,-0.174533,-0.174533,-0.652003,-0.800238,-0.154028,-0.170576,-0.249528,-0.399139,-0.307574,-0.0593597
31,65,-0.654498,-0.814493,-0.174533,-0.174533,-0.652003,-0.800238,-0.154028,-0.170576,-0.249528,-0.399139,-0.307574,-0.0593597
31,65,-0.654498,-0.814493,-0.174533,-0.174533,-0.652003,-0.800238,-0.154028,-0.170576,-0.249528,-0.399139,-0.307574,-0.0593597
31,65,-0.654498,-0.814493,-0.174533,-0.174533,-0.652003,-0.800238,-0.154028,-0.170576,-0.249528,-0.399139,-0.307574,-0.0593597
31,65,-0.654498,-0.814493,-0.174533,-0.174533,-0.652003,-0.800238,-0.154028,-0.170576,-0.249528,-0.399139,-0.307574,-0.0593597
31,65,-0.654498,-0.814493,-0.174533,-0.174533,-0.652003,-0.800238,-0.154028,-0.170576,-0.249528,-0.399139,-0.307574,-0.0593597
31,65,-0.654498,-0.814493,-0.174533,-0.174533,-0.652003,-0.800238,-0.154028,-0.170576,-0.249528,-0.399139,-0.307574,-0.0593597
31,65,-0.654498,-0.814493,-0.174533,-0.174533,-0.652003,-0.800238,-0.154028,-0.170576,-0.249528,-0.399139,-0.307574,-0.0593597
31,65,-0.654498,-0.814493,-0.174533,-0.174533,-0.652003,-0.800238,-0.154028,-0.170576,-0.249528,-0.399139,-0.307574,-0.0593597
31,65,-0.654498,-0.814493,-0.174533,-0.174533,-0.652003,-0.800238,-0.154028,-0.170576,-0.249528,-0.399139,-0.307574,-0.0593597
31,65,-0.654498,-0.814493,-0.174533,-0.174533,-0.652003,-0.800238,-0.154028,-0.170576,-0.249528,-0.399139,-0.307574,-0.0593597
31,65,-0.654498,-0.814493,-0.174533,-0.174533,-0.652003,-0.800238,-0.154028,-0.170576,-0.249528,-0.399139,-0.307574,-0.0593597
31,65,-0.654498,-0.814493,-0.174533,-0.174533,-0.652003,-0.800238,-0.154028,-0.170576,-0.249528,-0.399139,-0.307574,-0.0593597
31,65,-0.654498,-0.814493,-0.174533,-0.174533,-0.652003,-0.800238,-0.154028,-0.170576,-0.249528,-0.399139,-0.307574,-0.0593597
31,65,-0.654498,-0.814493,-0.174533,-0.174533,-0.652003,-0.800238,-0.154028,-0.170576,-0.249528,-0.399139,-0.307574,-0.0593597
31,65,-0.654498,-0.814493,-0.174533,-0.174533,-0.652003,-0.800238,-0.154028,-0.170576,-0.249528,-0.399139,-0.307574,-0.0593597
31,65,-0.654498,-0.814493,-0.174533,-0.174533,-0.652003,-0.800238,-0.154028,-0.170576,-0.249528,-0.399139,-0.307574,-0.0593597
31,65,-0.654498,-0.814493,-0.174533,-0.174533,-0.652003,-0.800238,-0.154028,-0.170576,-0.249528,-0.399139,-0.307574,-0.0593597
31,65,-0.654498,-0.814493,-0.174533,-0.174533,-0.652003,-0.800238,-0.154028,-0.170576,-0.249528,-0.399139,-0.307574,-0.0593597
31,65,-0.654498,-0.814493,-0.174533,-0.174533,-0.652003,-0.800238,-0.154028,-0.170576,-0.249528,-0.399139,-0.307574,-0.0593597
31,65,-0.654498,-0.814493,-0.174533,-0.174533,-0.652003,-0.800238,-0.154028,-0.170576,-0.249528,-0.399139,-0.307574,-0.0593597
31,65,-0.654498,-0.814493,-0.174533,-0.174533,-0.652003,-0.800238,-0.154028,-0.170576,-0.249528,-0.399139,-0.307574,-0.0593597
31,65,-0.654498,-0.814493,-0.174533,-0.174533,-0.652003,-0.800238,-0.154028,-0.170576,-0.249528,-0.399139,-0.307574,-0.0593597
31,65,-0.654498,-0.814493,-0.174533,-0.174533,-0.652003,-0.800238,-0.154028,-0.170576,-0.249528,-0.399139,-0.307574,-0.0593597
31,65,-0.654498,-0.814493,-0.174533,-0.174533,-0.652003,-0.800238,-0.154028,-0.170576,-0.249528,-0.399139,-0.307574,-0.0593597
31,65,-0.654498,-0.814493,-0.174533,-0.174533,-0.652003,-0.800238,-0.154028,-0.170576,-0.249528,-0.399139,-0.307574,-0.0593597
31,65,-0.654498,-0.814493,-0.174533,-0.174533,-0.652003,-0.800238,-0.154028,-0.170576,-0.249528,-0.399139,-0.307574,-0.0593597
31,65,-0.654498,-0.814493,-0.174533,-0.174533,-0.652003,-0.800238,-0.154028,-0.170576,-0.249528,-0.399139,-0.307574,-0.0593597
31,65,-0.654498,-0.814493,-0.174533,-0.174533,-0.652003,-0.800238,-0.154028,-0.170576,-0.249528,-0.399139,-0.307574,-0.0593597
31,65,-0.654498,-0.814493,-0.174533,-0.174533,-0.652003,-0.800238,-0.154028,-0.170576,-0.249528,-0.399139,-0.307574,-0.0593597
31,65,-0.654498,-0.814493,-0.174533,-0.174533,-0.652003,-0.800238,-0.154028,-0.170576,-0.249528,-0.399139,-0.307574,-0.0593597
31,65,-0.654498,-0.814493,-0.174533,-0.174533,-0.652003,-0.800238,-0.154028,-0.170576,-0.249528,-0.399139,-0.307574,-0.0593597
31,65,-0.654498,-0.814493,-0.174533,-0.174533,-0.652003,-0.800238,-0.154028,-0.170576,-0.249528,-0.399139,-0.307574,-0.0593597
31,65,-0.654498,-0.814493,-0.174533,-0.174533,-0.652003,-0.800238,-0.154028,-0.170576,-0.249528,-0.399139,-0.307574,-0.0593597
31,65,-0.654498,-0.814493,-0.174533,-0.174533,-0.652003,-0.800238,-0.154028,-0.170576,-0.249528,-0.399139,-0.307574,-0.0593597
31,65,-0.654498,-0.814493,-0.174533,-0.174533,-0.652003,-0.800238,-0.154028,-0.170576,-0.249528,-0.399139,-0.307574,-0.0593597
31,65,-0.654498,-0.814493,-0.174533,-0.174533,-0.652003,-0.800238,-0.154028,-0.170576,-0.249528,-0.399139,-0.307574,-0.0593597
31,65,-0.654498,-0.814493,-0.174533,-0.174533,-0.652003,-0.800238,-0.154028,-0.170576,-0.249528,-0.399139,-0.307574,-0.0593597
31,65,-0.654498,-0.814493,-0.174533,-0.174533,-0.652003,-0.800238,-0.154028,-0.170576,-0.249528,-0.399139,-0.307574,-0.0593597
31,65,-0.654498,-0.814493,-0.174533,-0.174533,-0.652003,-0.800238,-0.154028,-0.170576,-0.249528,-0.399139,-0.307574,-0.0593597
31,65,-0.654498,-0.814493,-0.174533,-0.174533,-0.652003,-0.800238,-0.154028,-0.170576,-0.249528,-0.399139,-0.307574,-0.0593597
31,65,-0.654498,-0.814493,-0.174533,-0.174533,-0.652003,-0.800238,-0.154028,-0.170576,-0.249528,-0.399139,-0.307574,-0.0593597
31,65,-0.654498,-0.814493,-0.174533,-0.174533,-0.652003,-0.800238,-0.154028,-0.170576,-0.249528,-0.399139,-0.307574,-0.0593597
31,65,-0.654498,-0.814493,-0.174533,-0.174533,-0.652003,-0.800238,-0.154028,-0.170576,-0.249528,-0.399139,-0.307574,-0.0593597
31,65,-0.654498,-0.814493,-0.174533,-0.174533,-0.652003,-0.800238,-0.154028,-0.170576,-0.249528,-0.399139,-0.307574,-0.0593597
31,65,-0.654498,-0.814493,-0.174533,-0.174533,-0.652003,-0.800238,-0.154028,-0.170576,-0.249528,-0.399139,-0.307574,-0.0593597
31,65,-0.654498,-0.814493,-0.174533,-0.174533,-0.652003,-0.800238,-0.154028,-0.170576,-0.249528,-0.399139,-0.307574,-0.0593597
31,65,-0.654498,-0.814493,-0.174533,-0.174533,-0.652003,-0.800238,-0.154028,-0.170576,-0.249528,-0.399139,-0.307574,-0.0593597
31,65,-0.654498,-0.814493,-0.174533,-0.174533,-0.652003,-0.800238,-0.154028,-0.170576,-0.249528,-0.399139,-0.307574,-0.0593597
31,65,-0.654498,-0.814493,-0.174533,-0.174533,-0.652003,-0.800238,-0.154028,-0.170576,-0.249528,-0.399139,-0.307574,-0.0593597
31,65,-0.654498,-0.814493,-0.174533,-0.174533,-0.652003,-0.800238,-0.154028,-0.170576,-0.249528,-0.399139,-0.307574,-0.0593597
31,65,-0.654498,-0.814493,-0.174533,-0.174533,-0.652003,-0.800238,-0.154028,-0.170576,-0.249528,-0.399139,-0.307574,-0.0593597
31,65,-0.654498,-0.814493,-0.174533,-0.174533,-0.652003,-0.800238,-0.154028,-0.170576,-0.249528,-0.399139,-0.307574,-0.0593597
31,65,-0.654498,-0.814493,-0.174533,-0.174533,-0.652003,-0.800238,-0.154028,-0.170576,-0.249528,-0.399139,-0.307574,-0.0593597
31,65,-0.654498,-0.814493,-0.174533,-0.174533,-0.652003,-0.800238,-0.154028,-0.170576,-0.249528,-0.399139,-0.307574,-0.0593597
31,65,-0.654498,-0.814493,-0.174533,-0.174533,-0.652003,-0.800238,-0.154028,-0.170576,-0.249528,-0.399139,-0.307574,-0.0593597
31,65,-0.654498,-0.814493,-0.174533,-0.174533,-0.652003,-0.800238,-0.154028,-0.170576,-0.249528,-0.399139,-0.307574,-0.0593597
31,65,-0.654498,-0.814493,-0.174533,-0.174533,-0.652003,-0.800238,-0.154028,-0.170576,-0.249528,-0.399139,-0.307574,-0.0593597
31,65,-0.654498,-0.814493,-0.174533,-0.174533,-0.652003,-0.800238,-0.154028,-0.170576,-0.249528,-0.399139,-0.307574,-0.0593597
31,65,-0.654498,-0.814493,-0.174533,-0.174533,-0.652003,-0.800238,-0.154028,-0.170576,-0.249528,-0.399139,-0.307574,-0.0593597
31,65,-0.654498,-0.814493,-0.174533,-0.174533,-0.652003,-0.800238,-0.154028,-0.170576,-0.249528,-0.399139,-0.307574,-0.0593597
31,65,-0.654498,-0.814493,-0.174533,-0.174533,-0.652003,-0.800238,-0.154028,-0.170576,-0.249528,-0.399139,-0.307574,-0.0593597
31,65,-0.654498,-0.814493,-0.174533,-0.174533,-0.652003,-0.800238,-0.154028,-0.170576,-0.249528,-0.399139,-0.307574,-0.0593597
31,65,-0.654498,-0.814493,-0.174533,-0.174533,-0.652003,-0.800238,-0.154028,-0.170576,-0.249528,-0.399139,-0.307574,-0.0593597
31,65,-0.654498,-0.814493,-0.174533,-0.174533,-0.652003,-0.800238,-0.154028,-0.170576,-0.249528,-0.399139,-0.307574,-0.0593597
31,65,-0.654498,-0.814493,-0.174533,-0.174533,-0.652003,-0.800238,-0.154028,-0.170576,-0.249528,-0.399139,-0.307574,-0.0593597
31,65,-0.654498,-0.814493,-0.174533,-0.174533,-0.652003,-0.800238,-0.154028,-0.170576,-0.249528,-0.399139,-0.307574,-0.0593597
31,65,-0.654498,-0.814493,-0.174533,-0.174533,-0.652003,-0.800238,-0.154028,-0.170576,-0.249528,-0.399139,-0.307574,-0.0593597
31,65,-0.654498,-0.814493,-0.174533,-0.174533,-0.652003,-0.800238,-0.154028,-0.170576,-0.249528,-0.399139,-0.307574,-0.0593597
31,65,-0.654498,-0.814493,-0.174533,-0.174533,-0.652003,-0.800238,-0.154028,-0.170576,-0.249528,-0.399139,-0.307574,-0.0593597
31,65,-0.654498,-0.814493,-0.174533,-0.174533,-0.652003,-0.800238,-0.154028,-0.170576,-0.249528,-0.399139,-0.307574,-0.0593597
31,65,-0.654498,-0.814493,-0.174533,-0.174533,-0.652003,-0.800238,-0.154028,-0.170576,-0.249528,-0.399139,-0.307574,-0.0593597
31,65,-0.654498,-0.814493,-0.174533,-0.174533,-0.652003,-0.800238,-0.154028,-0.170576,-0.249528,-0.399139,-0.307574,-0.0593597
31,65,-0.654498,-0.814493,-0.174533,-0.174533,-0.652003,-0.800238,-0.154028,-0.170576,-0.249528,-0.399139,-0.307574,-0.0593597
31,65,-0.654498,-0.814493,-0.174533,-0.174533,-0.652003,-0.800238,-0.154028,-0.170576,-0.249528,-0.399139,-0.307574,-0.0593597
31,65,-0.654498,-0.814493,-0.174533,-0.174533,-0.652003,-0.800238,-0.154028,-0.170576,-0.249528,-0.399139,-0.307574,-0.0593597
31,65,-0.654498,-0.814493,-0.174533,-0.174533,-0.652003,-0.800238,-0.154028,-0.170576,-0.249528,-0.399139,-0.307574,-0.0593597
31,65,-0.654498,-0.814493,-0.174533,-0.174533,-0.652003,-0.800238,-0.154028,-0.170576,-0.249528,-0.399139,-0.307574,-0.0593597
31,65,-0.654498,-0.814493,-0.174533,-0.174533,-0.652003,-0.800238,-0.154028,-0.170576,-0.249528,-0.399139,-0.307574,-0.0593597
31,65,-0.654498,-0.814493,-0.174533,-0.174533,-0.652003,-0.800238,-0.154028,-0.170576,-0.249528,-0.399139,-0.307574,-0.0593597
31,65,-0.654498,-0.814493,-0.174533,-0.174533,-0.652003,-0.800238,-0.154028,-0.170576,-0.249528,-0.399139,-0.307574,-0.0593597
31,65,-0.654498,-0.814493,-0.174533,-0.174533,-0.652003,-0.800238,-0.154028,-0.170576,-0.249528,-0.399139,-0.307574,-0.0593597
31,65,-0.654498,-0.814493,-0.174533,-0.174533,-0.652003,-0.800238,-0.154028,-0.170576,-0.249528,-0.399139,-0.307574,-0.0593597
31,65,-0.654498,-0.814493,-0.174533,-0.174533,-0.652003,-0.800238,-0.154028,-0.170576,-0.249528,-0.399139,-0.307574,-0.0593597
31,65,-0.654498,-0.814493,-0.174533,-0.174533,-0.652003,-0.800238,-0.154028,-0.170576,-0.249528,-0.399139,-0.307574,-0.0593597
31,65,-0.654498,-0.814493,-0.174533,-0.174533,-0.652003,-0.800238,-0.154028,-0.170576,-0.249528,-0.399139,-0.307574,-0.0593597
31,65,-0.654498,-0.814493,-0.174533,-0.174533,-0.652003,-0.800238,-0.154028,-0.170576,-0.249528,-0.399139,-0.307574,-0.0593597
31,65,-0.654498,-0.814493,-0.174533,-0.174533,-0.652003,-0.800238,-0.154028,-0.170576,-0.249528,-0.399139,-0.307574,-0.0593597
31,65,-0.654498,-0.814493,-0.174533,-0.174533,-0.652003,-0.800238,-0.154028,-0.170576,-0.249528,-0.399139,-0.307574,-0.0593597
31,65,-0.654498,-0.814493,-0.174533,-0.174533,-0.652003,-0.800238,-0.154028,-0.170576,-0.249528,-0.399139,-0.307574,-0.0593597
31,65,-0.654498,-0.814493,-0.174533,-0.174533,-0.652003,-0.800238,-0.154028,-0.170576,-0.249528,-0.399139,-0.307574,-0.0593597
31,65,-0.654498,-0.814493,-0.174533,-0.174533,-0.652003,-0.800238,-0.154028,-0.170576,-0.249528,-0.399139,-0.307574,-0.0593597
31,65,-0.654498,-0.814493,-0.174533,-0.174533,-0.652003,-0.800238,-0.154028,-0.170576,-0.249528,-0.399139,-0.307574,-0.0593597
31,65,-0.654498,-0.814493,-0.174533,-0.174533,-0.652003,-0.800238,-0.154028,-0.170576,-0.249528,-0.399139,-0.307574,-0.0593597
31,65,-0.654498,-0.814493,-0.174533,-0.174533,-0.652003,-0.800238,-0.154028,-0.170576,-0.249528,-0.399139,-0.307574,-0.0593597
31,65,-0.654498,-0.814493,-0.174533,-0.174533,-0.652003,-0.800238,-0.154028,-0.170576,-0.249528,-0.399139,-0.307574,-0.0593597
31,65,-0.654498,-0.814493,-0.174533,-0.174533,-0.652003,-0.800238,-0.154028,-0.170576,-0.249528,-0.399139,-0.307574,-0.0593597
31,65,-0.654498,-0.814493,-0.174533,-0.174533,-0.652003,-0.800238,-0.154028,-0.170576,-0.249528,-0.399139,-0.307574,-0.0593597
31,65,-0.654498,-0.814493,-0.174533,-0.174533,-0.652003,-0.800238,-0.154028,-0.170576,-0.249528,-0.399139,-0.307574,-0.0593597
31,65,-0.654498,-0.814493,-0.174533,-0.174533,-0.652003,-0.800238,-0.154028,-0.170576,-0.249528,-0.399139,-0.307574,-0.0593597
31,65,-0.654498,-0.814493,-0.174533,-0.174533,-0.652003,-0.800238,-0.154028,-0.170576,-0.249528,-0.399139,-0.307574,-0.0593597
31,65,-0.654498,-0.814493,-0.174533,-0.174533,-0.652003,-0.800238,-0.154026,-0.170516,-0.249528,-0.399139,-0.307605,-0.060254
31,65,-0.654498,-0.814493,-0.174533,-0.174533,-0.652003,-0.800238,-0.154026,-0.170516,-0.249528,-0.399139,-0.307605,-0.060254
31,65,-0.654498,-0.814493,-0.174533,-0.174533,-0.652003,-0.800238,-0.154026,-0.170516,-0.249528,-0.399139,-0.307605,-0.060254
31,65,-0.654498,-0.814493,-0.174533,-0.174533,-0.652003,-0.800238,-0.154026,-0.170516,-0.249528,-0.399139,-0.307605,-0.060254
31,65,-0.654498,-0.814493,-0.174533,-0.174533,-0.652003,-0.800238,-0.154026,-0.170516,-0.249528,-0.399139,-0.307605,-0.060254
31,65,-0.654498,-0.814493,-0.174533,-0.174533,-0.652003,-0.800238,-0.154026,-0.170516,-0.249528,-0.399139,-0.307605,-0.060254
31,65,-0.654498,-0.814493,-0.174533,-0.174533,-0.652003,-0.800238,-0.154026,-0.170516,-0.249528,-0.399139,-0.307605,-0.060254
31,65,-0.654498,-0.814493,-0.174533,-0.174533,-0.652003,-0.800238,-0.154026,-0.170516,-0.249528,-0.399139,-0.307605,-0.060254
31,65,-0.654498,-0.814493,-0.174533,-0.174533,-0.652003,-0.800238,-0.153966,-0.170536,-0.249528,-0.399139,-0.308499,-0.0599566
31,65,-0.654498,-0.814493,-0.174533,-0.174533,-0.652003,-0.800238,-0.153966,-0.170536,-0.249528,-0.399139,-0.308499,-0.0599566
31,65,-0.654498,-0.814493,-0.174533,-0.174533,-0.652003,-0.800238,-0.153966,-0.170536,-0.249528,-0.399139,-0.308499,-0.0599566
31,65,-0.654498,-0.814493,-0.174533,-0.174533,-0.652003,-0.800238,-0.153966,-0.170536,-0.249528,-0.399139,-0.308499,-0.0599566
31,65,-0.654498,-0.814493,-0.174533,-0.174533,-0.652003,-0.800238,-0.153966,-0.170536,-0.249528,-0.399139,-0.308499,-0.0599566
31,65,-0.654498,-0.814493,-0.174533,-0.174533,-0.652003,-0.800238,-0.153966,-0.170536,-0.249528,-0.399139,-0.308499,-0.0599566
31,65,-0.654498,-0.814493,-0.174533,-0.174533,-0.652003,-0.800238,-0.153966,-0.170536,-0.249528,-0.399139,-0.308499,-0.0599566
31,65,-0.654498,-0.814493,-0.174533,-0.174533,-0.652003,-0.800238,-0.153966,-0.170536,-0.249528,-0.399139,-0.308499,-0.0599566
31,65,-0.654498,-0.814493,-0.174533,-0.174533,-0.652003,-0.800238,-0.153966,-0.170536,-0.249528,-0.399139,-0.308499,-0.0599566
31,65,-0.654498,-0.814493,-0.174533,-0.174533,-0.652003,-0.800238,-0.153966,-0.170536,-0.249528,-0.399139,-0.308499,-0.0599566
31,65,-0.654498,-0.814493,-0.174533,-0.174533,-0.652003,-0.800238,-0.153966,-0.170536,-0.249528,-0.399139,-0.308499,-0.0599566
31,65,-0.654498,-0.814493,-0.174533,-0.174533,-0.652003,-0.800238,-0.153966,-0.170536,-0.249528,-0.399139,-0.308499,-0.0599566
31,65,-0.654498,-0.814493,-0.174533,-0.174533,-0.652003,-0.800238,-0.153966,-0.170536,-0.249528,-0.399139,-0.308499,-0.0599566
31,65,-0.654498,-0.814493,-0.174533,-0.174533,-0.652003,-0.800238,-0.153966,-0.170536,-0.249528,-0.399139,-0.308499,-0.0599566
31,65,-0.654498,-0.814493,-0.174533,-0.174533,-0.652003,-0.800238,-0.153966,-0.170536,-0.249528,-0.399139,-0.308499,-0.0599566
31,65,-0.654498,-0.814493,-0.174533,-0.174533,-0.652003,-0.800238,-0.153966,-0.170536,-0.249528,-0.399139,-0.308499,-0.0599566
31,65,-0.654498,-0.814493,-0.174533,-0.174533,-0.652003,-0.800238,-0.153966,-0.170536,-0.249528,-0.399139,-0.308499,-0.0599566
31,65,-0.654498,-0.814493,-0.174533,-0.174533,-0.652003,-0.800238,-0.153966,-0.170536,-0.249528,-0.399139,-0.308499,-0.0599566
31,65,-0.654498,-0.814493,-0.174533,-0.174533,-0.652003,-0.800238,-0.153966,-0.170536,-0.249528,-0.399139,-0.308499,-0.0599566
31,65,-0.654498,-0.814493,-0.174533,-0.174533,-0.652003,-0.800238,-0.153966,-0.170536,-0.249528,-0.399139,-0.308499,-0.0599566
31,65,-0.654498,-0.814493,-0.174533,-0.174533,-0.652003,-0.800238,-0.153966,-0.170536,-0.249528,-0.399139,-0.308499,-0.0599566
31,65,-0.654498,-0.814493,-0.174533,-0.174533,-0.652003,-0.800238,-0.153966,-0.170536,-0.249528,-0.399139,-0.308499,-0.0599566
31,65,-0.654498,-0.814493,-0.174533,-0.174533,-0.652003,-0.800238,-0.153966,-0.170536,-0.249528,-0.399139,-0.308499,-0.0599566
31,65,-0.654498,-0.814493,-0.174533,-0.174533,-0.652003,-0.800238,-0.153966,-0.170536,-0.249528,-0.399139,-0.308499,-0.0599566
31,65,-0.654498,-0.814493,-0.174533,-0.174533,-0.652003,-0.800238,-0.153966,-0.170536,-0.249528,-0.399139,-0.308499,-0.0599566
31,65,-0.654498,-0.814493,-0.174533,-0.174533,-0.652003,-0.800238,-0.153966,-0.170536,-0.249528,-0.399139,-0.308499,-0.0599566
31,65,-0.654498,-0.814493,-0.174533,-0.174533,-0.652003,-0.800238,-0.153966,-0.170536,-0.249528,-0.399139,-0.308499,-0.0599566
31,65,-0.654498,-0.814493,-0.174533,-0.174533,-0.652003,-0.800238,-0.153966,-0.170536,-0.249528,-0.399139,-0.308499,-0.0599566
31,65,-0.654498,-0.814493,-0.174533,-0.174533,-0.652003,-0.800238,-0.153966,-0.170536,-0.249528,-0.399139,-0.308499,-0.0599566
31,65,-0.654498,-0.814493,-0.174533,-0.174533,-0.652003,-0.800238,-0.153966,-0.170536,-0.249528,-0.399139,-0.308499,-0.0599566
31,65,-0.654498,-0.814493,-0.174533,-0.174533,-0.652003,-0.800238,-0.153966,-0.170536,-0.249528,-0.399139,-0.308499,-0.0599566
31,65,-0.654498,-0.814493,-0.174533,-0.174533,-0.652003,-0.800238,-0.153966,-0.170536,-0.249528,-0.399139,-0.308499,-0.0599566
31,65,-0.654498,-0.814493,-0.174533,-0.174533,-0.652003,-0.800238,-0.153966,-0.170536,-0.249528,-0.399139,-0.308499,-0.0599566
31,65,-0.654498,-0.814493,-0.174533,-0.174533,-0.652003,-0.800238,-0.153966,-0.170536,-0.249528,-0.399139,-0.308499,-0.0599566
31,65,-0.654498,-0.814493,-0.174533,-0.174533,-0.652003,-0.800238,-0.153966,-0.170536,-0.249528,-0.399139,-0.308499,-0.0599566
31,65,-0.654498,-0.814493,-0.174533,-0.174533,-0.652003,-0.800238,-0.153966,-0.170536,-0.249528,-0.399139,-0.308499,-0.0599566
31,65,-0.654498,-0.814493,-0.174533,-0.174533,-0.652003,-0.800238,-0.153966,-0.170536,-0.249528,-0.399139,-0.308499,-0.0599566
31,65,-0.654498,-0.814493,-0.174533,-0.174533,-0.652003,-0.800238,-0.153966,-0.170536,-0.249528,-0.399139,-0.308499,-0.0599566
31,65,-0.654498,-0.814493,-0.174533,-0.174533,-0.652003,-0.800238,-0.153966,-0.170536,-0.249528,-0.399139,-0.308499,-0.0599566
31,65,-0.654498,-0.814493,-0.174533,-0.174533,-0.652003,-0.800238,-0.153966,-0.170536,-0.249528,-0.399139,-0.308499,-0.0599566
31,65,-0.654498,-0.814493,-0.174533,-0.174533,-0.652003,-0.800238,-0.153966,-0.170536,-0.249528,-0.399139,-0.308499,-0.0599566
31,65,-0.654498,-0.814493,-0.174533,-0.174533,-0.652003,-0.800238,-0.153966,-0.170536,-0.249528,-0.399139,-0.308499,-0.0599566
31,65,-0.654498,-0.814493,-0.174533,-0.174533,-0.652003,-0.800238,-0.153966,-0.170536,-0.249528,-0.399139,-0.308499,-0.0599566
31,65,-0.654498,-0.814493,-0.174533,-0.174533,-0.652003,-0.800238,-0.153966,-0.170536,-0.249528,-0.399139,-0.308499,-0.0599566
31,65,-0.654498,-0.814493,-0.174533,-0.174533,-0.652003,-0.800238,-0.153966,-0.170536,-0.249528,-0.399139,-0.308499,-0.0599566
31,65,-0.654498,-0.814493,-0.174533,-0.174533,-0.652003,-0.800238,-0.153966,-0.170536,-0.249528,-0.399139,-0.308499,-0.0599566
31,65,-0.654498,-0.814493,-0.174533,-0.174533,-0.652003,-0.800238,-0.153966,-0.170536,-0.249528,-0.399139,-0.308499,-0.0599566
31,65,-0.654498,-0.814493,-0.174533,-0.174533,-0.652003,-0.800238,-0.153966,-0.170536,-0.249528,-0.399139,-0.308499,-0.0599566
31,65,-0.654498,-0.814493,-0.174533,-0.174533,-0.652003,-0.800238,-0.153966,-0.170536,-0.249528,-0.399139,-0.308499,-0.0599566
31,65,-0.654498,-0.814493,-0.174533,-0.174533,-0.652003,-0.800238,-0.153966,-0.170536,-0.249528,-0.399139,-0.308499,-0.0599566
31,65,-0.654498,-0.814493,-0.174533,-0.174533,-0.652003,-0.800238,-0.153966,-0.170536,-0.249528,-0.399139,-0.308499,-0.0599566
31,65,-0.654498,-0.814493,-0.174533,-0.174533,-0.652003,-0.800238,-0.153966,-0.170536,-0.249528,-0.399139,-0.308499,-0.0599566
31,65,-0.654498,-0.814493,-0.174533,-0.174533,-0.652003,-0.800238,-0.153966,-0.170536,-0.249528,-0.399139,-0.308499,-0.0599566
31,65,-0.654498,-0.814493,-0.174533,-0.174533,-0.652003,-0.800238,-0.153966,-0.170536,-0.249528,-0.399139,-0.308499,-0.0599566
31,65,-0.654498,-0.814493,-0.174533,-0.174533,-0.652003,-0.800238,-0.153966,-0.170536,-0.249528,-0.399139,-0.308499,-0.0599566
31,65,-0.654498,-0.814493,-0.174533,-0.174533,-0.652003,-0.800238,-0.153966,-0.170536,-0.249528,-0.399139,-0.308499,-0.0599566
31,65,-0.654498,-0.814493,-0.174533,-0.174533,-0.652003,-0.800238,-0.153966,-0.170536,-0.249528,-0.399139,-0.308499,-0.0599566
31,65,-0.654498,-0.814493,-0.174533,-0.174533,-0.652003,-0.800238,-0.153966,-0.170536,-0.249528,-0.399139,-0.308499,-0.0599566
31,65,-0.654498,-0.814493,-0.174533,-0.174533,-0.652003,-0.800238,-0.153966,-0.170536,-0.249528,-0.399139,-0.308499,-0.0599566
31,65,-0.654498,-0.814493,-0.174533,-0.174533,-0.652003,-0.800238,-0.153966,-0.170536,-0.249528,-0.399139,-0.308499,-0.0599566
31,65,-0.654498,-0.814493,-0.174533,-0.174533,-0.652003,-0.800238,-0.153966,-0.170536,-0.249528,-0.399139,-0.308499,-0.0599566
31,65,-0.654498,-0.814493,-0.174533,-0.174533,-0.652003,-0.800238,-0.153966,-0.170536,-0.249528,-0.399139,-0.308499,-0.0599566
31,65,-0.654498,-0.814493,-0.174533,-0.174533,-0.652003,-0.800238,-0.153966,-0.170536,-0.249528,-0.399139,-0.308499,-0.0599566
31,65,-0.654498,-0.814493,-0.174533,-0.174533,-0.652003,-0.800238,-0.153966,-0.170536,-0.249528,-0.399139,-0.308499,-0.0599566
31,65,-0.654498,-0.814493,-0.174533,-0.174533,-0.652003,-0.800238,-0.153966,-0.170536,-0.249528,-0.399139,-0.308499,-0.0599566
31,65,-0.654498,-0.814493,-0.174533,-0.174533,-0.652003,-0.800238,-0.153966,-0.170536,-0.249528,-0.399139,-0.308499,-0.0599566
31,65,-0.654498,-0.814493,-0.174533,-0.174533,-0.652003,-0.800238,-0.153966,-0.170536,-0.249528,-0.399139,-0.308499,-0.0599566
31,65,-0.654498,-0.814493,-0.174533,-0.174533,-0.652003,-0.800238,-0.153966,-0.170536,-0.249528,-0.399139,-0.308499,-0.0599566
31,65,-0.654498,-0.814493,-0.174533,-0.174533,-0.652003,-0.800238,-0.153966,-0.170536,-0.249528,-0.399139,-0.308499,-0.0599566
31,65,-0.654498,-0.814493,-0.174533,-0.174533,-0.652003,-0.800238,-0.153966,-0.170536,-0.249528,-0.399139,-0.308499,-0.0599566
31,65,-0.654498,-0.814493,-0.174533,-0.174533,-0.652003,-0.800238,-0.153966,-0.170536,-0.249528,-0.399139,-0.308499,-0.0599566
31,65,-0.654498,-0.814493,-0.174533,-0.174533,-0.652003,-0.800238,-0.153966,-0.170536,-0.249528,-0.399139,-0.308499,-0.0599566
31,65,-0.654498,-0.814493,-0.174533,-0.174533,-0.652003,-0.800238,-0.153966,-0.170536,-0.249528,-0.399139,-0.308499,-0.0599566
31,65,-0.654498,-0.814493,-0.174533,-0.174533,-0.652003,-0.800238,-0.153966,-0.170536,-0.249528,-0.399139,-0.308499,-0.0599566
31,65,-0.654498,-0.814493,-0.174533,-0.174533,-0.652003,-0.800238,-0.153966,-0.170536,-0.249528,-0.399139,-0.308499,-0.0599566
31,65,-0.654498,-0.814493,-0.174533,-0.174533,-0.652003,-0.800238,-0.153966,-0.170536,-0.249528,-0.399139,-0.308499,-0.0599566
31,65,-0.654498,-0.814493,-0.174533,-0.174533,-0.652003,-0.800238,-0.153966,-0.170536,-0.249528,-0.399139,-0.308499,-0.0599566
31,65,-0.654498,-0.814493,-0.174533,-0.174533,-0.652003,-0.800238,-0.153966,-0.170536,-0.249528,-0.399139,-0.308499,-0.0599566
31,65,-0.654498,-0.814493,-0.174533,-0.174533,-0.652003,-0.800238,-0.153966,-0.170536,-0.249528,-0.399139,-0.308499,-0.0599566
31,65,-0.654498,-0.814493,-0.174533,-0.174533,-0.652003,-0.800238,-0.153966,-0.170536,-0.249528,-0.399139,-0.308499,-0.0599566
31,65,-0.654498,-0.814493,-0.174533,-0.174533,-0.652003,-0.800238,-0.153966,-0.170536,-0.249528,-0.399139,-0.308499,-0.0599566
31,65,-0.654498,-0.814493,-0.174533,-0.174533,-0.652003,-0.800238,-0.153966,-0.170536,-0.249528,-0.399139,-0.308499,-0.0599566
31,65,-0.654498,-0.814493,-0.174533,-0.174533,-0.652003,-0.800238,-0.153966,-0.170536,-0.249528,-0.399139,-0.308499,-0.0599566
31,65,-0.654498,-0.814493,-0.174533,-0.174533,-0.652003,-0.800238,-0.153966,-0.170536,-0.249528,-0.399139,-0.308499,-0.0599566
31,65,-0.654498,-0.814493,-0.174533,-0.174533,-0.652003,-0.800238,-0.153966,-0.170536,-0.249528,-0.399139,-0.308499,-0.0599566
31,65,-0.654498,-0.814493,-0.174533,-0.174533,-0.652003,-0.800238,-0.153966,-0.170536,-0.249528,-0.399139,-0.308499,-0.0599566
31,65,-0.654498,-0.814493,-0.174533,-0.174533,-0.652003,-0.800238,-0.153966,-0.170536,-0.249528,-0.399139,-0.308499,-0.0599566
31,65,-0.654498,-0.814493,-0.174533,-0.174533,-0.652003,-0.800238,-0.153966,-0.170536,-0.249528,-0.399139,-0.308499,-0.0599566
31,65,-0.654498,-0.814493,-0.174533,-0.174533,-0.652003,-0.800238,-0.153966,-0.170536,-0.249528,-0.399139,-0.308499,-0.0599566
31,65,-0.654498,-0.814493,-0.174533,-0.174533,-0.652003,-0.800238,-0.153966,-0.170536,-0.249528,-0.399139,-0.308499,-0.0599566
31,65,-0.654498,-0.814493,-0.174533,-0.174533,-0.652003,-0.800238,-0.153966,-0.170536,-0.249528,-0.399139,-0.308499,-0.0599566
31,65,-0.654498,-0.814493,-0.174533,-0.174533,-0.652003,-0.800238,-0.153966,-0.170536,-0.249528,-0.399139,-0.308499,-0.0599566
31,65,-0.654498,-0.814493,-0.174533,-0.174533,-0.652003,-0.800238,-0.153966,-0.170536,-0.249528,-0.399139,-0.308499,-0.0599566
31,65,-0.654498,-0.814493,-0.174533,-0.174533,-0.652003,-0.800238,-0.153966,-0.170536,-0.249528,-0.399139,-0.308499,-0.0599566
31,65,-0.654498,-0.814493,-0.174533,-0.174533,-0.652003,-0.800238,-0.153966,-0.170536,-0.249528,-0.399139,-0.308499,-0.0599566
31,65,-0.654498,-0.814493,-0.174533,-0.174533,-0.652003,-0.800238,-0.153966,-0.170536,-0.249528,-0.399139,-0.308499,-0.0599566
31,65,-0.654498,-0.814493,-0.174533,-0.174533,-0.652003,-0.800238,-0.153966,-0.170536,-0.249528,-0.399139,-0.308499,-0.0599566
31,65,-0.654498,-0.814493,-0.174533,-0.174533,-0.652003,-0.800238,-0.153966,-0.170536,-0.249528,-0.399139,-0.308499,-0.0599566
31,65,-0.654498,-0.814493,-0.174533,-0.174533,-0.652003,-0.800238,-0.153966,-0.170536,-0.249528,-0.399139,-0.308499,-0.0599566
31,65,-0.654498,-0.814493,-0.174533,-0.174533,-0.652003,-0.800238,-0.153966,-0.170536,-0.249528,-0.399139,-0.308499,-0.0599566
31,65,-0.654498,-0.814493,-0.174533,-0.174533,-0.652003,-0.800238,-0.153966,-0.170536,-0.249528,-0.399139,-0.308499,-0.0599566
31,65,-0.654498,-0.814493,-0.174533,-0.174533,-0.652003,-0.800238,-0.153966,-0.170536,-0.249528,-0.399139,-0.308499,-0.0599566
31,65,-0.654498,-0.814493,-0.174533,-0.174533,-0.652003,-0.800238,-0.153966,-0.170536,-0.249528,-0.399139,-0.308499,-0.0599566
31,65,-0.654498,-0.814493,-0.174533,-0.174533,-0.652003,-0.800238,-0.153966,-0.170536,-0.249528,-0.399139,-0.308499,-0.0599566
31,65,-0.654498,-0.814493,-0.174533,-0.174533,-0.652003,-0.800238,-0.153966,-0.170536,-0.249528,-0.399139,-0.308499,-0.0599566
31,65,-0.654498,-0.814493,-0.174533,-0.174533,-0.652003,-0.800238,-0.153966,-0.170536,-0.249528,-0.399139,-0.308499,-0.0599566
31,65,-0.654498,-0.814493,-0.174533,-0.174533,-0.652003,-0.800238,-0.153966,-0.170536,-0.249528,-0.399139,-0.308499,-0.0599566
31,65,-0.654498,-0.814493,-0.174533,-0.174533,-0.652003,-0.800238,-0.153966,-0.170536,-0.249528,-0.399139,-0.308499,-0.0599566
31,65,-0.654498,-0.814493,-0.174533,-0.174533,-0.652003,-0.800238,-0.153966,-0.170536,-0.249528,-0.399139,-0.308499,-0.0599566
31,65,-0.654498,-0.814493,-0.174533,-0.174533,-0.652003,-0.800238,-0.153966,-0.170536,-0.249528,-0.399139,-0.308499,-0.0599566
31,65,-0.654498,-0.814493,-0.174533,-0.174533,-0.652003,-0.800238,-0.153966,-0.170536,-0.249528,-0.399139,-0.308499,-0.0599566
31,65,-0.654498,-0.814493,-0.174533,-0.174533,-0.652003,-0.800238,-0.153966,-0.170536,-0.249528,-0.399139,-0.308499,-0.0599566
31,65,-0.654498,-0.814493,-0.174533,-0.174533,-0.652003,-0.800238,-0.153966,-0.170536,-0.249528,-0.399139,-0.308499,-0.0599566
31,65,-0.654498,-0.814493,-0.174533,-0.174533,-0.652003,-0.800238,-0.153966,-0.170536,-0.249528,-0.399139,-0.308499,-0.0599566
31,65,-0.654498,-0.814493,-0.174533,-0.174533,-0.652003,-0.800238,-0.153966,-0.170536,-0.249528,-0.399139,-0.308499,-0.0599566
31,65,-0.654498,-0.814493,-0.174533,-0.174533,-0.652003,-0.800238,-0.153966,-0.170536,-0.249528,-0.399139,-0.308499,-0.0599566
31,65,-0.654498,-0.814493,-0.174533,-0.174533,-0.652003,-0.800238,-0.153966,-0.170536,-0.249528,-0.399139,-0.308499,-0.0599566
31,65,-0.654498,-0.814493,-0.174533,-0.174533,-0.652003,-0.800238,-0.153966,-0.170536,-0.249528,-0.399139,-0.308499,-0.0599566
31,65,-0.654498,-0.814493,-0.174533,-0.174533,-0.652003,-0.800238,-0.153966,-0.170536,-0.249528,-0.399139,-0.308499,-0.0599566
31,65,-0.654498,-0.814493,-0.174533,-0.174533,-0.652003,-0.800238,-0.153966,-0.170536,-0.249528,-0.399139,-0.308499,-0.0599566
31,65,-0.654498,-0.814493,-0.174533,-0.174533,-0.652003,-0.800238,-0.153966,-0.170536,-0.249528,-0.399139,-0.308499,-0.0599566
31,65,-0.654498,-0.814493,-0.174533,-0.174533,-0.652003,-0.800238,-0.153966,-0.170536,-0.249528,-0.399139,-0.308499,-0.0599566
31,65,-0.654498,-0.814493,-0.174533,-0.174533,-0.652003,-0.800238,-0.153966,-0.170536,-0.249528,-0.399139,-0.308499,-0.0599566
31,65,-0.654498,-0.814493,-0.174533,-0.174533,-0.652003,-0.800238,-0.153966,-0.170536,-0.249528,-0.399139,-0.308499,-0.0599566
31,65,-0.654498,-0.814493,-0.174533,-0.174533,-0.652003,-0.800238,-0.153966,-0.170536,-0.249528,-0.399139,-0.308499,-0.0599566
31,65,-0.654498,-0.814493,-0.174533,-0.174533,-0.652003,-0.800238,-0.153966,-0.170536,-0.249528,-0.399139,-0.308499,-0.0599566
31,65,-0.654498,-0.814493,-0.174533,-0.174533,-0.652003,-0.800238,-0.153966,-0.170536,-0.249528,-0.399139,-0.308499,-0.0599566
31,65,-0.654498,-0.814493,-0.174533,-0.174533,-0.652003,-0.800238,-0.153966,-0.170536,-0.249528,-0.399139,-0.308499,-0.0599566
31,65,-0.654498,-0.814493,-0.174533,-0.174533,-0.652003,-0.800238,-0.153966,-0.170536,-0.249528,-0.399139,-0.308499,-0.0599566
31,65,-0.654498,-0.814493,-0.174533,-0.174533,-0.652003,-0.800238,-0.153966,-0.170536,-0.249528,-0.399139,-0.308499,-0.0599566
31,65,-0.654498,-0.814493,-0.174533,-0.174533,-0.652003,-0.800238,-0.153966,-0.170536,-0.249528,-0.399139,-0.308499,-0.0599566
31,65,-0.654498,-0.814493,-0.174533,-0.174533,-0.652003,-0.800238,-0.153966,-0.170536,-0.249528,-0.399139,-0.308499,-0.0599566
31,65,-0.654498,-0.814493,-0.174533,-0.174533,-0.652003,-0.800238,-0.153966,-0.170536,-0.249528,-0.399139,-0.308499,-0.0599566
31,65,-0.654498,-0.814493,-0.174533,-0.174533,-0.652003,-0.800238,-0.153966,-0.170536,-0.249528,-0.399139,-0.308499,-0.0599566
31,65,-0.654498,-0.814493,-0.174533,-0.174533,-0.652003,-0.800238,-0.153966,-0.170536,-0.249528,-0.399139,-0.308499,-0.0599566
31,65,-0.654498,-0.814493,-0.174533,-0.174533,-0.652003,-0.800238,-0.153966,-0.170536,-0.249528,-0.399139,-0.308499,-0.0599566
31,65,-0.654498,-0.814493,-0.174533,-0.174533,-0.652003,-0.800238,-0.153966,-0.170536,-0.249528,-0.399139,-0.308499,-0.0599566
31,65,-0.654498,-0.814493,-0.174533,-0.174533,-0.652003,-0.800238,-0.153966,-0.170536,-0.249528,-0.399139,-0.308499,-0.0599566
31,65,-0.654498,-0.814493,-0.174533,-0.174533,-0.652003,-0.800238,-0.153966,-0.170536,-0.249528,-0.399139,-0.308499,-0.0599566
31,65,-0.654498,-0.814493,-0.174533,-0.174533,-0.652003,-0.800238,-0.153966,-0.170536,-0.249528,-0.399139,-0.308499,-0.0599566
31,65,-0.654498,-0.814493,-0.174533,-0.174533,-0.652003,-0.800238,-0.153966,-0.170536,-0.249528,-0.399139,-0.308499,-0.0599566
31,65,-0.654498,-0.814493,-0.174533,-0.174533,-0.652003,-0.800238,-0.153966,-0.170536,-0.249528,-0.399139,-0.308499,-0.0599566
31,65,-0.654498,-0.814493,-0.174533,-0.174533,-0.652003,-0.800238,-0.153966,-0.170536,-0.249528,-0.399139,-0.308499,-0.0599566
31,65,-0.654498,-0.814493,-0.174533,-0.174533,-0.652003,-0.800238,-0.153966,-0.170536,-0.249528,-0.399139,-0.308499,-0.0599566
31,65,-0.654498,-0.814493,-0.174533,-0.174533,-0.652003,-0.800238,-0.153966,-0.170536,-0.249528,-0.399139,-0.308499,-0.0599566
31,65,-0.654498,-0.814493,-0.174533,-0.174533,-0.652003,-0.800238,-0.153966,-0.170536,-0.249528,-0.399139,-0.308499,-0.0599566
31,65,-0.654498,-0.814493,-0.174533,-0.174533,-0.652003,-0.800238,-0.153966,-0.170536,-0.249528,-0.399139,-0.308499,-0.0599566
31,65,-0.654498,-0.814493,-0.174533,-0.174533,-0.652003,-0.800238,-0.153966,-0.170536,-0.249528,-0.399139,-0.308499,-0.0599566
31,65,-0.654498,-0.814493,-0.174533,-0.174533,-0.652003,-0.800238,-0.153966,-0.170536,-0.249528,-0.399139,-0.308499,-0.0599566
31,65,-0.654498,-0.814493,-0.174533,-0.174533,-0.652003,-0.800238,-0.153966,-0.170536,-0.249528,-0.399139,-0.308499,-0.0599566
31,65,-0.654498,-0.814493,-0.174533,-0.174533,-0.652003,-0.800238,-0.153966,-0.170536,-0.249528,-0.399139,-0.308499,-0.0599566
31,65,-0.654498,-0.814493,-0.174533,-0.174533,-0.652003,-0.800238,-0.153966,-0.170536,-0.249528,-0.399139,-0.308499,-0.0599566
31,65,-0.654498,-0.814493,-0.174533,-0.174533,-0.652003,-0.800238,-0.153966,-0.170536,-0.249528,-0.399139,-0.308499,-0.0599566
31,65,-0.654498,-0.814493,-0.174533,-0.174533,-0.652003,-0.800238,-0.153966,-0.170536,-0.249528,-0.399139,-0.308499,-0.0599566
31,65,-0.654498,-0.814493,-0.174533,-0.174533,-0.652003,-0.800238,-0.153966,-0.170536,-0.249528,-0.399139,-0.308499,-0.0599566
31,65,-0.654498,-0.814493,-0.174533,-0.174533,-0.652003,-0.800238,-0.153966,-0.170536,-0.249528,-0.399139,-0.308499,-0.0599566
31,65,-0.654498,-0.814493,-0.174533,-0.174533,-0.652003,-0.800238,-0.153966,-0.170536,-0.249528,-0.399139,-0.308499,-0.0599566
31,65,-0.654498,-0.814493,-0.174533,-0.174533,-0.652003,-0.800238,-0.153966,-0.170536,-0.249528,-0.399139,-0.308499,-0.0599566
31,65,-0.654498,-0.814493,-0.174533,-0.174533,-0.652003,-0.800238,-0.153966,-0.170536,-0.249528,-0.399139,-0.308499,-0.0599566
31,65,-0.654498,-0.814493,-0.174533,-0.174533,-0.652003,-0.800238,-0.153966,-0.170536,-0.249528,-0.399139,-0.308499,-0.0599566
31,65,-0.654498,-0.814493,-0.174533,-0.174533,-0.652003,-0.800238,-0.153966,-0.170536,-0.249528,-0.399139,-0.308499,-0.0599566
31,65,-0.654498,-0.814493,-0.174533,-0.174533,-0.652003,-0.800238,-0.153966,-0.170536,-0.249528,-0.399139,-0.308499,-0.0599566
31,65,-0.654498,-0.814493,-0.174533,-0.174533,-0.652003,-0.800238,-0.153966,-0.170536,-0.249528,-0.399139,-0.308499,-0.0599566
31,65,-0.654498,-0.814493,-0.174533,-0.174533,-0.652003,-0.800238,-0.153966,-0.170536,-0.249528,-0.399139,-0.308499,-0.0599566
31,65,-0.654498,-0.814493,-0.174533,-0.174533,-0.652003,-0.800238,-0.153966,-0.170536,-0.249528,-0.399139,-0.308499,-0.0599566
31,65,-0.654498,-0.814493,-0.174533,-0.174533,-0.652003,-0.800238,-0.153966,-0.170536,-0.249528,-0.399139,-0.308499,-0.0599566
31,65,-0.654498,-0.814493,-0.174533,-0.174533,-0.652003,-0.800238,-0.153966,-0.170536,-0.249528,-0.399139,-0.308499,-0.0599566
31,65,-0.654498,-0.814493,-0.174533,-0.174533,-0.652003,-0.800238,-0.153966,-0.170536,-0.249528,-0.399139,-0.308499,-0.0599566
31,65,-0.654498,-0.814493,-0.174533,-0.174533,-0.652003,-0.800238,-0.153966,-0.170536,-0.249528,-0.399139,-0.308499,-0.0599566
31,65,-0.654498,-0.814493,-0.174533,-0.174533,-0.652003,-0.800238,-0.153966,-0.170536,-0.249528,-0.399139,-0.308499,-0.0599566
31,65,-0.654498,-0.814493,-0.174533,-0.174533,-0.652003,-0.800238,-0.153966,-0.170536,-0.249528,-0.399139,-0.308499,-0.0599566
31,65,-0.654498,-0.814493,-0.174533,-0.174533,-0.652003,-0.800238,-0.153966,-0.170536,-0.249528,-0.399139,-0.308499,-0.0599566
31,65,-0.654498,-0.814493,-0.174533,-0.174533,-0.652003,-0.800238,-0.153966,-0.170536,-0.249528,-0.399139,-0.308499,-0.0599566
31,65,-0.654498,-0.814493,-0.174533,-0.174533,-0.652003,-0.800238,-0.153966,-0.170536,-0.249528,-0.399139,-0.308499,-0.0599566
31,65,-0.654498,-0.814493,-0.174533,-0.174533,-0.652003,-0.800238,-0.153966,-0.170536,-0.249528,-0.399139,-0.308499,-0.0599566
31,65,-0.654498,-0.814493,-0.174533,-0.174533,-0.652003,-0.800238,-0.153966,-0.170536,-0.249528,-0.399139,-0.308499,-0.0599566
31,65,-0.654498,-0.814493,-0.174533,-0.174533,-0.652003,-0.800238,-0.153966,-0.170536,-0.249528,-0.399139,-0.308499,-0.0599566
31,65,-0.654498,-0.814493,-0.174533,-0.174533,-0.652003,-0.800238,-0.153966,-0.170536,-0.249528,-0.399139,-0.308499,-0.0599566
31,65,-0.654498,-0.814493,-0.174533,-0.174533,-0.652003,-0.800238,-0.153966,-0.170536,-0.249528,-0.399139,-0.308499,-0.0599566
31,65,-0.654498,-0.814493,-0.174533,-0.174533,-0.652003,-0.800238,-0.153966,-0.170536,-0.249528,-0.399139,-0.308499,-0.0599566
31,65,-0.654498,-0.814493,-0.174533,-0.174533,-0.652003,-0.800238,-0.153966,-0.170536,-0.249528,-0.399139,-0.308499,-0.0599566
31,65,-0.654498,-0.814493,-0.174533,-0.174533,-0.652003,-0.800238,-0.153966,-0.170536,-0.249528,-0.399139,-0.308499,-0.0599566
31,65,-0.654498,-0.814493,-0.174533,-0.174533,-0.652003,-0.800238,-0.153966,-0.170536,-0.249528,-0.399139,-0.308499,-0.0599566
31,65,-0.654498,-0.814493,-0.174533,-0.174533,-0.652003,-0.800238,-0.153966,-0.170536,-0.249528,-0.399139,-0.308499,-0.0599566
31,65,-0.654498,-0.814493,-0.174533,-0.174533,-0.652003,-0.800238,-0.153966,-0.170536,-0.249528,-0.399139,-0.308499,-0.0599566
31,65,-0.654498,-0.814493,-0.174533,-0.174533,-0.652003,-0.800238,-0.153966,-0.170536,-0.249528,-0.399139,-0.308499,-0.0599566
31,65,-0.654498,-0.814493,-0.174533,-0.174533,-0.652003,-0.800238,-0.153966,-0.170536,-0.249528,-0.399139,-0.308499,-0.0599566
31,65,-0.654498,-0.814493,-0.174533,-0.174533,-0.652003,-0.800238,-0.153966,-0.170536,-0.249528,-0.399139,-0.308499,-0.0599566
31,65,-0.654498,-0.814493,-0.174533,-0.174533,-0.652003,-0.800238,-0.153966,-0.170536,-0.249528,-0.399139,-0.308499,-0.0599566
31,65,-0.654498,-0.814493,-0.174533,-0.174533,-0.652003,-0.800238,-0.153966,-0.170536,-0.249528,-0.399139,-0.308499,-0.0599566
31,65,-0.654498,-0.814493,-0.174533,-0.174533,-0.652003,-0.800238,-0.153966,-0.170536,-0.249528,-0.399139,-0.308499,-0.0599566
31,65,-0.654498,-0.814493,-0.174533,-0.174533,-0.652003,-0.800238,-0.153966,-0.170536,-0.249528,-0.399139,-0.308499,-0.0599566
31,65,-0.654498,-0.814493,-0.174533,-0.174533,-0.652003,-0.800238,-0.153966,-0.170536,-0.249528,-0.399139,-0.308499,-0.0599566
31,65,-0.654498,-0.814493,-0.174533,-0.174533,-0.652003,-0.800238,-0.153966,-0.170536,-0.249528,-0.399139,-0.308499,-0.0599566
31,65,-0.654498,-0.814493,-0.174533,-0.174533,-0.652003,-0.800238,-0.153966,-0.170536,-0.249528,-0.399139,-0.308499,-0.0599566
31,65,-0.654498,-0.814493,-0.174533,-0.174533,-0.652003,-0.800238,-0.153966,-0.170536,-0.249528,-0.399139,-0.308499,-0.0599566
31,65,-0.654498,-0.814493,-0.174533,-0.174533,-0.652003,-0.800238,-0.153966,-0.170536,-0.249528,-0.399139,-0.308499,-0.0599566
31,65,-0.654498,-0.814493,-0.174533,-0.174533,-0.652003,-0.800238,-0.153966,-0.170536,-0.249528,-0.399139,-0.308499,-0.0599566
31,65,-0.654498,-0.814493,-0.174533,-0.174533,-0.652003,-0.800238,-0.153966,-0.170536,-0.249528,-0.399139,-0.308499,-0.0599566
31,65,-0.654498,-0.814493,-0.174533,-0.174533,-0.652003,-0.800238,-0.153966,-0.170536,-0.249528,-0.399139,-0.308499,-0.0599566
31,65,-0.654498,-0.814493,-0.174533,-0.174533,-0.652003,-0.800238,-0.153966,-0.170536,-0.249528,-0.399139,-0.308499,-0.0599566
31,65,-0.654498,-0.814493,-0.174533,-0.174533,-0.652003,-0.800238,-0.153966,-0.170536,-0.249528,-0.399139,-0.308499,-0.0599566
31,65,-0.654498,-0.814493,-0.174533,-0.174533,-0.652003,-0.800238,-0.15403,-0.170577,-0.249528,-0.399139,-0.307538,-0.0593333
31,65,-0.654498,-0.814493,-0.174533,-0.174533,-0.652003,-0.800238,-0.15403,-0.170577,-0.249528,-0.399139,-0.307538,-0.0593333
31,65,-0.654498,-0.814493,-0.174533,-0.174533,-0.652003,-0.800238,-0.15403,-0.170577,-0.249528,-0.399139,-0.307538,-0.0593333
31,65,-0.654498,-0.814493,-0.174533,-0.174533,-0.652003,-0.800238,-0.15403,-0.170577,-0.249528,-0.399139,-0.307538,-0.0593333
31,65,-0.654498,-0.814493,-0.174533,-0.174533,-0.652003,-0.800238,-0.15403,-0.170577,-0.249528,-0.399139,-0.307538,-0.0593333
31,65,-0.654498,-0.814493,-0.174533,-0.174533,-0.652003,-0.800238,-0.15403,-0.170577,-0.249528,-0.399139,-0.307538,-0.0593333
31,65,-0.654498,-0.814493,-0.174533,-0.174533,-0.652003,-0.800238,-0.15403,-0.170577,-0.249528,-0.399139,-0.307538,-0.0593333
31,65,-0.654498,-0.814493,-0.174533,-0.174533,-0.652003,-0.800238,-0.15403,-0.170577,-0.249528,-0.399139,-0.307538,-0.0593333
31,65,-0.654498,-0.814493,-0.174533,-0.174533,-0.652003,-0.800238,-0.15403,-0.170577,-0.249528,-0.399139,-0.307538,-0.0593333
31,65,-0.654498,-0.814493,-0.174533,-0.174533,-0.652003,-0.800238,-0.15403,-0.170577,-0.249528,-0.399139,-0.307538,-0.0593333
31,65,-0.654498,-0.814493,-0.174533,-0.174533,-0.652003,-0.800238,-0.15403,-0.170577,-0.249528,-0.399139,-0.307538,-0.0593333
31,65,-0.654498,-0.814493,-0.174533,-0.174533,-0.652003,-0.800238,-0.15403,-0.170577,-0.249528,-0.399139,-0.307538,-0.0593333
31,65,-0.654498,-0.814493,-0.174533,-0.174533,-0.652003,-0.800238,-0.15403,-0.170577,-0.249528,-0.399139,-0.307538,-0.0593333
31,65,-0.654498,-0.814493,-0.174533,-0.174533,-0.652003,-0.800238,-0.15403,-0.170577,-0.249528,-0.399139,-0.307538,-0.0593333
31,65,-0.654498,-0.814493,-0.174533,-0.174533,-0.652003,-0.800238,-0.15403,-0.170577,-0.249528,-0.399139,-0.307538,-0.0593333
31,65,-0.654498,-0.814493,-0.174533,-0.174533,-0.652003,-0.800238,-0.15403,-0.170577,-0.249528,-0.399139,-0.307538,-0.0593333
31,65,-0.654498,-0.814493,-0.174533,-0.174533,-0.652003,-0.800238,-0.15403,-0.170577,-0.249528,-0.399139,-0.307538,-0.0593333
31,65,-0.654498,-0.814493,-0.174533,-0.174533,-0.652003,-0.800238,-0.15403,-0.170577,-0.249528,-0.399139,-0.307538,-0.0593333
31,65,-0.654498,-0.814493,-0.174533,-0.174533,-0.652003,-0.800238,-0.15403,-0.170577,-0.249528,-0.399139,-0.307538,-0.0593333
31,65,-0.654498,-0.814493,-0.174533,-0.174533,-0.652003,-0.800238,-0.15403,-0.170577,-0.249528,-0.399139,-0.307538,-0.0593333
31,65,-0.654498,-0.814493,-0.174533,-0.174533,-0.652003,-0.800238,-0.15403,-0.170577,-0.249528,-0.399139,-0.307538,-0.0593333
31,65,-0.654498,-0.814493,-0.174533,-0.174533,-0.652003,-0.800238,-0.15403,-0.170577,-0.249528,-0.399139,-0.307538,-0.0593333
31,65,-0.654498,-0.814493,-0.174533,-0.174533,-0.652003,-0.800238,-0.15403,-0.170577,-0.249528,-0.399139,-0.307538,-0.0593333
31,65,-0.654498,-0.814493,-0.174533,-0.174533,-0.652003,-0.800238,-0.15403,-0.170577,-0.249528,-0.399139,-0.307538,-0.0593333
31,65,-0.654498,-0.814493,-0.174533,-0.174533,-0.652003,-0.800238,-0.154094,-0.170619,-0.249528,-0.399139,-0.306578,-0.0587099
31,65,-0.654498,-0.814493,-0.174533,-0.174533,-0.652003,-0.800238,-0.154094,-0.170619,-0.249528,-0.399139,-0.306578,-0.0587099
31,65,-0.654498,-0.814493,-0.174533,-0.174533,-0.652003,-0.800238,-0.154094,-0.170619,-0.249528,-0.399139,-0.306578,-0.0587099
31,65,-0.654498,-0.814493,-0.174533,-0.174533,-0.652003,-0.800238,-0.154094,-0.170619,-0.249528,-0.399139,-0.306578,-0.0587099
31,65,-0.654498,-0.814493,-0.174533,-0.174533,-0.652003,-0.800238,-0.154094,-0.170619,-0.249528,-0.399139,-0.306578,-0.0587099
31,65,-0.654498,-0.814493,-0.174533,-0.174533,-0.652003,-0.800238,-0.154094,-0.170619,-0.249528,-0.399139,-0.306578,-0.0587099
31,65,-0.654498,-0.814493,-0.174533,-0.174533,-0.652003,-0.800238,-0.154094,-0.170619,-0.249528,-0.399139,-0.306578,-0.0587099
31,65,-0.654498,-0.814493,-0.174533,-0.174533,-0.652003,-0.800238,-0.154094,-0.170619,-0.249528,-0.399139,-0.306578,-0.0587099
31,65,-0.654498,-0.814493,-0.174533,-0.174533,-0.652003,-0.800238,-0.154094,-0.170619,-0.249528,-0.399139,-0.306578,-0.0587099
31,65,-0.654498,-0.814493,-0.174533,-0.174533,-0.652003,-0.800238,-0.154094,-0.170619,-0.249528,-0.399139,-0.306578,-0.0587099
31,65,-0.654498,-0.814493,-0.174533,-0.174533,-0.652003,-0.800238,-0.154094,-0.170619,-0.249528,-0.399139,-0.306578,-0.0587099
31,65,-0.654498,-0.814493,-0.174533,-0.174533,-0.652003,-0.800238,-0.154094,-0.170619,-0.249528,-0.399139,-0.306578,-0.0587099
31,65,-0.654498,-0.814493,-0.174533,-0.174533,-0.652003,-0.800238,-0.154094,-0.170619,-0.249528,-0.399139,-0.306578,-0.0587099
31,65,-0.654498,-0.814493,-0.174533,-0.174533,-0.652003,-0.800238,-0.154094,-0.170619,-0.249528,-0.399139,-0.306578,-0.0587099
31,65,-0.654498,-0.814493,-0.174533,-0.174533,-0.652003,-0.800238,-0.154094,-0.170619,-0.249528,-0.399139,-0.306578,-0.0587099
31,65,-0.654498,-0.814493,-0.174533,-0.174533,-0.652003,-0.800238,-0.154094,-0.170619,-0.249528,-0.399139,-0.306578,-0.0587099
31,65,-0.654498,-0.814493,-0.174533,-0.174533,-0.652003,-0.800238,-0.154094,-0.170619,-0.249528,-0.399139,-0.306578,-0.0587099
31,65,-0.654498,-0.814493,-0.174533,-0.174533,-0.652003,-0.800238,-0.154094,-0.170619,-0.249528,-0.399139,-0.306578,-0.0587099
31,65,-0.654498,-0.814493,-0.174533,-0.174533,-0.652003,-0.800238,-0.154094,-0.170619,-0.249528,-0.399139,-0.306578,-0.0587099
31,65,-0.654498,-0.814493,-0.174533,-0.174533,-0.652003,-0.800238,-0.154094,-0.170619,-0.249528,-0.399139,-0.306578,-0.0587099
31,65,-0.654498,-0.814493,-0.174533,-0.174533,-0.652003,-0.800238,-0.154094,-0.170619,-0.249528,-0.399139,-0.306578,-0.0587099
31,65,-0.654498,-0.814493,-0.174533,-0.174533,-0.652003,-0.800238,-0.154094,-0.170619,-0.249528,-0.399139,-0.306578,-0.0587099
31,65,-0.654498,-0.814493,-0.174533,-0.174533,-0.652003,-0.800238,-0.154094,-0.170619,-0.249528,-0.399139,-0.306578,-0.0587099
31,65,-0.654498,-0.814493,-0.174533,-0.174533,-0.652003,-0.800238,-0.154094,-0.170619,-0.249528,-0.399139,-0.306578,-0.0587099
31,65,-0.654498,-0.814493,-0.174533,-0.174533,-0.652003,-0.800238,-0.154094,-0.170619,-0.249528,-0.399139,-0.306578,-0.0587099
31,65,-0.654498,-0.814493,-0.174533,-0.174533,-0.652003,-0.800238,-0.154094,-0.170619,-0.249528,-0.399139,-0.306578,-0.0587099
31,65,-0.654498,-0.814493,-0.174533,-0.174533,-0.652003,-0.800238,-0.154094,-0.170619,-0.249528,-0.399139,-0.306578,-0.0587099
31,65,-0.654498,-0.814493,-0.174533,-0.174533,-0.652003,-0.800238,-0.154094,-0.170619,-0.249528,-0.399139,-0.306578,-0.0587099
31,65,-0.654498,-0.814493,-0.174533,-0.174533,-0.652003,-0.800238,-0.154094,-0.170619,-0.249528,-0.399139,-0.306578,-0.0587099
31,65,-0.654498,-0.814493,-0.174533,-0.174533,-0.652003,-0.800238,-0.154094,-0.170619,-0.249528,-0.399139,-0.306578,-0.0587099
31,65,-0.654498,-0.814493,-0.174533,-0.174533,-0.652003,-0.800238,-0.154094,-0.170619,-0.249528,-0.399139,-0.306578,-0.0587099
31,65,-0.654498,-0.814493,-0.174533,-0.174533,-0.652003,-0.800238,-0.154094,-0.170619,-0.249528,-0.399139,-0.306578,-0.0587099
31,65,-0.654498,-0.814493,-0.174533,-0.174533,-0.652003,-0.800238,-0.154094,-0.170619,-0.249528,-0.399139,-0.306578,-0.0587099
31,65,-0.654498,-0.814493,-0.174533,-0.174533,-0.652003,-0.800238,-0.154094,-0.170619,-0.249528,-0.399139,-0.306578,-0.0587099
31,65,-0.654498,-0.814493,-0.174533,-0.174533,-0.652003,-0.800238,-0.154094,-0.170619,-0.249528,-0.399139,-0.306578,-0.0587099
31,65,-0.654498,-0.814493,-0.174533,-0.174533,-0.652003,-0.800238,-0.154094,-0.170619,-0.249528,-0.399139,-0.306578,-0.0587099
31,65,-0.654498,-0.814493,-0.174533,-0.174533,-0.652003,-0.800238,-0.154094,-0.170619,-0.249528,-0.399139,-0.306578,-0.0587099
31,65,-0.654498,-0.814493,-0.174533,-0.174533,-0.652003,-0.800238,-0.154094,-0.170619,-0.249528,-0.399139,-0.306578,-0.0587099
31,65,-0.654498,-0.814493,-0.174533,-0.174533,-0.652003,-0.800238,-0.154094,-0.170619,-0.249528,-0.399139,-0.306578,-0.0587099
31,65,-0.654498,-0.814493,-0.174533,-0.174533,-0.652003,-0.800238,-0.154094,-0.170619,-0.249528,-0.399139,-0.306578,-0.0587099
31,65,-0.654498,-0.814493,-0.174533,-0.174533,-0.652003,-0.800238,-0.154094,-0.170619,-0.249528,-0.399139,-0.306578,-0.0587099
31,65,-0.654498,-0.814493,-0.174533,-0.174533,-0.652003,-0.800238,-0.154094,-0.170619,-0.249528,-0.399139,-0.306578,-0.0587099
31,65,-0.654498,-0.814493,-0.174533,-0.174533,-0.652003,-0.800238,-0.154094,-0.170619,-0.249528,-0.399139,-0.306578,-0.0587099
31,65,-0.654498,-0.814493,-0.174533,-0.174533,-0.652003,-0.800238,-0.154094,-0.170619,-0.249528,-0.399139,-0.306578,-0.0587099
31,65,-0.654498,-0.814493,-0.174533,-0.174533,-0.652003,-0.800238,-0.154094,-0.170619,-0.249528,-0.399139,-0.306578,-0.0587099
31,65,-0.654498,-0.814493,-0.174533,-0.174533,-0.652003,-0.800238,-0.154094,-0.170619,-0.249528,-0.399139,-0.306578,-0.0587099
31,65,-0.654498,-0.814493,-0.174533,-0.174533,-0.652003,-0.800238,-0.154094,-0.170619,-0.249528,-0.399139,-0.306578,-0.0587099
31,65,-0.654498,-0.814493,-0.174533,-0.174533,-0.652003,-0.800238,-0.154094,-0.170619,-0.249528,-0.399139,-0.306578,-0.0587099
31,65,-0.654498,-0.814493,-0.174533,-0.174533,-0.652003,-0.800238,-0.154094,-0.170619,-0.249528,-0.399139,-0.306578,-0.0587099
31,65,-0.654498,-0.814493,-0.174533,-0.174533,-0.652003,-0.800238,-0.154094,-0.170619,-0.249528,-0.399139,-0.306578,-0.0587099
31,65,-0.654498,-0.814493,-0.174533,-0.174533,-0.652003,-0.800238,-0.154094,-0.170619,-0.249528,-0.399139,-0.306578,-0.0587099
31,65,-0.654498,-0.814493,-0.174533,-0.174533,-0.652003,-0.800238,-0.154094,-0.170619,-0.249528,-0.399139,-0.306578,-0.0587099
31,65,-0.654498,-0.814493,-0.174533,-0.174533,-0.652003,-0.800238,-0.154094,-0.170619,-0.249528,-0.399139,-0.306578,-0.0587099
31,65,-0.654498,-0.814493,-0.174533,-0.174533,-0.652003,-0.800238,-0.154094,-0.170619,-0.249528,-0.399139,-0.306578,-0.0587099
31,65,-0.654498,-0.814493,-0.174533,-0.174533,-0.652003,-0.800238,-0.154094,-0.170619,-0.249528,-0.399139,-0.306578,-0.0587099
31,65,-0.654498,-0.814493,-0.174533,-0.174533,-0.652003,-0.800238,-0.154094,-0.170619,-0.249528,-0.399139,-0.306578,-0.0587099
31,65,-0.654498,-0.814493,-0.174533,-0.174533,-0.652003,-0.800238,-0.154094,-0.170619,-0.249528,-0.399139,-0.306578,-0.0587099
31,65,-0.654498,-0.814493,-0.174533,-0.174533,-0.652003,-0.800238,-0.154094,-0.170619,-0.249528,-0.399139,-0.306578,-0.0587099
31,65,-0.654498,-0.814493,-0.174533,-0.174533,-0.652003,-0.800238,-0.154094,-0.170619,-0.249528,-0.399139,-0.306578,-0.0587099
31,65,-0.654498,-0.814493,-0.174533,-0.174533,-0.652003,-0.800238,-0.154094,-0.170619,-0.249528,-0.399139,-0.306578,-0.0587099
31,65,-0.654498,-0.814493,-0.174533,-0.174533,-0.652003,-0.800238,-0.154094,-0.170619,-0.249528,-0.399139,-0.306578,-0.0587099
31,65,-0.654498,-0.814493,-0.174533,-0.174533,-0.652003,-0.800238,-0.154094,-0.170619,-0.249528,-0.399139,-0.306578,-0.0587099
31,65,-0.654498,-0.814493,-0.174533,-0.174533,-0.652003,-0.800238,-0.154094,-0.170619,-0.249528,-0.399139,-0.306578,-0.0587099
31,65,-0.654498,-0.814493,-0.174533,-0.174533,-0.652003,-0.800238,-0.154094,-0.170619,-0.249528,-0.399139,-0.306578,-0.0587099
31,65,-0.654498,-0.814493,-0.174533,-0.174533,-0.652003,-0.800238,-0.154094,-0.170619,-0.249528,-0.399139,-0.306578,-0.0587099
31,65,-0.654498,-0.814493,-0.174533,-0.174533,-0.652003,-0.800238,-0.154094,-0.170619,-0.249528,-0.399139,-0.306578,-0.0587099
31,65,-0.654498,-0.814493,-0.174533,-0.174533,-0.652003,-0.800238,-0.154094,-0.170619,-0.249528,-0.399139,-0.306578,-0.0587099
31,65,-0.654498,-0.814493,-0.174533,-0.174533,-0.652003,-0.800238,-0.154094,-0.170619,-0.249528,-0.399139,-0.306578,-0.0587099
31,65,-0.654498,-0.814493,-0.174533,-0.174533,-0.652003,-0.800238,-0.154094,-0.170619,-0.249528,-0.399139,-0.306578,-0.0587099
31,65,-0.654498,-0.814493,-0.174533,-0.174533,-0.652003,-0.800238,-0.154094,-0.170619,-0.249528,-0.399139,-0.306578,-0.0587099
31,65,-0.654498,-0.814493,-0.174533,-0.174533,-0.652003,-0.800238,-0.154094,-0.170619,-0.249528,-0.399139,-0.306578,-0.0587099
31,65,-0.654498,-0.814493,-0.174533,-0.174533,-0.652003,-0.800238,-0.154094,-0.170619,-0.249528,-0.399139,-0.306578,-0.0587099
31,65,-0.654498,-0.814493,-0.174533,-0.174533,-0.652003,-0.800238,-0.154094,-0.170619,-0.249528,-0.399139,-0.306578,-0.0587099
31,65,-0.654498,-0.814493,-0.174533,-0.174533,-0.652003,-0.800238,-0.154094,-0.170619,-0.249528,-0.399139,-0.306578,-0.0587099
31,65,-0.654498,-0.814493,-0.174533,-0.174533,-0.652003,-0.800238,-0.154158,-0.17066,-0.249528,-0.399139,-0.305617,-0.0580864
31,65,-0.654498,-0.814493,-0.174533,-0.174533,-0.652003,-0.800238,-0.154158,-0.17066,-0.249528,-0.399139,-0.305617,-0.0580864
31,65,-0.654498,-0.814493,-0.174533,-0.174533,-0.652003,-0.800238,-0.154158,-0.17066,-0.249528,-0.399139,-0.305617,-0.0580864
31,65,-0.654498,-0.814493,-0.174533,-0.174533,-0.652003,-0.800238,-0.154158,-0.17066,-0.249528,-0.399139,-0.305617,-0.0580864
31,65,-0.654498,-0.814493,-0.174533,-0.174533,-0.652003,-0.800238,-0.154158,-0.17066,-0.249528,-0.399139,-0.305617,-0.0580864
31,65,-0.654498,-0.814493,-0.174533,-0.174533,-0.652003,-0.800238,-0.154158,-0.17066,-0.249528,-0.399139,-0.305617,-0.0580864
31,65,-0.654498,-0.814493,-0.174533,-0.174533,-0.652003,-0.800238,-0.154158,-0.17066,-0.249528,-0.399139,-0.305617,-0.0580864
31,65,-0.654498,-0.814493,-0.174533,-0.174533,-0.652003,-0.800238,-0.154158,-0.17066,-0.249528,-0.399139,-0.305617,-0.0580864
31,65,-0.654498,-0.814493,-0.174533,-0.174533,-0.652003,-0.800238,-0.154158,-0.17066,-0.249528,-0.399139,-0.305617,-0.0580864
31,65,-0.654498,-0.814493,-0.174533,-0.174533,-0.652003,-0.800238,-0.154158,-0.17066,-0.249528,-0.399139,-0.305617,-0.0580864
31,65,-0.654498,-0.814493,-0.174533,-0.174533,-0.652003,-0.800238,-0.154158,-0.17066,-0.249528,-0.399139,-0.305617,-0.0580864
31,65,-0.654498,-0.814493,-0.174533,-0.174533,-0.652003,-0.800238,-0.154158,-0.17066,-0.249528,-0.399139,-0.305617,-0.0580864
31,65,-0.654498,-0.814493,-0.174533,-0.174533,-0.652003,-0.800238,-0.154158,-0.17066,-0.249528,-0.399139,-0.305617,-0.0580864
31,65,-0.654498,-0.814493,-0.174533,-0.174533,-0.652003,-0.800238,-0.154158,-0.17066,-0.249528,-0.399139,-0.305617,-0.0580864
31,65,-0.654498,-0.814493,-0.174533,-0.174533,-0.652003,-0.800238,-0.154158,-0.17066,-0.249528,-0.399139,-0.305617,-0.0580864
31,65,-0.654498,-0.814493,-0.174533,-0.174533,-0.652003,-0.800238,-0.154158,-0.17066,-0.249528,-0.399139,-0.305617,-0.0580864
31,65,-0.654498,-0.814493,-0.174533,-0.174533,-0.652003,-0.800238,-0.154158,-0.17066,-0.249528,-0.399139,-0.305617,-0.0580864
31,65,-0.654498,-0.814493,-0.174533,-0.174533,-0.652003,-0.800238,-0.154158,-0.17066,-0.249528,-0.399139,-0.305617,-0.0580864
31,65,-0.654498,-0.814493,-0.174533,-0.174533,-0.652003,-0.800238,-0.154158,-0.17066,-0.249528,-0.399139,-0.305617,-0.0580864
31,65,-0.654498,-0.814493,-0.174533,-0.174533,-0.652003,-0.800238,-0.154158,-0.17066,-0.249528,-0.399139,-0.305617,-0.0580864
31,65,-0.654498,-0.814493,-0.174533,-0.174533,-0.652003,-0.800238,-0.154158,-0.17066,-0.249528,-0.399139,-0.305617,-0.0580864
31,65,-0.654498,-0.814493,-0.174533,-0.174533,-0.652003,-0.800238,-0.154158,-0.17066,-0.249528,-0.399139,-0.305617,-0.0580864
31,65,-0.654498,-0.814493,-0.174533,-0.174533,-0.652003,-0.800238,-0.154158,-0.17066,-0.249528,-0.399139,-0.305617,-0.0580864
31,65,-0.654498,-0.814493,-0.174533,-0.174533,-0.652003,-0.800238,-0.154158,-0.17066,-0.249528,-0.399139,-0.305617,-0.0580864
31,65,-0.654498,-0.814493,-0.174533,-0.174533,-0.652003,-0.800238,-0.154158,-0.17066,-0.249528,-0.399139,-0.305617,-0.0580864
31,65,-0.654498,-0.814493,-0.174533,-0.174533,-0.652003,-0.800238,-0.154158,-0.17066,-0.249528,-0.399139,-0.305617,-0.0580864
31,65,-0.654498,-0.814493,-0.174533,-0.174533,-0.652003,-0.800238,-0.154158,-0.17066,-0.249528,-0.399139,-0.305617,-0.0580864
31,65,-0.654498,-0.814493,-0.174533,-0.174533,-0.652003,-0.800238,-0.154158,-0.17066,-0.249528,-0.399139,-0.305617,-0.0580864
31,65,-0.654498,-0.814493,-0.174533,-0.174533,-0.652003,-0.800238,-0.154158,-0.17066,-0.249528,-0.399139,-0.305617,-0.0580864
31,65,-0.654498,-0.814493,-0.174533,-0.174533,-0.652003,-0.800238,-0.154158,-0.17066,-0.249528,-0.399139,-0.305617,-0.0580864
31,65,-0.654498,-0.814493,-0.174533,-0.174533,-0.652003,-0.800238,-0.154158,-0.17066,-0.249528,-0.399139,-0.305617,-0.0580864
31,65,-0.654498,-0.814493,-0.174533,-0.174533,-0.652003,-0.800238,-0.154158,-0.17066,-0.249528,-0.399139,-0.305617,-0.0580864
31,65,-0.654498,-0.814493,-0.174533,-0.174533,-0.652003,-0.800238,-0.154158,-0.17066,-0.249528,-0.399139,-0.305617,-0.0580864
31,65,-0.654498,-0.814493,-0.174533,-0.174533,-0.652003,-0.800238,-0.154158,-0.17066,-0.249528,-0.399139,-0.305617,-0.0580864
31,65,-0.654498,-0.814493,-0.174533,-0.174533,-0.652003,-0.800238,-0.154158,-0.17066,-0.249528,-0.399139,-0.305617,-0.0580864
31,65,-0.654498,-0.814493,-0.174533,-0.174533,-0.652003,-0.800238,-0.154158,-0.17066,-0.249528,-0.399139,-0.305617,-0.0580864
31,65,-0.654498,-0.814493,-0.174533,-0.174533,-0.652003,-0.800238,-0.154158,-0.17066,-0.249528,-0.399139,-0.305617,-0.0580864
31,65,-0.654498,-0.814493,-0.174533,-0.174533,-0.652003,-0.800238,-0.154158,-0.17066,-0.249528,-0.399139,-0.305617,-0.0580864
31,65,-0.654498,-0.814493,-0.174533,-0.174533,-0.652003,-0.800238,-0.154158,-0.17066,-0.249528,-0.399139,-0.305617,-0.0580864
31,65,-0.654498,-0.814493,-0.174533,-0.174533,-0.652003,-0.800238,-0.154158,-0.17066,-0.249528,-0.399139,-0.305617,-0.0580864
31,65,-0.654498,-0.814493,-0.174533,-0.174533,-0.652003,-0.800238,-0.154158,-0.17066,-0.249528,-0.399139,-0.305617,-0.0580864
31,65,-0.654498,-0.814493,-0.174533,-0.174533,-0.652003,-0.800238,-0.154158,-0.17066,-0.249528,-0.399139,-0.305617,-0.0580864
31,65,-0.654498,-0.814493,-0.174533,-0.174533,-0.652003,-0.800238,-0.154158,-0.17066,-0.249528,-0.399139,-0.305617,-0.0580864
31,65,-0.654498,-0.814493,-0.174533,-0.174533,-0.652003,-0.800238,-0.154158,-0.17066,-0.249528,-0.399139,-0.305617,-0.0580864
31,65,-0.654498,-0.814493,-0.174533,-0.174533,-0.652003,-0.800238,-0.154158,-0.17066,-0.249528,-0.399139,-0.305617,-0.0580864
31,65,-0.654498,-0.814493,-0.174533,-0.174533,-0.652003,-0.800238,-0.154158,-0.17066,-0.249528,-0.399139,-0.305617,-0.0580864
31,65,-0.654498,-0.814493,-0.174533,-0.174533,-0.652003,-0.800238,-0.154158,-0.17066,-0.249528,-0.399139,-0.305617,-0.0580864
31,65,-0.654498,-0.814493,-0.174533,-0.174533,-0.652003,-0.800238,-0.154158,-0.17066,-0.249528,-0.399139,-0.305617,-0.0580864
31,65,-0.654498,-0.814493,-0.174533,-0.174533,-0.652003,-0.800238,-0.154158,-0.17066,-0.249528,-0.399139,-0.305617,-0.0580864
31,65,-0.654498,-0.814493,-0.174533,-0.174533,-0.652003,-0.800238,-0.154158,-0.17066,-0.249528,-0.399139,-0.305617,-0.0580864
31,65,-0.654498,-0.814493,-0.174533,-0.174533,-0.652003,-0.800238,-0.154158,-0.17066,-0.249528,-0.399139,-0.305617,-0.0580864
31,65,-0.654498,-0.814493,-0.174533,-0.174533,-0.652003,-0.800238,-0.154158,-0.17066,-0.249528,-0.399139,-0.305617,-0.0580864
31,65,-0.654498,-0.814493,-0.174533,-0.174533,-0.652003,-0.800238,-0.154158,-0.17066,-0.249528,-0.399139,-0.305617,-0.0580864
31,65,-0.654498,-0.814493,-0.174533,-0.174533,-0.652003,-0.800238,-0.154158,-0.17066,-0.249528,-0.399139,-0.305617,-0.0580864
31,65,-0.654498,-0.814493,-0.174533,-0.174533,-0.652003,-0.800238,-0.154158,-0.17066,-0.249528,-0.399139,-0.305617,-0.0580864
31,65,-0.654498,-0.814493,-0.174533,-0.174533,-0.652003,-0.800238,-0.154158,-0.17066,-0.249528,-0.399139,-0.305617,-0.0580864
31,65,-0.654498,-0.814493,-0.174533,-0.174533,-0.652003,-0.800238,-0.154158,-0.17066,-0.249528,-0.399139,-0.305617,-0.0580864
31,65,-0.654498,-0.814493,-0.174533,-0.174533,-0.652003,-0.800238,-0.154158,-0.17066,-0.249528,-0.399139,-0.305617,-0.0580864
31,65,-0.654498,-0.814493,-0.174533,-0.174533,-0.652003,-0.800238,-0.154158,-0.17066,-0.249528,-0.399139,-0.305617,-0.0580864
31,65,-0.654498,-0.814493,-0.174533,-0.174533,-0.652003,-0.800238,-0.154158,-0.17066,-0.249528,-0.399139,-0.305617,-0.0580864
31,65,-0.654498,-0.814493,-0.174533,-0.174533,-0.652003,-0.800238,-0.154158,-0.17066,-0.249528,-0.399139,-0.305617,-0.0580864
31,65,-0.654498,-0.814493,-0.174533,-0.174533,-0.652003,-0.800238,-0.154158,-0.17066,-0.249528,-0.399139,-0.305617,-0.0580864
31,65,-0.654498,-0.814493,-0.174533,-0.174533,-0.652003,-0.800238,-0.154158,-0.17066,-0.249528,-0.399139,-0.305617,-0.0580864
31,65,-0.654498,-0.814493,-0.174533,-0.174533,-0.652003,-0.800238,-0.154158,-0.17066,-0.249528,-0.399139,-0.305617,-0.0580864
31,65,-0.654498,-0.814493,-0.174533,-0.174533,-0.652003,-0.800238,-0.154158,-0.17066,-0.249528,-0.399139,-0.305617,-0.0580864
31,65,-0.654498,-0.814493,-0.174533,-0.174533,-0.652003,-0.800238,-0.154158,-0.17066,-0.249528,-0.399139,-0.305617,-0.0580864
31,65,-0.654498,-0.814493,-0.174533,-0.174533,-0.652003,-0.800238,-0.154158,-0.17066,-0.249528,-0.399139,-0.305617,-0.0580864
31,65,-0.654498,-0.814493,-0.174533,-0.174533,-0.652003,-0.800238,-0.154158,-0.17066,-0.249528,-0.399139,-0.305617,-0.0580864
31,65,-0.654498,-0.814493,-0.174533,-0.174533,-0.652003,-0.800238,-0.154158,-0.17066,-0.249528,-0.399139,-0.305617,-0.0580864
31,65,-0.654498,-0.814493,-0.174533,-0.174533,-0.652003,-0.800238,-0.154158,-0.17066,-0.249528,-0.399139,-0.305617,-0.0580864
31,65,-0.654498,-0.814493,-0.174533,-0.174533,-0.652003,-0.800238,-0.154158,-0.17066,-0.249528,-0.399139,-0.305617,-0.0580864
31,65,-0.654498,-0.814493,-0.174533,-0.174533,-0.652003,-0.800238,-0.154158,-0.17066,-0.249528,-0.399139,-0.305617,-0.0580864
31,65,-0.654498,-0.814493,-0.174533,-0.174533,-0.652003,-0.800238,-0.154158,-0.17066,-0.249528,-0.399139,-0.305617,-0.0580864
31,65,-0.654498,-0.814493,-0.174533,-0.174533,-0.652003,-0.800238,-0.154158,-0.17066,-0.249528,-0.399139,-0.305617,-0.0580864
31,65,-0.654498,-0.814493,-0.174533,-0.174533,-0.652003,-0.800238,-0.154099,-0.17068,-0.249528,-0.399139,-0.306511,-0.0577891
31,65,-0.654498,-0.814493,-0.174533,-0.174533,-0.652003,-0.800238,-0.154099,-0.17068,-0.249528,-0.399139,-0.306511,-0.0577891
31,65,-0.654498,-0.814493,-0.174533,-0.174533,-0.652003,-0.800238,-0.154099,-0.17068,-0.249528,-0.399139,-0.306511,-0.0577891
31,65,-0.654498,-0.814493,-0.174533,-0.174533,-0.652003,-0.800238,-0.154099,-0.17068,-0.249528,-0.399139,-0.306511,-0.0577891
31,65,-0.654498,-0.814493,-0.174533,-0.174533,-0.652003,-0.800238,-0.154099,-0.17068,-0.249528,-0.399139,-0.306511,-0.0577891
31,65,-0.654498,-0.814493,-0.174533,-0.174533,-0.652003,-0.800238,-0.154099,-0.17068,-0.249528,-0.399139,-0.306511,-0.0577891
31,65,-0.654498,-0.814493,-0.174533,-0.174533,-0.652003,-0.800238,-0.154099,-0.17068,-0.249528,-0.399139,-0.306511,-0.0577891
31,65,-0.654498,-0.814493,-0.174533,-0.174533,-0.652003,-0.800238,-0.154099,-0.17068,-0.249528,-0.399139,-0.306511,-0.0577891
31,65,-0.654498,-0.814493,-0.174533,-0.174533,-0.652003,-0.800238,-0.154099,-0.17068,-0.249528,-0.399139,-0.306511,-0.0577891
31,65,-0.654498,-0.814493,-0.174533,-0.174533,-0.652003,-0.800238,-0.154099,-0.17068,-0.249528,-0.399139,-0.306511,-0.0577891
31,65,-0.654498,-0.814493,-0.174533,-0.174533,-0.652003,-0.800238,-0.154099,-0.17068,-0.249528,-0.399139,-0.306511,-0.0577891
31,65,-0.654498,-0.814493,-0.174533,-0.174533,-0.652003,-0.800238,-0.154099,-0.17068,-0.249528,-0.399139,-0.306511,-0.0577891
31,65,-0.654498,-0.814493,-0.174533,-0.174533,-0.652003,-0.800238,-0.154099,-0.17068,-0.249528,-0.399139,-0.306511,-0.0577891
31,65,-0.654498,-0.814493,-0.174533,-0.174533,-0.652003,-0.800238,-0.154099,-0.17068,-0.249528,-0.399139,-0.306511,-0.0577891
31,65,-0.654498,-0.814493,-0.174533,-0.174533,-0.652003,-0.800238,-0.154099,-0.17068,-0.249528,-0.399139,-0.306511,-0.0577891
31,65,-0.654498,-0.814493,-0.174533,-0.174533,-0.652003,-0.800238,-0.154099,-0.17068,-0.249528,-0.399139,-0.306511,-0.0577891
31,65,-0.654498,-0.814493,-0.174533,-0.174533,-0.652003,-0.800238,-0.154099,-0.17068,-0.249528,-0.399139,-0.306511,-0.0577891
31,65,-0.654498,-0.814493,-0.174533,-0.174533,-0.652003,-0.800238,-0.154099,-0.17068,-0.249528,-0.399139,-0.306511,-0.0577891
31,65,-0.654498,-0.814493,-0.174533,-0.174533,-0.652003,-0.800238,-0.154099,-0.17068,-0.249528,-0.399139,-0.306511,-0.0577891
31,65,-0.654498,-0.814493,-0.174533,-0.174533,-0.652003,-0.800238,-0.154099,-0.17068,-0.249528,-0.399139,-0.306511,-0.0577891
31,65,-0.654498,-0.814493,-0.174533,-0.174533,-0.652003,-0.800238,-0.154099,-0.17068,-0.249528,-0.399139,-0.306511,-0.0577891
31,65,-0.654498,-0.814493,-0.174533,-0.174533,-0.652003,-0.800238,-0.154099,-0.17068,-0.249528,-0.399139,-0.306511,-0.0577891
31,65,-0.654498,-0.814493,-0.174533,-0.174533,-0.652003,-0.800238,-0.154099,-0.17068,-0.249528,-0.399139,-0.306511,-0.0577891
31,65,-0.654498,-0.814493,-0.174533,-0.174533,-0.652003,-0.800238,-0.154099,-0.17068,-0.249528,-0.399139,-0.306511,-0.0577891
31,65,-0.654498,-0.814493,-0.174533,-0.174533,-0.652003,-0.800238,-0.154099,-0.17068,-0.249528,-0.399139,-0.306511,-0.0577891
31,65,-0.654498,-0.814493,-0.174533,-0.174533,-0.652003,-0.800238,-0.154099,-0.17068,-0.249528,-0.399139,-0.306511,-0.0577891
31,65,-0.654498,-0.814493,-0.174533,-0.174533,-0.652003,-0.800238,-0.154099,-0.17068,-0.249528,-0.399139,-0.306511,-0.0577891
31,65,-0.654498,-0.814493,-0.174533,-0.174533,-0.652003,-0.800238,-0.154099,-0.17068,-0.249528,-0.399139,-0.306511,-0.0577891
31,65,-0.654498,-0.814493,-0.174533,-0.174533,-0.652003,-0.800238,-0.154099,-0.17068,-0.249528,-0.399139,-0.306511,-0.0577891
31,65,-0.654498,-0.814493,-0.174533,-0.174533,-0.652003,-0.800238,-0.154099,-0.17068,-0.249528,-0.399139,-0.306511,-0.0577891
31,65,-0.654498,-0.814493,-0.174533,-0.174533,-0.652003,-0.800238,-0.154099,-0.17068,-0.249528,-0.399139,-0.306511,-0.0577891
31,65,-0.654498,-0.814493,-0.174533,-0.174533,-0.652003,-0.800238,-0.154099,-0.17068,-0.249528,-0.399139,-0.306511,-0.0577891
31,65,-0.654498,-0.814493,-0.174533,-0.174533,-0.652003,-0.800238,-0.154099,-0.17068,-0.249528,-0.399139,-0.306511,-0.0577891
31,65,-0.654498,-0.814493,-0.174533,-0.174533,-0.652003,-0.800238,-0.154099,-0.17068,-0.249528,-0.399139,-0.306511,-0.0577891
31,65,-0.654498,-0.814493,-0.174533,-0.174533,-0.652003,-0.800238,-0.154099,-0.17068,-0.249528,-0.399139,-0.306511,-0.0577891
31,65,-0.654498,-0.814493,-0.174533,-0.174533,-0.652003,-0.800238,-0.154099,-0.17068,-0.249528,-0.399139,-0.306511,-0.0577891
31,65,-0.654498,-0.814493,-0.174533,-0.174533,-0.652003,-0.800238,-0.154099,-0.17068,-0.249528,-0.399139,-0.306511,-0.0577891
31,65,-0.654498,-0.814493,-0.174533,-0.174533,-0.652003,-0.800238,-0.154099,-0.17068,-0.249528,-0.399139,-0.306511,-0.0577891
31,65,-0.654498,-0.814493,-0.174533,-0.174533,-0.652003,-0.800238,-0.154097,-0.170621,-0.249528,-0.399139,-0.306542,-0.0586834
31,65,-0.654498,-0.814493,-0.174533,-0.174533,-0.652003,-0.800238,-0.154097,-0.170621,-0.249528,-0.399139,-0.306542,-0.0586834
31,65,-0.654498,-0.814493,-0.174533,-0.174533,-0.652003,-0.800238,-0.154097,-0.170621,-0.249528,-0.399139,-0.306542,-0.0586834
31,65,-0.654498,-0.814493,-0.174533,-0.174533,-0.652003,-0.800238,-0.154097,-0.170621,-0.249528,-0.399139,-0.306542,-0.0586834
31,65,-0.654498,-0.814493,-0.174533,-0.174533,-0.652003,-0.800238,-0.154097,-0.170621,-0.249528,-0.399139,-0.306542,-0.0586834
31,65,-0.654498,-0.814493,-0.174533,-0.174533,-0.652003,-0.800238,-0.154097,-0.170621,-0.249528,-0.399139,-0.306542,-0.0586834
31,65,-0.654498,-0.814493,-0.174533,-0.174533,-0.652003,-0.800238,-0.154097,-0.170621,-0.249528,-0.399139,-0.306542,-0.0586834
31,65,-0.654498,-0.814493,-0.174533,-0.174533,-0.652003,-0.800238,-0.154097,-0.170621,-0.249528,-0.399139,-0.306542,-0.0586834
31,65,-0.654498,-0.814493,-0.174533,-0.174533,-0.652003,-0.800238,-0.154097,-0.170621,-0.249528,-0.399139,-0.306542,-0.0586834
31,65,-0.654498,-0.814493,-0.174533,-0.174533,-0.652003,-0.800238,-0.154097,-0.170621,-0.249528,-0.399139,-0.306542,-0.0586834
31,65,-0.654498,-0.814493,-0.174533,-0.174533,-0.652003,-0.800238,-0.154097,-0.170621,-0.249528,-0.399139,-0.306542,-0.0586834
31,65,-0.654498,-0.814493,-0.174533,-0.174533,-0.652003,-0.800238,-0.154097,-0.170621,-0.249528,-0.399139,-0.306542,-0.0586834
31,65,-0.654498,-0.814493,-0.174533,-0.174533,-0.652003,-0.800238,-0.154097,-0.170621,-0.249528,-0.399139,-0.306542,-0.0586834
31,65,-0.654498,-0.814493,-0.174533,-0.174533,-0.652003,-0.800238,-0.154097,-0.170621,-0.249528,-0.399139,-0.306542,-0.0586834
31,65,-0.654498,-0.814493,-0.174533,-0.174533,-0.652003,-0.800238,-0.154097,-0.170621,-0.249528,-0.399139,-0.306542,-0.0586834
31,65,-0.654498,-0.814493,-0.174533,-0.174533,-0.652003,-0.800238,-0.154097,-0.170621,-0.249528,-0.399139,-0.306542,-0.0586834
31,65,-0.654498,-0.814493,-0.174533,-0.174533,-0.652003,-0.800238,-0.154097,-0.170621,-0.249528,-0.399139,-0.306542,-0.0586834
31,65,-0.654498,-0.814493,-0.174533,-0.174533,-0.652003,-0.800238,-0.154097,-0.170621,-0.249528,-0.399139,-0.306542,-0.0586834
31,65,-0.654498,-0.814493,-0.174533,-0.174533,-0.652003,-0.800238,-0.154097,-0.170621,-0.249528,-0.399139,-0.306542,-0.0586834
31,65,-0.654498,-0.814493,-0.174533,-0.174533,-0.652003,-0.800238,-0.154097,-0.170621,-0.249528,-0.399139,-0.306542,-0.0586834
31,65,-0.654498,-0.814493,-0.174533,-0.174533,-0.652003,-0.800238,-0.154097,-0.170621,-0.249528,-0.399139,-0.306542,-0.0586834
31,65,-0.654498,-0.814493,-0.174533,-0.174533,-0.652003,-0.800238,-0.154097,-0.170621,-0.249528,-0.399139,-0.306542,-0.0586834
31,65,-0.654498,-0.814493,-0.174533,-0.174533,-0.652003,-0.800238,-0.154097,-0.170621,-0.249528,-0.399139,-0.306542,-0.0586834
31,65,-0.654498,-0.814493,-0.174533,-0.174533,-0.652003,-0.800238,-0.154097,-0.170621,-0.249528,-0.399139,-0.306542,-0.0586834
31,65,-0.654498,-0.814493,-0.174533,-0.174533,-0.652003,-0.800238,-0.154097,-0.170621,-0.249528,-0.399139,-0.306542,-0.0586834
31,65,-0.654498,-0.814493,-0.174533,-0.174533,-0.652003,-0.800238,-0.154097,-0.170621,-0.249528,-0.399139,-0.306542,-0.0586834
31,65,-0.654498,-0.814493,-0.174533,-0.174533,-0.652003,-0.800238,-0.154097,-0.170621,-0.249528,-0.399139,-0.306542,-0.0586834
31,65,-0.654498,-0.814493,-0.174533,-0.174533,-0.652003,-0.800238,-0.154097,-0.170621,-0.249528,-0.399139,-0.306542,-0.0586834
31,65,-0.654498,-0.814493,-0.174533,-0.174533,-0.652003,-0.800238,-0.154097,-0.170621,-0.249528,-0.399139,-0.306542,-0.0586834
31,65,-0.654498,-0.814493,-0.174533,-0.174533,-0.652003,-0.800238,-0.154097,-0.170621,-0.249528,-0.399139,-0.306542,-0.0586834
31,65,-0.654498,-0.814493,-0.174533,-0.174533,-0.652003,-0.800238,-0.154097,-0.170621,-0.249528,-0.399139,-0.306542,-0.0586834
31,65,-0.654498,-0.814493,-0.174533,-0.174533,-0.652003,-0.800289,-0.154097,-0.170621,-0.249528,-0.397715,-0.306542,-0.0586834
31,65,-0.654498,-0.814493,-0.174533,-0.174533,-0.652003,-0.800289,-0.154097,-0.170621,-0.249528,-0.397715,-0.306542,-0.0586834
31,65,-0.654498,-0.814493,-0.174533,-0.174533,-0.652003,-0.800289,-0.154097,-0.170621,-0.249528,-0.397715,-0.306542,-0.0586834
31,65,-0.654498,-0.814493,-0.174533,-0.174533,-0.652003,-0.800289,-0.154097,-0.170621,-0.249528,-0.397715,-0.306542,-0.0586834
31,65,-0.654498,-0.814493,-0.174533,-0.174533,-0.652003,-0.800289,-0.154097,-0.170621,-0.249528,-0.397715,-0.306542,-0.0586834
31,65,-0.654498,-0.814493,-0.174533,-0.174533,-0.652003,-0.800289,-0.154097,-0.170621,-0.249528,-0.397715,-0.306542,-0.0586834
31,65,-0.654498,-0.814493,-0.174533,-0.174533,-0.652003,-0.800289,-0.154097,-0.170621,-0.249528,-0.397715,-0.306542,-0.0586834
31,65,-0.654498,-0.814493,-0.174533,-0.174533,-0.652003,-0.800289,-0.154097,-0.170621,-0.249528,-0.397715,-0.306542,-0.0586834
31,65,-0.654498,-0.814493,-0.174533,-0.174533,-0.652003,-0.800289,-0.154097,-0.170621,-0.249528,-0.397715,-0.306542,-0.0586834
31,65,-0.654498,-0.814493,-0.174533,-0.174533,-0.652003,-0.800289,-0.154097,-0.170621,-0.249528,-0.397715,-0.306542,-0.0586834
31,65,-0.654498,-0.814493,-0.174533,-0.174533,-0.652003,-0.800289,-0.154097,-0.170621,-0.249528,-0.397715,-0.306542,-0.0586834
31,65,-0.654498,-0.814493,-0.174533,-0.174533,-0.652003,-0.800289,-0.154097,-0.170621,-0.249528,-0.397715,-0.306542,-0.0586834
31,65,-0.654498,-0.814493,-0.174533,-0.174533,-0.652003,-0.800289,-0.154097,-0.170621,-0.249528,-0.397715,-0.306542,-0.0586834
31,65,-0.654498,-0.814493,-0.174533,-0.174533,-0.652003,-0.800289,-0.154097,-0.170621,-0.249528,-0.397715,-0.306542,-0.0586834
31,65,-0.654498,-0.814493,-0.174533,-0.174533,-0.652003,-0.800289,-0.154097,-0.170621,-0.249528,-0.397715,-0.306542,-0.0586834
31,65,-0.654498,-0.814493,-0.174533,-0.174533,-0.652003,-0.800289,-0.154097,-0.170621,-0.249528,-0.397715,-0.306542,-0.0586834
31,65,-0.654498,-0.814493,-0.174533,-0.174533,-0.652003,-0.800289,-0.154097,-0.170621,-0.249528,-0.397715,-0.306542,-0.0586834
31,65,-0.654498,-0.814493,-0.174533,-0.174533,-0.652003,-0.800289,-0.154097,-0.170621,-0.249528,-0.397715,-0.306542,-0.0586834
31,65,-0.654498,-0.814493,-0.174533,-0.174533,-0.652003,-0.800289,-0.154097,-0.170621,-0.249528,-0.397715,-0.306542,-0.0586834
31,65,-0.654498,-0.814493,-0.174533,-0.174533,-0.652003,-0.800289,-0.154097,-0.170621,-0.249528,-0.397715,-0.306542,-0.0586834
31,65,-0.654498,-0.814493,-0.174533,-0.174533,-0.652003,-0.800289,-0.154097,-0.170621,-0.249528,-0.397715,-0.306542,-0.0586834
31,65,-0.654498,-0.814493,-0.174533,-0.174533,-0.652003,-0.800289,-0.154037,-0.170641,-0.249528,-0.397715,-0.307436,-0.0583861
31,65,-0.654498,-0.814493,-0.174533,-0.174533,-0.652003,-0.800289,-0.154037,-0.170641,-0.249528,-0.397715,-0.307436,-0.0583861
31,65,-0.654498,-0.814493,-0.174533,-0.174533,-0.652003,-0.800289,-0.154037,-0.170641,-0.249528,-0.397715,-0.307436,-0.0583861
31,65,-0.654498,-0.814493,-0.174533,-0.174533,-0.652003,-0.800289,-0.154037,-0.170641,-0.249528,-0.397715,-0.307436,-0.0583861
31,65,-0.654498,-0.814493,-0.174533,-0.174533,-0.652003,-0.800289,-0.154037,-0.170641,-0.249528,-0.397715,-0.307436,-0.0583861
31,65,-0.654498,-0.814493,-0.174533,-0.174533,-0.652003,-0.800289,-0.154037,-0.170641,-0.249528,-0.397715,-0.307436,-0.0583861
31,65,-0.654498,-0.814493,-0.174533,-0.174533,-0.652003,-0.800289,-0.154037,-0.170641,-0.249528,-0.397715,-0.307436,-0.0583861
31,65,-0.654498,-0.814493,-0.174533,-0.174533,-0.652003,-0.800289,-0.154037,-0.170641,-0.249528,-0.397715,-0.307436,-0.0583861
31,65,-0.654498,-0.814493,-0.174533,-0.174533,-0.652003,-0.800289,-0.154037,-0.170641,-0.249528,-0.397715,-0.307436,-0.0583861
31,65,-0.654498,-0.814493,-0.174533,-0.174533,-0.652003,-0.800289,-0.154037,-0.170641,-0.249528,-0.397715,-0.307436,-0.0583861
31,65,-0.654498,-0.814493,-0.174533,-0.174533,-0.652003,-0.800289,-0.154037,-0.170641,-0.249528,-0.397715,-0.307436,-0.0583861
31,65,-0.654498,-0.814493,-0.174533,-0.174533,-0.652003,-0.800289,-0.154037,-0.170641,-0.249528,-0.397715,-0.307436,-0.0583861
31,65,-0.654498,-0.814493,-0.174533,-0.174533,-0.652003,-0.800289,-0.154037,-0.170641,-0.249528,-0.397715,-0.307436,-0.0583861
31,65,-0.654498,-0.814493,-0.174533,-0.174533,-0.652003,-0.800289,-0.154037,-0.170641,-0.249528,-0.397715,-0.307436,-0.0583861
31,65,-0.654498,-0.814493,-0.174533,-0.174533,-0.652003,-0.800289,-0.154037,-0.170641,-0.249528,-0.397715,-0.307436,-0.0583861
31,65,-0.654498,-0.814493,-0.174533,-0.174533,-0.652003,-0.800289,-0.154037,-0.170641,-0.249528,-0.397715,-0.307436,-0.0583861
31,65,-0.654498,-0.814493,-0.174533,-0.174533,-0.652003,-0.800289,-0.154037,-0.170641,-0.249528,-0.397715,-0.307436,-0.0583861
31,65,-0.654498,-0.814493,-0.174533,-0.174533,-0.652003,-0.800289,-0.154037,-0.170641,-0.249528,-0.397715,-0.307436,-0.0583861
31,65,-0.654498,-0.814493,-0.174533,-0.174533,-0.652003,-0.800289,-0.154037,-0.170641,-0.249528,-0.397715,-0.307436,-0.0583861
31,65,-0.654498,-0.814493,-0.174533,-0.174533,-0.652003,-0.800289,-0.154037,-0.170641,-0.249528,-0.397715,-0.307436,-0.0583861
31,65,-0.654498,-0.814493,-0.174533,-0.174533,-0.652003,-0.800289,-0.154037,-0.170641,-0.249528,-0.397715,-0.307436,-0.0583861
31,65,-0.654498,-0.814493,-0.174533,-0.174533,-0.652003,-0.800289,-0.154037,-0.170641,-0.249528,-0.397715,-0.307436,-0.0583861
31,65,-0.654498,-0.814493,-0.174533,-0.174533,-0.652003,-0.800289,-0.154037,-0.170641,-0.249528,-0.397715,-0.307436,-0.0583861
31,65,-0.654498,-0.814493,-0.174533,-0.174533,-0.652003,-0.800289,-0.154037,-0.170641,-0.249528,-0.397715,-0.307436,-0.0583861
31,65,-0.654498,-0.814493,-0.174533,-0.174533,-0.652003,-0.800289,-0.154037,-0.170641,-0.249528,-0.397715,-0.307436,-0.0583861
31,65,-0.654498,-0.814493,-0.174533,-0.174533,-0.652003,-0.800289,-0.154037,-0.170641,-0.249528,-0.397715,-0.307436,-0.0583861
31,65,-0.654498,-0.814493,-0.174533,-0.174533,-0.652003,-0.800289,-0.154037,-0.170641,-0.249528,-0.397715,-0.307436,-0.0583861
31,65,-0.654498,-0.814493,-0.174533,-0.174533,-0.652003,-0.800289,-0.154037,-0.170641,-0.249528,-0.397715,-0.307436,-0.0583861
31,65,-0.654498,-0.814493,-0.174533,-0.174533,-0.652003,-0.800289,-0.154037,-0.170641,-0.249528,-0.397715,-0.307436,-0.0583861
31,65,-0.654498,-0.814493,-0.174533,-0.174533,-0.652003,-0.800289,-0.154037,-0.170641,-0.249528,-0.397715,-0.307436,-0.0583861
31,65,-0.654498,-0.814493,-0.174533,-0.174533,-0.652003,-0.800289,-0.154037,-0.170641,-0.249528,-0.397715,-0.307436,-0.0583861
31,65,-0.654498,-0.814493,-0.174533,-0.174533,-0.652003,-0.800289,-0.154037,-0.170641,-0.249528,-0.397715,-0.307436,-0.0583861
31,65,-0.654498,-0.814493,-0.174533,-0.174533,-0.652003,-0.800289,-0.154037,-0.170641,-0.249528,-0.397715,-0.307436,-0.0583861
31,65,-0.654498,-0.814493,-0.174533,-0.174533,-0.652003,-0.800289,-0.154037,-0.170641,-0.249528,-0.397715,-0.307436,-0.0583861
31,65,-0.654498,-0.814493,-0.174533,-0.174533,-0.652003,-0.800289,-0.154037,-0.170641,-0.249528,-0.397715,-0.307436,-0.0583861
31,65,-0.654498,-0.814493,-0.174533,-0.174533,-0.652003,-0.800289,-0.154037,-0.170641,-0.249528,-0.397715,-0.307436,-0.0583861
31,65,-0.654498,-0.814493,-0.174533,-0.174533,-0.652003,-0.800289,-0.154037,-0.170641,-0.249528,-0.397715,-0.307436,-0.0583861
31,65,-0.654498,-0.814493,-0.174533,-0.174533,-0.652003,-0.800289,-0.154037,-0.170641,-0.249528,-0.397715,-0.307436,-0.0583861
31,65,-0.654498,-0.814493,-0.174533,-0.174533,-0.652003,-0.800289,-0.154037,-0.170641,-0.249528,-0.397715,-0.307436,-0.0583861
31,65,-0.654498,-0.814493,-0.174533,-0.174533,-0.652003,-0.800289,-0.154037,-0.170641,-0.249528,-0.397715,-0.307436,-0.0583861
31,65,-0.654498,-0.814493,-0.174533,-0.174533,-0.652003,-0.800289,-0.154037,-0.170641,-0.249528,-0.397715,-0.307436,-0.0583861
31,65,-0.654498,-0.814493,-0.174533,-0.174533,-0.652003,-0.800289,-0.154037,-0.170641,-0.249528,-0.397715,-0.307436,-0.0583861
31,65,-0.654498,-0.814493,-0.174533,-0.174533,-0.652003,-0.800289,-0.154037,-0.170641,-0.249528,-0.397715,-0.307436,-0.0583861
31,65,-0.654498,-0.814493,-0.174533,-0.174533,-0.652003,-0.800289,-0.154037,-0.170641,-0.249528,-0.397715,-0.307436,-0.0583861
31,65,-0.654498,-0.814493,-0.174533,-0.174533,-0.652003,-0.800289,-0.154037,-0.170641,-0.249528,-0.397715,-0.307436,-0.0583861
31,65,-0.654498,-0.814493,-0.174533,-0.174533,-0.652003,-0.800289,-0.154037,-0.170641,-0.249528,-0.397715,-0.307436,-0.0583861
31,65,-0.654498,-0.814493,-0.174533,-0.174533,-0.652003,-0.800289,-0.154037,-0.170641,-0.249528,-0.397715,-0.307436,-0.0583861
31,65,-0.654498,-0.814493,-0.174533,-0.174533,-0.652003,-0.800289,-0.154037,-0.170641,-0.249528,-0.397715,-0.307436,-0.0583861
31,65,-0.654498,-0.814493,-0.174533,-0.174533,-0.652003,-0.800289,-0.154037,-0.170641,-0.249528,-0.397715,-0.307436,-0.0583861
31,65,-0.654498,-0.814493,-0.174533,-0.174533,-0.652003,-0.800289,-0.154037,-0.170641,-0.249528,-0.397715,-0.307436,-0.0583861
31,65,-0.654498,-0.814493,-0.174533,-0.174533,-0.652003,-0.800289,-0.154037,-0.170641,-0.249528,-0.397715,-0.307436,-0.0583861
31,65,-0.654498,-0.814493,-0.174533,-0.174533,-0.652003,-0.800289,-0.154037,-0.170641,-0.249528,-0.397715,-0.307436,-0.0583861
31,65,-0.654498,-0.814493,-0.174533,-0.174533,-0.652003,-0.800289,-0.154037,-0.170641,-0.249528,-0.397715,-0.307436,-0.0583861
31,65,-0.654498,-0.814493,-0.174533,-0.174533,-0.652003,-0.800289,-0.154037,-0.170641,-0.249528,-0.397715,-0.307436,-0.0583861
31,65,-0.654498,-0.814493,-0.174533,-0.174533,-0.652003,-0.800289,-0.154037,-0.170641,-0.249528,-0.397715,-0.307436,-0.0583861
31,65,-0.654498,-0.814493,-0.174533,-0.174533,-0.652003,-0.800289,-0.154037,-0.170641,-0.249528,-0.397715,-0.307436,-0.0583861
