stim_pw [us],stim_amp [mA],com_elbow_fe [rad],com_forearm_ps [rad],com_wrist_fe [rad],com_wrist_ru [rad],act_elbow_fe [rad],act_forearm_ps [rad],act_wrist_fe [rad],act_wrist_ru [rad],elbow_fe_trq [Nm],forearm_ps_trq [Nm],wrist_fe_trq [Nm],wrist_ru_trq [Nm]
29,65,-0.654498,-0.814493,-0.174533,-0.174533,-0.660021,-0.800187,-0.16492,-0.1728,0.552233,-0.400562,-0.144194,-0.0259947
29,65,-0.654498,-0.814493,-0.174533,-0.174533,-0.660021,-0.800187,-0.16492,-0.1728,0.552233,-0.400562,-0.144194,-0.0259947
29,65,-0.654498,-0.814493,-0.174533,-0.174533,-0.660021,-0.800187,-0.16492,-0.1728,0.552233,-0.400562,-0.144194,-0.0259947
29,65,-0.654498,-0.814493,-0.174533,-0.174533,-0.660021,-0.800187,-0.16492,-0.1728,0.552233,-0.400562,-0.144194,-0.0259947
29,65,-0.654498,-0.814493,-0.174533,-0.174533,-0.660021,-0.800187,-0.16492,-0.1728,0.552233,-0.400562,-0.144194,-0.0259947
29,65,-0.654498,-0.814493,-0.174533,-0.174533,-0.660021,-0.800187,-0.16492,-0.1728,0.552233,-0.400562,-0.144194,-0.0259947
29,65,-0.654498,-0.814493,-0.174533,-0.174533,-0.660021,-0.800187,-0.16492,-0.1728,0.552233,-0.400562,-0.144194,-0.0259947
29,65,-0.654498,-0.814493,-0.174533,-0.174533,-0.660021,-0.800187,-0.16492,-0.1728,0.552233,-0.400562,-0.144194,-0.0259947
29,65,-0.654498,-0.814493,-0.174533,-0.174533,-0.660021,-0.800187,-0.16492,-0.1728,0.552233,-0.400562,-0.144194,-0.0259947
29,65,-0.654498,-0.814493,-0.174533,-0.174533,-0.660021,-0.800187,-0.16492,-0.1728,0.552233,-0.400562,-0.144194,-0.0259947
29,65,-0.654498,-0.814493,-0.174533,-0.174533,-0.660021,-0.800187,-0.16492,-0.1728,0.552233,-0.400562,-0.144194,-0.0259947
29,65,-0.654498,-0.814493,-0.174533,-0.174533,-0.660021,-0.800187,-0.16492,-0.1728,0.552233,-0.400562,-0.144194,-0.0259947
29,65,-0.654498,-0.814493,-0.174533,-0.174533,-0.660021,-0.800187,-0.16492,-0.1728,0.552233,-0.400562,-0.144194,-0.0259947
29,65,-0.654498,-0.814493,-0.174533,-0.174533,-0.660021,-0.800187,-0.16492,-0.1728,0.552233,-0.400562,-0.144194,-0.0259947
29,65,-0.654498,-0.814493,-0.174533,-0.174533,-0.660021,-0.800187,-0.16492,-0.1728,0.552233,-0.400562,-0.144194,-0.0259947
29,65,-0.654498,-0.814493,-0.174533,-0.174533,-0.660021,-0.800187,-0.16492,-0.1728,0.552233,-0.400562,-0.144194,-0.0259947
29,65,-0.654498,-0.814493,-0.174533,-0.174533,-0.660021,-0.800187,-0.16492,-0.1728,0.552233,-0.400562,-0.144194,-0.0259947
29,65,-0.654498,-0.814493,-0.174533,-0.174533,-0.660021,-0.800187,-0.16492,-0.1728,0.552233,-0.400562,-0.144194,-0.0259947
29,65,-0.654498,-0.814493,-0.174533,-0.174533,-0.660021,-0.800187,-0.16492,-0.1728,0.552233,-0.400562,-0.144194,-0.0259947
29,65,-0.654498,-0.814493,-0.174533,-0.174533,-0.660021,-0.800187,-0.16492,-0.1728,0.552233,-0.400562,-0.144194,-0.0259947
29,65,-0.654498,-0.814493,-0.174533,-0.174533,-0.660021,-0.800187,-0.16492,-0.1728,0.552233,-0.400562,-0.144194,-0.0259947
29,65,-0.654498,-0.814493,-0.174533,-0.174533,-0.660021,-0.800187,-0.16492,-0.1728,0.552233,-0.400562,-0.144194,-0.0259947
29,65,-0.654498,-0.814493,-0.174533,-0.174533,-0.660021,-0.800187,-0.16492,-0.1728,0.552233,-0.400562,-0.144194,-0.0259947
29,65,-0.654498,-0.814493,-0.174533,-0.174533,-0.660021,-0.800187,-0.16492,-0.1728,0.552233,-0.400562,-0.144194,-0.0259947
29,65,-0.654498,-0.814493,-0.174533,-0.174533,-0.660021,-0.800187,-0.16492,-0.1728,0.552233,-0.400562,-0.144194,-0.0259947
29,65,-0.654498,-0.814493,-0.174533,-0.174533,-0.660021,-0.800187,-0.16492,-0.1728,0.552233,-0.400562,-0.144194,-0.0259947
29,65,-0.654498,-0.814493,-0.174533,-0.174533,-0.660021,-0.800187,-0.16492,-0.1728,0.552233,-0.400562,-0.144194,-0.0259947
29,65,-0.654498,-0.814493,-0.174533,-0.174533,-0.660021,-0.800187,-0.16492,-0.1728,0.552233,-0.400562,-0.144194,-0.0259947
29,65,-0.654498,-0.814493,-0.174533,-0.174533,-0.660021,-0.800187,-0.16492,-0.1728,0.552233,-0.400562,-0.144194,-0.0259947
29,65,-0.654498,-0.814493,-0.174533,-0.174533,-0.660021,-0.800187,-0.16492,-0.1728,0.552233,-0.400562,-0.144194,-0.0259947
29,65,-0.654498,-0.814493,-0.174533,-0.174533,-0.660021,-0.800187,-0.16492,-0.1728,0.552233,-0.400562,-0.144194,-0.0259947
29,65,-0.654498,-0.814493,-0.174533,-0.174533,-0.660021,-0.800187,-0.16492,-0.1728,0.552233,-0.400562,-0.144194,-0.0259947
29,65,-0.654498,-0.814493,-0.174533,-0.174533,-0.660021,-0.800187,-0.16492,-0.1728,0.552233,-0.400562,-0.144194,-0.0259947
29,65,-0.654498,-0.814493,-0.174533,-0.174533,-0.660021,-0.800187,-0.16492,-0.1728,0.552233,-0.400562,-0.144194,-0.0259947
29,65,-0.654498,-0.814493,-0.174533,-0.174533,-0.660021,-0.800187,-0.16492,-0.1728,0.552233,-0.400562,-0.144194,-0.0259947
29,65,-0.654498,-0.814493,-0.174533,-0.174533,-0.660021,-0.800187,-0.16492,-0.1728,0.552233,-0.400562,-0.144194,-0.0259947
29,65,-0.654498,-0.814493,-0.174533,-0.174533,-0.660021,-0.800187,-0.16492,-0.1728,0.552233,-0.400562,-0.144194,-0.0259947
29,65,-0.654498,-0.814493,-0.174533,-0.174533,-0.660021,-0.800187,-0.16492,-0.1728,0.552233,-0.400562,-0.144194,-0.0259947
29,65,-0.654498,-0.814493,-0.174533,-0.174533,-0.660021,-0.800187,-0.16492,-0.1728,0.552233,-0.400562,-0.144194,-0.0259947
29,65,-0.654498,-0.814493,-0.174533,-0.174533,-0.660021,-0.800187,-0.16492,-0.1728,0.552233,-0.400562,-0.144194,-0.0259947
29,65,-0.654498,-0.814493,-0.174533,-0.174533,-0.660021,-0.800187,-0.16492,-0.1728,0.552233,-0.400562,-0.144194,-0.0259947
29,65,-0.654498,-0.814493,-0.174533,-0.174533,-0.660021,-0.800187,-0.16492,-0.1728,0.552233,-0.400562,-0.144194,-0.0259947
29,65,-0.654498,-0.814493,-0.174533,-0.174533,-0.660021,-0.800187,-0.16492,-0.1728,0.552233,-0.400562,-0.144194,-0.0259947
29,65,-0.654498,-0.814493,-0.174533,-0.174533,-0.660021,-0.800187,-0.16492,-0.1728,0.552233,-0.400562,-0.144194,-0.0259947
29,65,-0.654498,-0.814493,-0.174533,-0.174533,-0.660021,-0.800187,-0.16492,-0.1728,0.552233,-0.400562,-0.144194,-0.0259947
29,65,-0.654498,-0.814493,-0.174533,-0.174533,-0.660021,-0.800187,-0.16492,-0.1728,0.552233,-0.400562,-0.144194,-0.0259947
29,65,-0.654498,-0.814493,-0.174533,-0.174533,-0.660021,-0.800187,-0.16492,-0.1728,0.552233,-0.400562,-0.144194,-0.0259947
29,65,-0.654498,-0.814493,-0.174533,-0.174533,-0.660021,-0.800187,-0.16492,-0.1728,0.552233,-0.400562,-0.144194,-0.0259947
29,65,-0.654498,-0.814493,-0.174533,-0.174533,-0.660021,-0.800187,-0.16492,-0.1728,0.552233,-0.400562,-0.144194,-0.0259947
29,65,-0.654498,-0.814493,-0.174533,-0.174533,-0.660021,-0.800187,-0.16492,-0.1728,0.552233,-0.400562,-0.144194,-0.0259947
29,65,-0.654498,-0.814493,-0.174533,-0.174533,-0.660021,-0.800187,-0.16492,-0.1728,0.552233,-0.400562,-0.144194,-0.0259947
29,65,-0.654498,-0.814493,-0.174533,-0.174533,-0.660021,-0.800187,-0.16492,-0.1728,0.552233,-0.400562,-0.144194,-0.0259947
29,65,-0.654498,-0.814493,-0.174533,-0.174533,-0.660021,-0.800187,-0.16492,-0.1728,0.552233,-0.400562,-0.144194,-0.0259947
29,65,-0.654498,-0.814493,-0.174533,-0.174533,-0.660021,-0.800187,-0.16492,-0.1728,0.552233,-0.400562,-0.144194,-0.0259947
29,65,-0.654498,-0.814493,-0.174533,-0.174533,-0.660021,-0.800187,-0.16492,-0.1728,0.552233,-0.400562,-0.144194,-0.0259947
29,65,-0.654498,-0.814493,-0.174533,-0.174533,-0.660021,-0.800187,-0.16492,-0.1728,0.552233,-0.400562,-0.144194,-0.0259947
29,65,-0.654498,-0.814493,-0.174533,-0.174533,-0.660021,-0.800187,-0.16492,-0.1728,0.552233,-0.400562,-0.144194,-0.0259947
29,65,-0.654498,-0.814493,-0.174533,-0.174533,-0.660021,-0.800238,-0.16492,-0.1728,0.552233,-0.399139,-0.144194,-0.0259947
29,65,-0.654498,-0.814493,-0.174533,-0.174533,-0.660021,-0.800238,-0.16492,-0.1728,0.552233,-0.399139,-0.144194,-0.0259947
29,65,-0.654498,-0.814493,-0.174533,-0.174533,-0.660021,-0.800238,-0.16492,-0.1728,0.552233,-0.399139,-0.144194,-0.0259947
29,65,-0.654498,-0.814493,-0.174533,-0.174533,-0.660021,-0.800238,-0.16492,-0.1728,0.552233,-0.399139,-0.144194,-0.0259947
29,65,-0.654498,-0.814493,-0.174533,-0.174533,-0.660021,-0.800238,-0.16492,-0.1728,0.552233,-0.399139,-0.144194,-0.0259947
29,65,-0.654498,-0.814493,-0.174533,-0.174533,-0.660021,-0.800238,-0.16492,-0.1728,0.552233,-0.399139,-0.144194,-0.0259947
29,65,-0.654498,-0.814493,-0.174533,-0.174533,-0.660021,-0.800238,-0.16492,-0.1728,0.552233,-0.399139,-0.144194,-0.0259947
29,65,-0.654498,-0.814493,-0.174533,-0.174533,-0.660021,-0.800238,-0.16492,-0.1728,0.552233,-0.399139,-0.144194,-0.0259947
29,65,-0.654498,-0.814493,-0.174533,-0.174533,-0.660021,-0.800238,-0.16492,-0.1728,0.552233,-0.399139,-0.144194,-0.0259947
29,65,-0.654498,-0.814493,-0.174533,-0.174533,-0.660021,-0.800238,-0.16492,-0.1728,0.552233,-0.399139,-0.144194,-0.0259947
29,65,-0.654498,-0.814493,-0.174533,-0.174533,-0.660021,-0.800238,-0.16492,-0.1728,0.552233,-0.399139,-0.144194,-0.0259947
29,65,-0.654498,-0.814493,-0.174533,-0.174533,-0.660021,-0.800238,-0.16492,-0.1728,0.552233,-0.399139,-0.144194,-0.0259947
29,65,-0.654498,-0.814493,-0.174533,-0.174533,-0.660021,-0.800238,-0.16492,-0.1728,0.552233,-0.399139,-0.144194,-0.0259947
29,65,-0.654498,-0.814493,-0.174533,-0.174533,-0.660021,-0.800238,-0.16492,-0.1728,0.552233,-0.399139,-0.144194,-0.0259947
29,65,-0.654498,-0.814493,-0.174533,-0.174533,-0.660021,-0.800238,-0.16492,-0.1728,0.552233,-0.399139,-0.144194,-0.0259947
29,65,-0.654498,-0.814493,-0.174533,-0.174533,-0.660021,-0.800238,-0.16492,-0.1728,0.552233,-0.399139,-0.144194,-0.0259947
29,65,-0.654498,-0.814493,-0.174533,-0.174533,-0.660021,-0.800238,-0.16492,-0.1728,0.552233,-0.399139,-0.144194,-0.0259947
29,65,-0.654498,-0.814493,-0.174533,-0.174533,-0.660021,-0.800238,-0.16492,-0.1728,0.552233,-0.399139,-0.144194,-0.0259947
29,65,-0.654498,-0.814493,-0.174533,-0.174533,-0.660021,-0.800238,-0.16492,-0.1728,0.552233,-0.399139,-0.144194,-0.0259947
29,65,-0.654498,-0.814493,-0.174533,-0.174533,-0.660021,-0.800238,-0.16492,-0.1728,0.552233,-0.399139,-0.144194,-0.0259947
29,65,-0.654498,-0.814493,-0.174533,-0.174533,-0.660021,-0.800238,-0.16492,-0.1728,0.552233,-0.399139,-0.144194,-0.0259947
29,65,-0.654498,-0.814493,-0.174533,-0.174533,-0.660021,-0.800238,-0.16492,-0.1728,0.552233,-0.399139,-0.144194,-0.0259947
29,65,-0.654498,-0.814493,-0.174533,-0.174533,-0.660021,-0.800238,-0.16492,-0.1728,0.552233,-0.399139,-0.144194,-0.0259947
29,65,-0.654498,-0.814493,-0.174533,-0.174533,-0.660021,-0.800238,-0.16492,-0.1728,0.552233,-0.399139,-0.144194,-0.0259947
29,65,-0.654498,-0.814493,-0.174533,-0.174533,-0.660021,-0.800238,-0.16492,-0.1728,0.552233,-0.399139,-0.144194,-0.0259947
29,65,-0.654498,-0.814493,-0.174533,-0.174533,-0.660021,-0.800238,-0.16492,-0.1728,0.552233,-0.399139,-0.144194,-0.0259947
29,65,-0.654498,-0.814493,-0.174533,-0.174533,-0.660021,-0.800238,-0.16492,-0.1728,0.552233,-0.399139,-0.144194,-0.0259947
29,65,-0.654498,-0.814493,-0.174533,-0.174533,-0.660021,-0.800238,-0.16492,-0.1728,0.552233,-0.399139,-0.144194,-0.0259947
29,65,-0.654498,-0.814493,-0.174533,-0.174533,-0.660021,-0.800238,-0.16492,-0.1728,0.552233,-0.399139,-0.144194,-0.0259947
29,65,-0.654498,-0.814493,-0.174533,-0.174533,-0.660021,-0.800238,-0.16492,-0.1728,0.552233,-0.399139,-0.144194,-0.0259947
29,65,-0.654498,-0.814493,-0.174533,-0.174533,-0.660021,-0.800238,-0.16492,-0.1728,0.552233,-0.399139,-0.144194,-0.0259947
29,65,-0.654498,-0.814493,-0.174533,-0.174533,-0.660021,-0.800238,-0.16492,-0.1728,0.552233,-0.399139,-0.144194,-0.0259947
29,65,-0.654498,-0.814493,-0.174533,-0.174533,-0.660021,-0.800238,-0.16492,-0.1728,0.552233,-0.399139,-0.144194,-0.0259947
29,65,-0.654498,-0.814493,-0.174533,-0.174533,-0.660021,-0.800238,-0.16492,-0.1728,0.552233,-0.399139,-0.144194,-0.0259947
29,65,-0.654498,-0.814493,-0.174533,-0.174533,-0.660021,-0.800238,-0.16492,-0.1728,0.552233,-0.399139,-0.144194,-0.0259947
29,65,-0.654498,-0.814493,-0.174533,-0.174533,-0.660021,-0.800238,-0.16492,-0.1728,0.552233,-0.399139,-0.144194,-0.0259947
29,65,-0.654498,-0.814493,-0.174533,-0.174533,-0.660021,-0.800238,-0.16492,-0.1728,0.552233,-0.399139,-0.144194,-0.0259947
29,65,-0.654498,-0.814493,-0.174533,-0.174533,-0.660021,-0.800238,-0.16492,-0.1728,0.552233,-0.399139,-0.144194,-0.0259947
29,65,-0.654498,-0.814493,-0.174533,-0.174533,-0.660021,-0.800238,-0.16492,-0.1728,0.552233,-0.399139,-0.144194,-0.0259947
29,65,-0.654498,-0.814493,-0.174533,-0.174533,-0.660021,-0.800238,-0.16492,-0.1728,0.552233,-0.399139,-0.144194,-0.0259947
29,65,-0.654498,-0.814493,-0.174533,-0.174533,-0.660021,-0.800238,-0.16492,-0.1728,0.552233,-0.399139,-0.144194,-0.0259947
29,65,-0.654498,-0.814493,-0.174533,-0.174533,-0.660021,-0.800238,-0.16492,-0.1728,0.552233,-0.399139,-0.144194,-0.0259947
29,65,-0.654498,-0.814493,-0.174533,-0.174533,-0.660021,-0.800238,-0.16492,-0.1728,0.552233,-0.399139,-0.144194,-0.0259947
29,65,-0.654498,-0.814493,-0.174533,-0.174533,-0.660021,-0.800238,-0.16492,-0.1728,0.552233,-0.399139,-0.144194,-0.0259947
29,65,-0.654498,-0.814493,-0.174533,-0.174533,-0.660021,-0.800238,-0.16492,-0.1728,0.552233,-0.399139,-0.144194,-0.0259947
29,65,-0.654498,-0.814493,-0.174533,-0.174533,-0.660021,-0.800238,-0.16492,-0.1728,0.552233,-0.399139,-0.144194,-0.0259947
29,65,-0.654498,-0.814493,-0.174533,-0.174533,-0.660021,-0.800238,-0.16492,-0.1728,0.552233,-0.399139,-0.144194,-0.0259947
29,65,-0.654498,-0.814493,-0.174533,-0.174533,-0.660021,-0.800238,-0.16492,-0.1728,0.552233,-0.399139,-0.144194,-0.0259947
29,65,-0.654498,-0.814493,-0.174533,-0.174533,-0.660021,-0.800238,-0.16492,-0.1728,0.552233,-0.399139,-0.144194,-0.0259947
29,65,-0.654498,-0.814493,-0.174533,-0.174533,-0.660021,-0.800238,-0.16492,-0.1728,0.552233,-0.399139,-0.144194,-0.0259947
29,65,-0.654498,-0.814493,-0.174533,-0.174533,-0.660021,-0.800238,-0.16492,-0.1728,0.552233,-0.399139,-0.144194,-0.0259947
29,65,-0.654498,-0.814493,-0.174533,-0.174533,-0.660021,-0.800238,-0.16492,-0.1728,0.552233,-0.399139,-0.144194,-0.0259947
29,65,-0.654498,-0.814493,-0.174533,-0.174533,-0.660021,-0.800238,-0.16492,-0.1728,0.552233,-0.399139,-0.144194,-0.0259947
29,65,-0.654498,-0.814493,-0.174533,-0.174533,-0.660021,-0.800238,-0.16492,-0.1728,0.552233,-0.399139,-0.144194,-0.0259947
29,65,-0.654498,-0.814493,-0.174533,-0.174533,-0.660021,-0.800238,-0.16492,-0.1728,0.552233,-0.399139,-0.144194,-0.0259947
29,65,-0.654498,-0.814493,-0.174533,-0.174533,-0.660021,-0.800238,-0.16492,-0.1728,0.552233,-0.399139,-0.144194,-0.0259947
29,65,-0.654498,-0.814493,-0.174533,-0.174533,-0.660021,-0.800238,-0.16492,-0.1728,0.552233,-0.399139,-0.144194,-0.0259947
29,65,-0.654498,-0.814493,-0.174533,-0.174533,-0.660021,-0.800238,-0.16492,-0.1728,0.552233,-0.399139,-0.144194,-0.0259947
29,65,-0.654498,-0.814493,-0.174533,-0.174533,-0.660021,-0.800238,-0.16492,-0.1728,0.552233,-0.399139,-0.144194,-0.0259947
29,65,-0.654498,-0.814493,-0.174533,-0.174533,-0.660021,-0.800238,-0.16492,-0.1728,0.552233,-0.399139,-0.144194,-0.0259947
29,65,-0.654498,-0.814493,-0.174533,-0.174533,-0.660021,-0.800238,-0.16492,-0.1728,0.552233,-0.399139,-0.144194,-0.0259947
29,65,-0.654498,-0.814493,-0.174533,-0.174533,-0.660021,-0.800238,-0.16492,-0.1728,0.552233,-0.399139,-0.144194,-0.0259947
29,65,-0.654498,-0.814493,-0.174533,-0.174533,-0.660021,-0.800238,-0.16492,-0.1728,0.552233,-0.399139,-0.144194,-0.0259947
29,65,-0.654498,-0.814493,-0.174533,-0.174533,-0.660021,-0.800238,-0.16492,-0.1728,0.552233,-0.399139,-0.144194,-0.0259947
29,65,-0.654498,-0.814493,-0.174533,-0.174533,-0.660021,-0.800238,-0.16492,-0.1728,0.552233,-0.399139,-0.144194,-0.0259947
29,65,-0.654498,-0.814493,-0.174533,-0.174533,-0.660021,-0.800238,-0.16492,-0.1728,0.552233,-0.399139,-0.144194,-0.0259947
29,65,-0.654498,-0.814493,-0.174533,-0.174533,-0.660021,-0.800238,-0.16492,-0.1728,0.552233,-0.399139,-0.144194,-0.0259947
29,65,-0.654498,-0.814493,-0.174533,-0.174533,-0.660021,-0.800238,-0.16492,-0.1728,0.552233,-0.399139,-0.144194,-0.0259947
29,65,-0.654498,-0.814493,-0.174533,-0.174533,-0.660021,-0.800238,-0.16492,-0.1728,0.552233,-0.399139,-0.144194,-0.0259947
29,65,-0.654498,-0.814493,-0.174533,-0.174533,-0.660021,-0.800238,-0.16492,-0.1728,0.552233,-0.399139,-0.144194,-0.0259947
29,65,-0.654498,-0.814493,-0.174533,-0.174533,-0.660021,-0.800238,-0.16492,-0.1728,0.552233,-0.399139,-0.144194,-0.0259947
29,65,-0.654498,-0.814493,-0.174533,-0.174533,-0.660021,-0.800238,-0.16492,-0.1728,0.552233,-0.399139,-0.144194,-0.0259947
29,65,-0.654498,-0.814493,-0.174533,-0.174533,-0.660021,-0.800289,-0.16492,-0.1728,0.552233,-0.397715,-0.144194,-0.0259947
29,65,-0.654498,-0.814493,-0.174533,-0.174533,-0.660021,-0.800289,-0.16492,-0.1728,0.552233,-0.397715,-0.144194,-0.0259947
29,65,-0.654498,-0.814493,-0.174533,-0.174533,-0.660021,-0.800289,-0.16492,-0.1728,0.552233,-0.397715,-0.144194,-0.0259947
29,65,-0.654498,-0.814493,-0.174533,-0.174533,-0.660021,-0.800289,-0.16492,-0.1728,0.552233,-0.397715,-0.144194,-0.0259947
29,65,-0.654498,-0.814493,-0.174533,-0.174533,-0.660021,-0.800289,-0.16492,-0.1728,0.552233,-0.397715,-0.144194,-0.0259947
29,65,-0.654498,-0.814493,-0.174533,-0.174533,-0.660021,-0.800289,-0.16492,-0.1728,0.552233,-0.397715,-0.144194,-0.0259947
29,65,-0.654498,-0.814493,-0.174533,-0.174533,-0.660021,-0.800289,-0.16492,-0.1728,0.552233,-0.397715,-0.144194,-0.0259947
29,65,-0.654498,-0.814493,-0.174533,-0.174533,-0.660021,-0.800289,-0.16492,-0.1728,0.552233,-0.397715,-0.144194,-0.0259947
29,65,-0.654498,-0.814493,-0.174533,-0.174533,-0.660021,-0.800289,-0.16492,-0.1728,0.552233,-0.397715,-0.144194,-0.0259947
29,65,-0.654498,-0.814493,-0.174533,-0.174533,-0.660021,-0.800289,-0.16492,-0.1728,0.552233,-0.397715,-0.144194,-0.0259947
29,65,-0.654498,-0.814493,-0.174533,-0.174533,-0.660021,-0.800289,-0.16492,-0.1728,0.552233,-0.397715,-0.144194,-0.0259947
29,65,-0.654498,-0.814493,-0.174533,-0.174533,-0.660021,-0.800289,-0.16492,-0.1728,0.552233,-0.397715,-0.144194,-0.0259947
29,65,-0.654498,-0.814493,-0.174533,-0.174533,-0.660021,-0.800289,-0.16492,-0.1728,0.552233,-0.397715,-0.144194,-0.0259947
29,65,-0.654498,-0.814493,-0.174533,-0.174533,-0.660021,-0.800289,-0.16492,-0.1728,0.552233,-0.397715,-0.144194,-0.0259947
29,65,-0.654498,-0.814493,-0.174533,-0.174533,-0.660021,-0.800289,-0.16492,-0.1728,0.552233,-0.397715,-0.144194,-0.0259947
29,65,-0.654498,-0.814493,-0.174533,-0.174533,-0.660021,-0.800289,-0.16492,-0.1728,0.552233,-0.397715,-0.144194,-0.0259947
29,65,-0.654498,-0.814493,-0.174533,-0.174533,-0.660021,-0.800289,-0.16492,-0.1728,0.552233,-0.397715,-0.144194,-0.0259947
29,65,-0.654498,-0.814493,-0.174533,-0.174533,-0.660021,-0.800289,-0.16492,-0.1728,0.552233,-0.397715,-0.144194,-0.0259947
29,65,-0.654498,-0.814493,-0.174533,-0.174533,-0.660021,-0.800289,-0.16492,-0.1728,0.552233,-0.397715,-0.144194,-0.0259947
29,65,-0.654498,-0.814493,-0.174533,-0.174533,-0.660021,-0.800289,-0.16492,-0.1728,0.552233,-0.397715,-0.144194,-0.0259947
29,65,-0.654498,-0.814493,-0.174533,-0.174533,-0.660021,-0.800289,-0.16492,-0.1728,0.552233,-0.397715,-0.144194,-0.0259947
29,65,-0.654498,-0.814493,-0.174533,-0.174533,-0.660021,-0.800289,-0.16492,-0.1728,0.552233,-0.397715,-0.144194,-0.0259947
29,65,-0.654498,-0.814493,-0.174533,-0.174533,-0.660021,-0.800289,-0.16492,-0.1728,0.552233,-0.397715,-0.144194,-0.0259947
29,65,-0.654498,-0.814493,-0.174533,-0.174533,-0.660021,-0.800289,-0.16492,-0.1728,0.552233,-0.397715,-0.144194,-0.0259947
29,65,-0.654498,-0.814493,-0.174533,-0.174533,-0.660021,-0.800289,-0.16492,-0.1728,0.552233,-0.397715,-0.144194,-0.0259947
29,65,-0.654498,-0.814493,-0.174533,-0.174533,-0.660021,-0.800289,-0.16492,-0.1728,0.552233,-0.397715,-0.144194,-0.0259947
29,65,-0.654498,-0.814493,-0.174533,-0.174533,-0.660021,-0.800289,-0.16492,-0.1728,0.552233,-0.397715,-0.144194,-0.0259947
29,65,-0.654498,-0.814493,-0.174533,-0.174533,-0.660021,-0.800289,-0.16492,-0.1728,0.552233,-0.397715,-0.144194,-0.0259947
29,65,-0.654498,-0.814493,-0.174533,-0.174533,-0.660021,-0.800289,-0.16492,-0.1728,0.552233,-0.397715,-0.144194,-0.0259947
29,65,-0.654498,-0.814493,-0.174533,-0.174533,-0.660021,-0.800289,-0.164923,-0.17286,0.552233,-0.397715,-0.144155,-0.0250986
29,65,-0.654498,-0.814493,-0.174533,-0.174533,-0.660021,-0.800289,-0.164923,-0.17286,0.552233,-0.397715,-0.144155,-0.0250986
29,65,-0.654498,-0.814493,-0.174533,-0.174533,-0.660021,-0.800289,-0.164923,-0.17286,0.552233,-0.397715,-0.144155,-0.0250986
29,65,-0.654498,-0.814493,-0.174533,-0.174533,-0.660021,-0.800289,-0.164923,-0.17286,0.552233,-0.397715,-0.144155,-0.0250986
29,65,-0.654498,-0.814493,-0.174533,-0.174533,-0.660021,-0.800289,-0.164923,-0.17286,0.552233,-0.397715,-0.144155,-0.0250986
29,65,-0.654498,-0.814493,-0.174533,-0.174533,-0.660021,-0.800289,-0.164923,-0.17286,0.552233,-0.397715,-0.144155,-0.0250986
29,65,-0.654498,-0.814493,-0.174533,-0.174533,-0.660021,-0.800289,-0.164923,-0.17286,0.552233,-0.397715,-0.144155,-0.0250986
29,65,-0.654498,-0.814493,-0.174533,-0.174533,-0.660021,-0.800289,-0.164923,-0.17286,0.552233,-0.397715,-0.144155,-0.0250986
29,65,-0.654498,-0.814493,-0.174533,-0.174533,-0.660021,-0.800289,-0.164923,-0.17286,0.552233,-0.397715,-0.144155,-0.0250986
29,65,-0.654498,-0.814493,-0.174533,-0.174533,-0.660021,-0.800289,-0.164923,-0.17286,0.552233,-0.397715,-0.144155,-0.0250986
29,65,-0.654498,-0.814493,-0.174533,-0.174533,-0.660021,-0.800289,-0.164923,-0.17286,0.552233,-0.397715,-0.144155,-0.0250986
29,65,-0.654498,-0.814493,-0.174533,-0.174533,-0.660021,-0.800289,-0.164923,-0.17286,0.552233,-0.397715,-0.144155,-0.0250986
29,65,-0.654498,-0.814493,-0.174533,-0.174533,-0.660021,-0.800289,-0.164923,-0.17286,0.552233,-0.397715,-0.144155,-0.0250986
29,65,-0.654498,-0.814493,-0.174533,-0.174533,-0.660021,-0.800289,-0.164923,-0.17286,0.552233,-0.397715,-0.144155,-0.0250986
29,65,-0.654498,-0.814493,-0.174533,-0.174533,-0.660021,-0.800289,-0.164923,-0.17286,0.552233,-0.397715,-0.144155,-0.0250986
29,65,-0.654498,-0.814493,-0.174533,-0.174533,-0.660021,-0.800289,-0.164923,-0.17286,0.552233,-0.397715,-0.144155,-0.0250986
29,65,-0.654498,-0.814493,-0.174533,-0.174533,-0.660021,-0.800289,-0.164923,-0.17286,0.552233,-0.397715,-0.144155,-0.0250986
29,65,-0.654498,-0.814493,-0.174533,-0.174533,-0.660021,-0.800289,-0.164923,-0.17286,0.552233,-0.397715,-0.144155,-0.0250986
29,65,-0.654498,-0.814493,-0.174533,-0.174533,-0.660021,-0.800289,-0.164923,-0.17286,0.552233,-0.397715,-0.144155,-0.0250986
29,65,-0.654498,-0.814493,-0.174533,-0.174533,-0.660021,-0.800289,-0.164923,-0.17286,0.552233,-0.397715,-0.144155,-0.0250986
29,65,-0.654498,-0.814493,-0.174533,-0.174533,-0.660021,-0.800289,-0.164923,-0.17286,0.552233,-0.397715,-0.144155,-0.0250986
29,65,-0.654498,-0.814493,-0.174533,-0.174533,-0.660021,-0.800289,-0.164923,-0.17286,0.552233,-0.397715,-0.144155,-0.0250986
29,65,-0.654498,-0.814493,-0.174533,-0.174533,-0.660021,-0.800289,-0.164923,-0.17286,0.552233,-0.397715,-0.144155,-0.0250986
29,65,-0.654498,-0.814493,-0.174533,-0.174533,-0.660021,-0.800289,-0.164923,-0.17286,0.552233,-0.397715,-0.144155,-0.0250986
29,65,-0.654498,-0.814493,-0.174533,-0.174533,-0.660021,-0.800289,-0.164923,-0.17286,0.552233,-0.397715,-0.144155,-0.0250986
29,65,-0.654498,-0.814493,-0.174533,-0.174533,-0.660021,-0.800289,-0.164923,-0.17286,0.552233,-0.397715,-0.144155,-0.0250986
29,65,-0.654498,-0.814493,-0.174533,-0.174533,-0.660021,-0.800289,-0.164923,-0.17286,0.552233,-0.397715,-0.144155,-0.0250986
29,65,-0.654498,-0.814493,-0.174533,-0.174533,-0.660021,-0.800289,-0.164923,-0.17286,0.552233,-0.397715,-0.144155,-0.0250986
29,65,-0.654498,-0.814493,-0.174533,-0.174533,-0.660021,-0.800289,-0.164923,-0.17286,0.552233,-0.397715,-0.144155,-0.0250986
29,65,-0.654498,-0.814493,-0.174533,-0.174533,-0.660021,-0.800289,-0.164923,-0.17286,0.552233,-0.397715,-0.144155,-0.0250986
29,65,-0.654498,-0.814493,-0.174533,-0.174533,-0.660021,-0.800289,-0.164923,-0.17286,0.552233,-0.397715,-0.144155,-0.0250986
29,65,-0.654498,-0.814493,-0.174533,-0.174533,-0.660021,-0.800289,-0.164923,-0.17286,0.552233,-0.397715,-0.144155,-0.0250986
29,65,-0.654498,-0.814493,-0.174533,-0.174533,-0.660021,-0.800289,-0.164923,-0.17286,0.552233,-0.397715,-0.144155,-0.0250986
29,65,-0.654498,-0.814493,-0.174533,-0.174533,-0.660021,-0.800289,-0.164923,-0.17286,0.552233,-0.397715,-0.144155,-0.0250986
29,65,-0.654498,-0.814493,-0.174533,-0.174533,-0.660021,-0.800289,-0.164923,-0.17286,0.552233,-0.397715,-0.144155,-0.0250986
29,65,-0.654498,-0.814493,-0.174533,-0.174533,-0.660021,-0.800289,-0.164923,-0.17286,0.552233,-0.397715,-0.144155,-0.0250986
29,65,-0.654498,-0.814493,-0.174533,-0.174533,-0.660021,-0.800289,-0.164923,-0.17286,0.552233,-0.397715,-0.144155,-0.0250986
29,65,-0.654498,-0.814493,-0.174533,-0.174533,-0.660021,-0.800289,-0.164923,-0.17286,0.552233,-0.397715,-0.144155,-0.0250986
29,65,-0.654498,-0.814493,-0.174533,-0.174533,-0.660021,-0.800289,-0.164923,-0.17286,0.552233,-0.397715,-0.144155,-0.0250986
29,65,-0.654498,-0.814493,-0.174533,-0.174533,-0.660021,-0.800289,-0.164923,-0.17286,0.552233,-0.397715,-0.144155,-0.0250986
29,65,-0.654498,-0.814493,-0.174533,-0.174533,-0.660021,-0.800289,-0.164923,-0.17286,0.552233,-0.397715,-0.144155,-0.0250986
29,65,-0.654498,-0.814493,-0.174533,-0.174533,-0.660021,-0.800289,-0.164923,-0.17286,0.552233,-0.397715,-0.144155,-0.0250986
29,65,-0.654498,-0.814493,-0.174533,-0.174533,-0.660021,-0.800289,-0.164923,-0.17286,0.552233,-0.397715,-0.144155,-0.0250986
29,65,-0.654498,-0.814493,-0.174533,-0.174533,-0.660021,-0.800289,-0.164923,-0.17286,0.552233,-0.397715,-0.144155,-0.0250986
29,65,-0.654498,-0.814493,-0.174533,-0.174533,-0.660021,-0.800289,-0.164923,-0.17286,0.552233,-0.397715,-0.144155,-0.0250986
29,65,-0.654498,-0.814493,-0.174533,-0.174533,-0.660021,-0.800289,-0.164923,-0.17286,0.552233,-0.397715,-0.144155,-0.0250986
29,65,-0.654498,-0.814493,-0.174533,-0.174533,-0.660021,-0.800289,-0.164923,-0.17286,0.552233,-0.397715,-0.144155,-0.0250986
29,65,-0.654498,-0.814493,-0.174533,-0.174533,-0.660021,-0.800289,-0.164923,-0.17286,0.552233,-0.397715,-0.144155,-0.0250986
29,65,-0.654498,-0.814493,-0.174533,-0.174533,-0.660021,-0.800289,-0.164923,-0.17286,0.552233,-0.397715,-0.144155,-0.0250986
29,65,-0.654498,-0.814493,-0.174533,-0.174533,-0.660021,-0.800289,-0.164923,-0.17286,0.552233,-0.397715,-0.144155,-0.0250986
29,65,-0.654498,-0.814493,-0.174533,-0.174533,-0.660021,-0.800289,-0.164923,-0.17286,0.552233,-0.397715,-0.144155,-0.0250986
29,65,-0.654498,-0.814493,-0.174533,-0.174533,-0.660021,-0.800289,-0.164923,-0.17286,0.552233,-0.397715,-0.144155,-0.0250986
29,65,-0.654498,-0.814493,-0.174533,-0.174533,-0.660021,-0.800289,-0.164923,-0.17286,0.552233,-0.397715,-0.144155,-0.0250986
29,65,-0.654498,-0.814493,-0.174533,-0.174533,-0.660021,-0.800289,-0.164923,-0.17286,0.552233,-0.397715,-0.144155,-0.0250986
29,65,-0.654498,-0.814493,-0.174533,-0.174533,-0.660021,-0.800289,-0.164923,-0.17286,0.552233,-0.397715,-0.144155,-0.0250986
29,65,-0.654498,-0.814493,-0.174533,-0.174533,-0.660021,-0.800289,-0.164923,-0.17286,0.552233,-0.397715,-0.144155,-0.0250986
29,65,-0.654498,-0.814493,-0.174533,-0.174533,-0.660021,-0.800289,-0.164923,-0.17286,0.552233,-0.397715,-0.144155,-0.0250986
29,65,-0.654498,-0.814493,-0.174533,-0.174533,-0.660021,-0.800289,-0.164923,-0.17286,0.552233,-0.397715,-0.144155,-0.0250986
29,65,-0.654498,-0.814493,-0.174533,-0.174533,-0.660021,-0.800289,-0.164923,-0.17286,0.552233,-0.397715,-0.144155,-0.0250986
29,65,-0.654498,-0.814493,-0.174533,-0.174533,-0.660021,-0.800289,-0.164923,-0.17286,0.552233,-0.397715,-0.144155,-0.0250986
29,65,-0.654498,-0.814493,-0.174533,-0.174533,-0.660021,-0.800289,-0.164923,-0.17286,0.552233,-0.397715,-0.144155,-0.0250986
29,65,-0.654498,-0.814493,-0.174533,-0.174533,-0.660021,-0.800289,-0.164923,-0.17286,0.552233,-0.397715,-0.144155,-0.0250986
29,65,-0.654498,-0.814493,-0.174533,-0.174533,-0.660021,-0.800289,-0.164923,-0.17286,0.552233,-0.397715,-0.144155,-0.0250986
29,65,-0.654498,-0.814493,-0.174533,-0.174533,-0.660021,-0.800289,-0.164923,-0.17286,0.552233,-0.397715,-0.144155,-0.0250986
29,65,-0.654498,-0.814493,-0.174533,-0.174533,-0.660021,-0.800289,-0.164923,-0.17286,0.552233,-0.397715,-0.144155,-0.0250986
29,65,-0.654498,-0.814493,-0.174533,-0.174533,-0.660021,-0.800289,-0.164923,-0.17286,0.552233,-0.397715,-0.144155,-0.0250986
29,65,-0.654498,-0.814493,-0.174533,-0.174533,-0.660021,-0.800289,-0.164923,-0.17286,0.552233,-0.397715,-0.144155,-0.0250986
29,65,-0.654498,-0.814493,-0.174533,-0.174533,-0.660021,-0.800289,-0.164923,-0.17286,0.552233,-0.397715,-0.144155,-0.0250986
29,65,-0.654498,-0.814493,-0.174533,-0.174533,-0.660021,-0.800289,-0.164923,-0.17286,0.552233,-0.397715,-0.144155,-0.0250986
29,65,-0.654498,-0.814493,-0.174533,-0.174533,-0.660021,-0.800289,-0.164923,-0.17286,0.552233,-0.397715,-0.144155,-0.0250986
29,65,-0.654498,-0.814493,-0.174533,-0.174533,-0.660021,-0.800289,-0.164923,-0.17286,0.552233,-0.397715,-0.144155,-0.0250986
29,65,-0.654498,-0.814493,-0.174533,-0.174533,-0.660021,-0.800289,-0.164923,-0.17286,0.552233,-0.397715,-0.144155,-0.0250986
29,65,-0.654498,-0.814493,-0.174533,-0.174533,-0.660021,-0.800289,-0.164923,-0.17286,0.552233,-0.397715,-0.144155,-0.0250986
29,65,-0.654498,-0.814493,-0.174533,-0.174533,-0.660021,-0.800289,-0.164923,-0.17286,0.552233,-0.397715,-0.144155,-0.0250986
29,65,-0.654498,-0.814493,-0.174533,-0.174533,-0.660021,-0.800289,-0.164923,-0.17286,0.552233,-0.397715,-0.144155,-0.0250986
29,65,-0.654498,-0.814493,-0.174533,-0.174533,-0.660021,-0.800289,-0.164923,-0.17286,0.552233,-0.397715,-0.144155,-0.0250986
29,65,-0.654498,-0.814493,-0.174533,-0.174533,-0.660021,-0.800289,-0.164923,-0.17286,0.552233,-0.397715,-0.144155,-0.0250986
29,65,-0.654498,-0.814493,-0.174533,-0.174533,-0.660021,-0.800289,-0.164923,-0.17286,0.552233,-0.397715,-0.144155,-0.0250986
29,65,-0.654498,-0.814493,-0.174533,-0.174533,-0.660021,-0.800289,-0.164923,-0.17286,0.552233,-0.397715,-0.144155,-0.0250986
29,65,-0.654498,-0.814493,-0.174533,-0.174533,-0.660021,-0.800289,-0.164923,-0.17286,0.552233,-0.397715,-0.144155,-0.0250986
29,65,-0.654498,-0.814493,-0.174533,-0.174533,-0.660021,-0.800289,-0.164923,-0.17286,0.552233,-0.397715,-0.144155,-0.0250986
29,65,-0.654498,-0.814493,-0.174533,-0.174533,-0.660021,-0.800289,-0.164923,-0.17286,0.552233,-0.397715,-0.144155,-0.0250986
29,65,-0.654498,-0.814493,-0.174533,-0.174533,-0.660021,-0.800289,-0.164923,-0.17286,0.552233,-0.397715,-0.144155,-0.0250986
29,65,-0.654498,-0.814493,-0.174533,-0.174533,-0.660021,-0.800289,-0.164923,-0.17286,0.552233,-0.397715,-0.144155,-0.0250986
29,65,-0.654498,-0.814493,-0.174533,-0.174533,-0.660021,-0.80034,-0.164923,-0.17286,0.552233,-0.396292,-0.144155,-0.0250986
29,65,-0.654498,-0.814493,-0.174533,-0.174533,-0.660021,-0.80034,-0.164923,-0.17286,0.552233,-0.396292,-0.144155,-0.0250986
29,65,-0.654498,-0.814493,-0.174533,-0.174533,-0.660021,-0.80034,-0.164923,-0.17286,0.552233,-0.396292,-0.144155,-0.0250986
29,65,-0.654498,-0.814493,-0.174533,-0.174533,-0.660021,-0.80034,-0.164923,-0.17286,0.552233,-0.396292,-0.144155,-0.0250986
29,65,-0.654498,-0.814493,-0.174533,-0.174533,-0.660021,-0.80034,-0.164923,-0.17286,0.552233,-0.396292,-0.144155,-0.0250986
29,65,-0.654498,-0.814493,-0.174533,-0.174533,-0.660021,-0.80034,-0.164923,-0.17286,0.552233,-0.396292,-0.144155,-0.0250986
29,65,-0.654498,-0.814493,-0.174533,-0.174533,-0.660021,-0.80034,-0.164923,-0.17286,0.552233,-0.396292,-0.144155,-0.0250986
29,65,-0.654498,-0.814493,-0.174533,-0.174533,-0.660021,-0.80034,-0.164858,-0.172818,0.552233,-0.396292,-0.145128,-0.0257303
29,65,-0.654498,-0.814493,-0.174533,-0.174533,-0.660021,-0.80034,-0.164858,-0.172818,0.552233,-0.396292,-0.145128,-0.0257303
29,65,-0.654498,-0.814493,-0.174533,-0.174533,-0.660021,-0.80034,-0.164858,-0.172818,0.552233,-0.396292,-0.145128,-0.0257303
29,65,-0.654498,-0.814493,-0.174533,-0.174533,-0.660021,-0.80034,-0.164858,-0.172818,0.552233,-0.396292,-0.145128,-0.0257303
29,65,-0.654498,-0.814493,-0.174533,-0.174533,-0.660021,-0.80034,-0.164858,-0.172818,0.552233,-0.396292,-0.145128,-0.0257303
29,65,-0.654498,-0.814493,-0.174533,-0.174533,-0.660021,-0.80034,-0.164858,-0.172818,0.552233,-0.396292,-0.145128,-0.0257303
29,65,-0.654498,-0.814493,-0.174533,-0.174533,-0.660021,-0.80034,-0.164858,-0.172818,0.552233,-0.396292,-0.145128,-0.0257303
29,65,-0.654498,-0.814493,-0.174533,-0.174533,-0.660021,-0.80034,-0.164858,-0.172818,0.552233,-0.396292,-0.145128,-0.0257303
29,65,-0.654498,-0.814493,-0.174533,-0.174533,-0.660021,-0.80034,-0.164858,-0.172818,0.552233,-0.396292,-0.145128,-0.0257303
29,65,-0.654498,-0.814493,-0.174533,-0.174533,-0.660021,-0.80034,-0.164858,-0.172818,0.552233,-0.396292,-0.145128,-0.0257303
29,65,-0.654498,-0.814493,-0.174533,-0.174533,-0.660021,-0.80034,-0.164858,-0.172818,0.552233,-0.396292,-0.145128,-0.0257303
29,65,-0.654498,-0.814493,-0.174533,-0.174533,-0.660021,-0.80034,-0.164858,-0.172818,0.552233,-0.396292,-0.145128,-0.0257303
29,65,-0.654498,-0.814493,-0.174533,-0.174533,-0.660021,-0.80034,-0.164858,-0.172818,0.552233,-0.396292,-0.145128,-0.0257303
29,65,-0.654498,-0.814493,-0.174533,-0.174533,-0.660021,-0.80034,-0.164858,-0.172818,0.552233,-0.396292,-0.145128,-0.0257303
29,65,-0.654498,-0.814493,-0.174533,-0.174533,-0.660021,-0.80034,-0.164858,-0.172818,0.552233,-0.396292,-0.145128,-0.0257303
29,65,-0.654498,-0.814493,-0.174533,-0.174533,-0.660021,-0.80034,-0.164858,-0.172818,0.552233,-0.396292,-0.145128,-0.0257303
29,65,-0.654498,-0.814493,-0.174533,-0.174533,-0.660021,-0.80034,-0.164858,-0.172818,0.552233,-0.396292,-0.145128,-0.0257303
29,65,-0.654498,-0.814493,-0.174533,-0.174533,-0.660021,-0.80034,-0.164858,-0.172818,0.552233,-0.396292,-0.145128,-0.0257303
29,65,-0.654498,-0.814493,-0.174533,-0.174533,-0.660021,-0.80034,-0.164858,-0.172818,0.552233,-0.396292,-0.145128,-0.0257303
29,65,-0.654498,-0.814493,-0.174533,-0.174533,-0.660021,-0.80034,-0.164858,-0.172818,0.552233,-0.396292,-0.145128,-0.0257303
29,65,-0.654498,-0.814493,-0.174533,-0.174533,-0.660021,-0.80034,-0.164858,-0.172818,0.552233,-0.396292,-0.145128,-0.0257303
29,65,-0.654498,-0.814493,-0.174533,-0.174533,-0.660021,-0.80034,-0.164858,-0.172818,0.552233,-0.396292,-0.145128,-0.0257303
29,65,-0.654498,-0.814493,-0.174533,-0.174533,-0.660021,-0.80034,-0.164858,-0.172818,0.552233,-0.396292,-0.145128,-0.0257303
29,65,-0.654498,-0.814493,-0.174533,-0.174533,-0.660021,-0.80034,-0.164858,-0.172818,0.552233,-0.396292,-0.145128,-0.0257303
29,65,-0.654498,-0.814493,-0.174533,-0.174533,-0.660021,-0.80034,-0.164858,-0.172818,0.552233,-0.396292,-0.145128,-0.0257303
29,65,-0.654498,-0.814493,-0.174533,-0.174533,-0.660021,-0.80034,-0.164858,-0.172818,0.552233,-0.396292,-0.145128,-0.0257303
29,65,-0.654498,-0.814493,-0.174533,-0.174533,-0.660021,-0.80034,-0.164858,-0.172818,0.552233,-0.396292,-0.145128,-0.0257303
29,65,-0.654498,-0.814493,-0.174533,-0.174533,-0.660021,-0.80034,-0.164858,-0.172818,0.552233,-0.396292,-0.145128,-0.0257303
29,65,-0.654498,-0.814493,-0.174533,-0.174533,-0.660021,-0.80034,-0.164858,-0.172818,0.552233,-0.396292,-0.145128,-0.0257303
29,65,-0.654498,-0.814493,-0.174533,-0.174533,-0.660021,-0.80034,-0.164858,-0.172818,0.552233,-0.396292,-0.145128,-0.0257303
29,65,-0.654498,-0.814493,-0.174533,-0.174533,-0.660021,-0.80034,-0.164858,-0.172818,0.552233,-0.396292,-0.145128,-0.0257303
29,65,-0.654498,-0.814493,-0.174533,-0.174533,-0.660021,-0.80034,-0.164858,-0.172818,0.552233,-0.396292,-0.145128,-0.0257303
29,65,-0.654498,-0.814493,-0.174533,-0.174533,-0.660021,-0.80034,-0.164858,-0.172818,0.552233,-0.396292,-0.145128,-0.0257303
29,65,-0.654498,-0.814493,-0.174533,-0.174533,-0.660021,-0.80034,-0.164858,-0.172818,0.552233,-0.396292,-0.145128,-0.0257303
29,65,-0.654498,-0.814493,-0.174533,-0.174533,-0.660021,-0.80034,-0.164858,-0.172818,0.552233,-0.396292,-0.145128,-0.0257303
29,65,-0.654498,-0.814493,-0.174533,-0.174533,-0.660021,-0.80034,-0.164858,-0.172818,0.552233,-0.396292,-0.145128,-0.0257303
29,65,-0.654498,-0.814493,-0.174533,-0.174533,-0.660021,-0.80034,-0.164858,-0.172818,0.552233,-0.396292,-0.145128,-0.0257303
29,65,-0.654498,-0.814493,-0.174533,-0.174533,-0.660021,-0.80034,-0.164858,-0.172818,0.552233,-0.396292,-0.145128,-0.0257303
29,65,-0.654498,-0.814493,-0.174533,-0.174533,-0.660021,-0.80034,-0.164858,-0.172818,0.552233,-0.396292,-0.145128,-0.0257303
29,65,-0.654498,-0.814493,-0.174533,-0.174533,-0.660021,-0.80034,-0.164858,-0.172818,0.552233,-0.396292,-0.145128,-0.0257303
29,65,-0.654498,-0.814493,-0.174533,-0.174533,-0.660021,-0.80034,-0.164858,-0.172818,0.552233,-0.396292,-0.145128,-0.0257303
29,65,-0.654498,-0.814493,-0.174533,-0.174533,-0.660021,-0.80034,-0.164858,-0.172818,0.552233,-0.396292,-0.145128,-0.0257303
29,65,-0.654498,-0.814493,-0.174533,-0.174533,-0.660021,-0.80034,-0.164858,-0.172818,0.552233,-0.396292,-0.145128,-0.0257303
29,65,-0.654498,-0.814493,-0.174533,-0.174533,-0.660021,-0.80034,-0.164858,-0.172818,0.552233,-0.396292,-0.145128,-0.0257303
29,65,-0.654498,-0.814493,-0.174533,-0.174533,-0.660021,-0.80034,-0.164858,-0.172818,0.552233,-0.396292,-0.145128,-0.0257303
29,65,-0.654498,-0.814493,-0.174533,-0.174533,-0.660021,-0.80034,-0.164858,-0.172818,0.552233,-0.396292,-0.145128,-0.0257303
29,65,-0.654498,-0.814493,-0.174533,-0.174533,-0.660021,-0.80034,-0.164858,-0.172818,0.552233,-0.396292,-0.145128,-0.0257303
29,65,-0.654498,-0.814493,-0.174533,-0.174533,-0.660021,-0.80034,-0.164858,-0.172818,0.552233,-0.396292,-0.145128,-0.0257303
29,65,-0.654498,-0.814493,-0.174533,-0.174533,-0.660021,-0.80034,-0.164858,-0.172818,0.552233,-0.396292,-0.145128,-0.0257303
29,65,-0.654498,-0.814493,-0.174533,-0.174533,-0.660021,-0.80034,-0.164858,-0.172818,0.552233,-0.396292,-0.145128,-0.0257303
29,65,-0.654498,-0.814493,-0.174533,-0.174533,-0.660021,-0.80034,-0.164858,-0.172818,0.552233,-0.396292,-0.145128,-0.0257303
29,65,-0.654498,-0.814493,-0.174533,-0.174533,-0.660021,-0.80034,-0.164858,-0.172818,0.552233,-0.396292,-0.145128,-0.0257303
29,65,-0.654498,-0.814493,-0.174533,-0.174533,-0.660021,-0.80034,-0.164858,-0.172818,0.552233,-0.396292,-0.145128,-0.0257303
29,65,-0.654498,-0.814493,-0.174533,-0.174533,-0.660021,-0.80034,-0.164858,-0.172818,0.552233,-0.396292,-0.145128,-0.0257303
29,65,-0.654498,-0.814493,-0.174533,-0.174533,-0.660021,-0.80034,-0.164858,-0.172818,0.552233,-0.396292,-0.145128,-0.0257303
29,65,-0.654498,-0.814493,-0.174533,-0.174533,-0.660021,-0.80034,-0.164858,-0.172818,0.552233,-0.396292,-0.145128,-0.0257303
29,65,-0.654498,-0.814493,-0.174533,-0.174533,-0.660021,-0.80034,-0.164858,-0.172818,0.552233,-0.396292,-0.145128,-0.0257303
29,65,-0.654498,-0.814493,-0.174533,-0.174533,-0.660021,-0.80034,-0.164858,-0.172818,0.552233,-0.396292,-0.145128,-0.0257303
29,65,-0.654498,-0.814493,-0.174533,-0.174533,-0.660021,-0.80034,-0.164858,-0.172818,0.552233,-0.396292,-0.145128,-0.0257303
29,65,-0.654498,-0.814493,-0.174533,-0.174533,-0.660021,-0.80034,-0.164858,-0.172818,0.552233,-0.396292,-0.145128,-0.0257303
29,65,-0.654498,-0.814493,-0.174533,-0.174533,-0.660021,-0.80034,-0.164858,-0.172818,0.552233,-0.396292,-0.145128,-0.0257303
29,65,-0.654498,-0.814493,-0.174533,-0.174533,-0.660021,-0.80034,-0.164793,-0.172775,0.552233,-0.396292,-0.146101,-0.026362
29,65,-0.654498,-0.814493,-0.174533,-0.174533,-0.660021,-0.80034,-0.164793,-0.172775,0.552233,-0.396292,-0.146101,-0.026362
29,65,-0.654498,-0.814493,-0.174533,-0.174533,-0.660021,-0.80034,-0.164793,-0.172775,0.552233,-0.396292,-0.146101,-0.026362
29,65,-0.654498,-0.814493,-0.174533,-0.174533,-0.660021,-0.80034,-0.164793,-0.172775,0.552233,-0.396292,-0.146101,-0.026362
29,65,-0.654498,-0.814493,-0.174533,-0.174533,-0.660021,-0.80034,-0.164793,-0.172775,0.552233,-0.396292,-0.146101,-0.026362
29,65,-0.654498,-0.814493,-0.174533,-0.174533,-0.660021,-0.80034,-0.164793,-0.172775,0.552233,-0.396292,-0.146101,-0.026362
29,65,-0.654498,-0.814493,-0.174533,-0.174533,-0.660021,-0.80034,-0.164793,-0.172775,0.552233,-0.396292,-0.146101,-0.026362
29,65,-0.654498,-0.814493,-0.174533,-0.174533,-0.660021,-0.80034,-0.164793,-0.172775,0.552233,-0.396292,-0.146101,-0.026362
29,65,-0.654498,-0.814493,-0.174533,-0.174533,-0.660021,-0.80034,-0.164795,-0.172835,0.552233,-0.396292,-0.146063,-0.0254659
29,65,-0.654498,-0.814493,-0.174533,-0.174533,-0.660021,-0.80034,-0.164795,-0.172835,0.552233,-0.396292,-0.146063,-0.0254659
29,65,-0.654498,-0.814493,-0.174533,-0.174533,-0.660021,-0.80034,-0.164795,-0.172835,0.552233,-0.396292,-0.146063,-0.0254659
29,65,-0.654498,-0.814493,-0.174533,-0.174533,-0.660021,-0.80034,-0.164795,-0.172835,0.552233,-0.396292,-0.146063,-0.0254659
29,65,-0.654498,-0.814493,-0.174533,-0.174533,-0.660021,-0.80034,-0.164795,-0.172835,0.552233,-0.396292,-0.146063,-0.0254659
29,65,-0.654498,-0.814493,-0.174533,-0.174533,-0.660021,-0.80034,-0.164795,-0.172835,0.552233,-0.396292,-0.146063,-0.0254659
29,65,-0.654498,-0.814493,-0.174533,-0.174533,-0.660021,-0.80034,-0.164795,-0.172835,0.552233,-0.396292,-0.146063,-0.0254659
29,65,-0.654498,-0.814493,-0.174533,-0.174533,-0.660021,-0.80034,-0.164795,-0.172835,0.552233,-0.396292,-0.146063,-0.0254659
29,65,-0.654498,-0.814493,-0.174533,-0.174533,-0.660021,-0.80034,-0.164795,-0.172835,0.552233,-0.396292,-0.146063,-0.0254659
29,65,-0.654498,-0.814493,-0.174533,-0.174533,-0.660021,-0.80034,-0.164795,-0.172835,0.552233,-0.396292,-0.146063,-0.0254659
29,65,-0.654498,-0.814493,-0.174533,-0.174533,-0.660021,-0.80034,-0.164795,-0.172835,0.552233,-0.396292,-0.146063,-0.0254659
29,65,-0.654498,-0.814493,-0.174533,-0.174533,-0.660021,-0.80034,-0.164795,-0.172835,0.552233,-0.396292,-0.146063,-0.0254659
29,65,-0.654498,-0.814493,-0.174533,-0.174533,-0.660021,-0.80034,-0.164795,-0.172835,0.552233,-0.396292,-0.146063,-0.0254659
29,65,-0.654498,-0.814493,-0.174533,-0.174533,-0.660021,-0.80034,-0.164795,-0.172835,0.552233,-0.396292,-0.146063,-0.0254659
29,65,-0.654498,-0.814493,-0.174533,-0.174533,-0.660021,-0.80034,-0.164795,-0.172835,0.552233,-0.396292,-0.146063,-0.0254659
29,65,-0.654498,-0.814493,-0.174533,-0.174533,-0.660021,-0.80034,-0.164795,-0.172835,0.552233,-0.396292,-0.146063,-0.0254659
29,65,-0.654498,-0.814493,-0.174533,-0.174533,-0.660021,-0.80034,-0.164795,-0.172835,0.552233,-0.396292,-0.146063,-0.0254659
29,65,-0.654498,-0.814493,-0.174533,-0.174533,-0.660021,-0.80034,-0.164795,-0.172835,0.552233,-0.396292,-0.146063,-0.0254659
29,65,-0.654498,-0.814493,-0.174533,-0.174533,-0.660021,-0.80034,-0.164795,-0.172835,0.552233,-0.396292,-0.146063,-0.0254659
29,65,-0.654498,-0.814493,-0.174533,-0.174533,-0.660021,-0.80034,-0.164795,-0.172835,0.552233,-0.396292,-0.146063,-0.0254659
29,65,-0.654498,-0.814493,-0.174533,-0.174533,-0.660021,-0.80034,-0.164795,-0.172835,0.552233,-0.396292,-0.146063,-0.0254659
29,65,-0.654498,-0.814493,-0.174533,-0.174533,-0.660021,-0.80034,-0.164795,-0.172835,0.552233,-0.396292,-0.146063,-0.0254659
29,65,-0.654498,-0.814493,-0.174533,-0.174533,-0.660021,-0.80034,-0.164795,-0.172835,0.552233,-0.396292,-0.146063,-0.0254659
29,65,-0.654498,-0.814493,-0.174533,-0.174533,-0.660021,-0.80034,-0.164795,-0.172835,0.552233,-0.396292,-0.146063,-0.0254659
29,65,-0.654498,-0.814493,-0.174533,-0.174533,-0.660021,-0.80034,-0.164795,-0.172835,0.552233,-0.396292,-0.146063,-0.0254659
29,65,-0.654498,-0.814493,-0.174533,-0.174533,-0.660021,-0.80034,-0.164795,-0.172835,0.552233,-0.396292,-0.146063,-0.0254659
29,65,-0.654498,-0.814493,-0.174533,-0.174533,-0.660021,-0.80034,-0.164795,-0.172835,0.552233,-0.396292,-0.146063,-0.0254659
29,65,-0.654498,-0.814493,-0.174533,-0.174533,-0.660021,-0.80034,-0.164795,-0.172835,0.552233,-0.396292,-0.146063,-0.0254659
29,65,-0.654498,-0.814493,-0.174533,-0.174533,-0.660021,-0.80034,-0.164795,-0.172835,0.552233,-0.396292,-0.146063,-0.0254659
29,65,-0.654498,-0.814493,-0.174533,-0.174533,-0.660021,-0.80034,-0.164795,-0.172835,0.552233,-0.396292,-0.146063,-0.0254659
29,65,-0.654498,-0.814493,-0.174533,-0.174533,-0.660021,-0.80034,-0.164795,-0.172835,0.552233,-0.396292,-0.146063,-0.0254659
29,65,-0.654498,-0.814493,-0.174533,-0.174533,-0.660021,-0.80034,-0.164795,-0.172835,0.552233,-0.396292,-0.146063,-0.0254659
29,65,-0.654498,-0.814493,-0.174533,-0.174533,-0.660021,-0.80039,-0.164731,-0.172793,0.552233,-0.394868,-0.147036,-0.0260976
29,65,-0.654498,-0.814493,-0.174533,-0.174533,-0.660021,-0.80039,-0.164731,-0.172793,0.552233,-0.394868,-0.147036,-0.0260976
29,65,-0.654498,-0.814493,-0.174533,-0.174533,-0.660021,-0.80039,-0.164731,-0.172793,0.552233,-0.394868,-0.147036,-0.0260976
29,65,-0.654498,-0.814493,-0.174533,-0.174533,-0.660021,-0.80039,-0.164731,-0.172793,0.552233,-0.394868,-0.147036,-0.0260976
29,65,-0.654498,-0.814493,-0.174533,-0.174533,-0.660021,-0.80039,-0.164731,-0.172793,0.552233,-0.394868,-0.147036,-0.0260976
29,65,-0.654498,-0.814493,-0.174533,-0.174533,-0.660021,-0.80039,-0.164731,-0.172793,0.552233,-0.394868,-0.147036,-0.0260976
29,65,-0.654498,-0.814493,-0.174533,-0.174533,-0.660021,-0.80039,-0.164731,-0.172793,0.552233,-0.394868,-0.147036,-0.0260976
29,65,-0.654498,-0.814493,-0.174533,-0.174533,-0.660021,-0.80039,-0.164731,-0.172793,0.552233,-0.394868,-0.147036,-0.0260976
29,65,-0.654498,-0.814493,-0.174533,-0.174533,-0.660021,-0.80039,-0.164731,-0.172793,0.552233,-0.394868,-0.147036,-0.0260976
29,65,-0.654498,-0.814493,-0.174533,-0.174533,-0.660021,-0.80039,-0.164731,-0.172793,0.552233,-0.394868,-0.147036,-0.0260976
29,65,-0.654498,-0.814493,-0.174533,-0.174533,-0.660021,-0.80039,-0.164731,-0.172793,0.552233,-0.394868,-0.147036,-0.0260976
29,65,-0.654498,-0.814493,-0.174533,-0.174533,-0.660021,-0.80039,-0.164731,-0.172793,0.552233,-0.394868,-0.147036,-0.0260976
29,65,-0.654498,-0.814493,-0.174533,-0.174533,-0.660021,-0.80039,-0.164731,-0.172793,0.552233,-0.394868,-0.147036,-0.0260976
29,65,-0.654498,-0.814493,-0.174533,-0.174533,-0.660021,-0.80039,-0.164731,-0.172793,0.552233,-0.394868,-0.147036,-0.0260976
29,65,-0.654498,-0.814493,-0.174533,-0.174533,-0.660021,-0.80039,-0.164731,-0.172793,0.552233,-0.394868,-0.147036,-0.0260976
29,65,-0.654498,-0.814493,-0.174533,-0.174533,-0.660021,-0.80039,-0.164731,-0.172793,0.552233,-0.394868,-0.147036,-0.0260976
29,65,-0.654498,-0.814493,-0.174533,-0.174533,-0.660021,-0.80039,-0.164731,-0.172793,0.552233,-0.394868,-0.147036,-0.0260976
29,65,-0.654498,-0.814493,-0.174533,-0.174533,-0.660021,-0.80039,-0.164731,-0.172793,0.552233,-0.394868,-0.147036,-0.0260976
29,65,-0.654498,-0.814493,-0.174533,-0.174533,-0.660021,-0.80039,-0.164731,-0.172793,0.552233,-0.394868,-0.147036,-0.0260976
29,65,-0.654498,-0.814493,-0.174533,-0.174533,-0.660021,-0.80039,-0.164731,-0.172793,0.552233,-0.394868,-0.147036,-0.0260976
29,65,-0.654498,-0.814493,-0.174533,-0.174533,-0.660021,-0.80039,-0.164731,-0.172793,0.552233,-0.394868,-0.147036,-0.0260976
29,65,-0.654498,-0.814493,-0.174533,-0.174533,-0.660021,-0.80039,-0.164731,-0.172793,0.552233,-0.394868,-0.147036,-0.0260976
29,65,-0.654498,-0.814493,-0.174533,-0.174533,-0.660021,-0.80039,-0.164731,-0.172793,0.552233,-0.394868,-0.147036,-0.0260976
29,65,-0.654498,-0.814493,-0.174533,-0.174533,-0.660021,-0.80039,-0.164731,-0.172793,0.552233,-0.394868,-0.147036,-0.0260976
29,65,-0.654498,-0.814493,-0.174533,-0.174533,-0.660021,-0.80039,-0.164731,-0.172793,0.552233,-0.394868,-0.147036,-0.0260976
29,65,-0.654498,-0.814493,-0.174533,-0.174533,-0.660021,-0.80039,-0.164731,-0.172793,0.552233,-0.394868,-0.147036,-0.0260976
29,65,-0.654498,-0.814493,-0.174533,-0.174533,-0.660021,-0.80039,-0.164731,-0.172793,0.552233,-0.394868,-0.147036,-0.0260976
29,65,-0.654498,-0.814493,-0.174533,-0.174533,-0.660021,-0.80039,-0.164731,-0.172793,0.552233,-0.394868,-0.147036,-0.0260976
29,65,-0.654498,-0.814493,-0.174533,-0.174533,-0.660021,-0.80039,-0.164731,-0.172793,0.552233,-0.394868,-0.147036,-0.0260976
29,65,-0.654498,-0.814493,-0.174533,-0.174533,-0.660021,-0.80039,-0.164731,-0.172793,0.552233,-0.394868,-0.147036,-0.0260976
29,65,-0.654498,-0.814493,-0.174533,-0.174533,-0.660021,-0.80039,-0.164731,-0.172793,0.552233,-0.394868,-0.147036,-0.0260976
29,65,-0.654498,-0.814493,-0.174533,-0.174533,-0.660021,-0.80039,-0.164731,-0.172793,0.552233,-0.394868,-0.147036,-0.0260976
29,65,-0.654498,-0.814493,-0.174533,-0.174533,-0.660021,-0.80039,-0.164731,-0.172793,0.552233,-0.394868,-0.147036,-0.0260976
29,65,-0.654498,-0.814493,-0.174533,-0.174533,-0.660021,-0.80039,-0.164731,-0.172793,0.552233,-0.394868,-0.147036,-0.0260976
29,65,-0.654498,-0.814493,-0.174533,-0.174533,-0.660021,-0.80039,-0.164731,-0.172793,0.552233,-0.394868,-0.147036,-0.0260976
29,65,-0.654498,-0.814493,-0.174533,-0.174533,-0.660021,-0.80039,-0.164731,-0.172793,0.552233,-0.394868,-0.147036,-0.0260976
29,65,-0.654498,-0.814493,-0.174533,-0.174533,-0.660021,-0.80039,-0.164731,-0.172793,0.552233,-0.394868,-0.147036,-0.0260976
29,65,-0.654498,-0.814493,-0.174533,-0.174533,-0.660021,-0.80039,-0.164731,-0.172793,0.552233,-0.394868,-0.147036,-0.0260976
29,65,-0.654498,-0.814493,-0.174533,-0.174533,-0.660021,-0.80039,-0.164731,-0.172793,0.552233,-0.394868,-0.147036,-0.0260976
29,65,-0.654498,-0.814493,-0.174533,-0.174533,-0.660021,-0.80039,-0.164731,-0.172793,0.552233,-0.394868,-0.147036,-0.0260976
29,65,-0.654498,-0.814493,-0.174533,-0.174533,-0.660021,-0.80039,-0.164731,-0.172793,0.552233,-0.394868,-0.147036,-0.0260976
29,65,-0.654498,-0.814493,-0.174533,-0.174533,-0.660021,-0.80039,-0.164731,-0.172793,0.552233,-0.394868,-0.147036,-0.0260976
29,65,-0.654498,-0.814493,-0.174533,-0.174533,-0.660021,-0.80039,-0.164731,-0.172793,0.552233,-0.394868,-0.147036,-0.0260976
29,65,-0.654498,-0.814493,-0.174533,-0.174533,-0.660021,-0.80039,-0.164731,-0.172793,0.552233,-0.394868,-0.147036,-0.0260976
29,65,-0.654498,-0.814493,-0.174533,-0.174533,-0.660021,-0.80039,-0.164731,-0.172793,0.552233,-0.394868,-0.147036,-0.0260976
29,65,-0.654498,-0.814493,-0.174533,-0.174533,-0.660021,-0.80039,-0.164731,-0.172793,0.552233,-0.394868,-0.147036,-0.0260976
29,65,-0.654498,-0.814493,-0.174533,-0.174533,-0.660021,-0.80039,-0.164731,-0.172793,0.552233,-0.394868,-0.147036,-0.0260976
29,65,-0.654498,-0.814493,-0.174533,-0.174533,-0.660021,-0.80039,-0.164731,-0.172793,0.552233,-0.394868,-0.147036,-0.0260976
29,65,-0.654498,-0.814493,-0.174533,-0.174533,-0.660021,-0.80039,-0.164731,-0.172793,0.552233,-0.394868,-0.147036,-0.0260976
29,65,-0.654498,-0.814493,-0.174533,-0.174533,-0.660021,-0.80039,-0.164731,-0.172793,0.552233,-0.394868,-0.147036,-0.0260976
29,65,-0.654498,-0.814493,-0.174533,-0.174533,-0.660021,-0.80039,-0.164731,-0.172793,0.552233,-0.394868,-0.147036,-0.0260976
29,65,-0.654498,-0.814493,-0.174533,-0.174533,-0.660021,-0.80039,-0.164731,-0.172793,0.552233,-0.394868,-0.147036,-0.0260976
29,65,-0.654498,-0.814493,-0.174533,-0.174533,-0.660021,-0.80039,-0.164731,-0.172793,0.552233,-0.394868,-0.147036,-0.0260976
29,65,-0.654498,-0.814493,-0.174533,-0.174533,-0.660021,-0.80039,-0.164731,-0.172793,0.552233,-0.394868,-0.147036,-0.0260976
29,65,-0.654498,-0.814493,-0.174533,-0.174533,-0.660021,-0.80039,-0.164731,-0.172793,0.552233,-0.394868,-0.147036,-0.0260976
29,65,-0.654498,-0.814493,-0.174533,-0.174533,-0.660021,-0.80039,-0.164731,-0.172793,0.552233,-0.394868,-0.147036,-0.0260976
29,65,-0.654498,-0.814493,-0.174533,-0.174533,-0.660021,-0.80039,-0.164731,-0.172793,0.552233,-0.394868,-0.147036,-0.0260976
29,65,-0.654498,-0.814493,-0.174533,-0.174533,-0.660021,-0.80039,-0.164731,-0.172793,0.552233,-0.394868,-0.147036,-0.0260976
29,65,-0.654498,-0.814493,-0.174533,-0.174533,-0.660021,-0.80039,-0.164731,-0.172793,0.552233,-0.394868,-0.147036,-0.0260976
29,65,-0.654498,-0.814493,-0.174533,-0.174533,-0.660021,-0.80039,-0.164731,-0.172793,0.552233,-0.394868,-0.147036,-0.0260976
29,65,-0.654498,-0.814493,-0.174533,-0.174533,-0.660021,-0.80039,-0.164731,-0.172793,0.552233,-0.394868,-0.147036,-0.0260976
29,65,-0.654498,-0.814493,-0.174533,-0.174533,-0.660021,-0.80039,-0.164731,-0.172793,0.552233,-0.394868,-0.147036,-0.0260976
29,65,-0.654498,-0.814493,-0.174533,-0.174533,-0.660021,-0.80039,-0.164731,-0.172793,0.552233,-0.394868,-0.147036,-0.0260976
29,65,-0.654498,-0.814493,-0.174533,-0.174533,-0.660021,-0.80039,-0.164731,-0.172793,0.552233,-0.394868,-0.147036,-0.0260976
29,65,-0.654498,-0.814493,-0.174533,-0.174533,-0.660021,-0.80039,-0.164731,-0.172793,0.552233,-0.394868,-0.147036,-0.0260976
29,65,-0.654498,-0.814493,-0.174533,-0.174533,-0.660021,-0.80039,-0.164731,-0.172793,0.552233,-0.394868,-0.147036,-0.0260976
29,65,-0.654498,-0.814493,-0.174533,-0.174533,-0.660021,-0.80039,-0.164731,-0.172793,0.552233,-0.394868,-0.147036,-0.0260976
29,65,-0.654498,-0.814493,-0.174533,-0.174533,-0.660021,-0.80039,-0.164731,-0.172793,0.552233,-0.394868,-0.147036,-0.0260976
29,65,-0.654498,-0.814493,-0.174533,-0.174533,-0.660021,-0.80039,-0.164731,-0.172793,0.552233,-0.394868,-0.147036,-0.0260976
29,65,-0.654498,-0.814493,-0.174533,-0.174533,-0.660021,-0.80039,-0.164731,-0.172793,0.552233,-0.394868,-0.147036,-0.0260976
29,65,-0.654498,-0.814493,-0.174533,-0.174533,-0.660021,-0.80039,-0.164731,-0.172793,0.552233,-0.394868,-0.147036,-0.0260976
29,65,-0.654498,-0.814493,-0.174533,-0.174533,-0.660021,-0.80039,-0.164731,-0.172793,0.552233,-0.394868,-0.147036,-0.0260976
29,65,-0.654498,-0.814493,-0.174533,-0.174533,-0.660021,-0.80039,-0.164731,-0.172793,0.552233,-0.394868,-0.147036,-0.0260976
29,65,-0.654498,-0.814493,-0.174533,-0.174533,-0.660021,-0.80039,-0.164731,-0.172793,0.552233,-0.394868,-0.147036,-0.0260976
29,65,-0.654498,-0.814493,-0.174533,-0.174533,-0.660021,-0.80039,-0.164731,-0.172793,0.552233,-0.394868,-0.147036,-0.0260976
29,65,-0.654498,-0.814493,-0.174533,-0.174533,-0.660021,-0.80039,-0.164731,-0.172793,0.552233,-0.394868,-0.147036,-0.0260976
29,65,-0.654498,-0.814493,-0.174533,-0.174533,-0.660021,-0.80039,-0.164731,-0.172793,0.552233,-0.394868,-0.147036,-0.0260976
29,65,-0.654498,-0.814493,-0.174533,-0.174533,-0.660021,-0.80039,-0.164731,-0.172793,0.552233,-0.394868,-0.147036,-0.0260976
29,65,-0.654498,-0.814493,-0.174533,-0.174533,-0.660021,-0.80039,-0.164731,-0.172793,0.552233,-0.394868,-0.147036,-0.0260976
29,65,-0.654498,-0.814493,-0.174533,-0.174533,-0.660021,-0.80039,-0.164731,-0.172793,0.552233,-0.394868,-0.147036,-0.0260976
29,65,-0.654498,-0.814493,-0.174533,-0.174533,-0.660021,-0.80039,-0.164731,-0.172793,0.552233,-0.394868,-0.147036,-0.0260976
29,65,-0.654498,-0.814493,-0.174533,-0.174533,-0.660021,-0.80039,-0.164731,-0.172793,0.552233,-0.394868,-0.147036,-0.0260976
29,65,-0.654498,-0.814493,-0.174533,-0.174533,-0.660021,-0.80039,-0.164731,-0.172793,0.552233,-0.394868,-0.147036,-0.0260976
29,65,-0.654498,-0.814493,-0.174533,-0.174533,-0.660021,-0.80039,-0.164731,-0.172793,0.552233,-0.394868,-0.147036,-0.0260976
29,65,-0.654498,-0.814493,-0.174533,-0.174533,-0.660021,-0.80039,-0.164731,-0.172793,0.552233,-0.394868,-0.147036,-0.0260976
29,65,-0.654498,-0.814493,-0.174533,-0.174533,-0.660021,-0.80039,-0.164731,-0.172793,0.552233,-0.394868,-0.147036,-0.0260976
29,65,-0.654498,-0.814493,-0.174533,-0.174533,-0.660021,-0.80039,-0.164731,-0.172793,0.552233,-0.394868,-0.147036,-0.0260976
29,65,-0.654498,-0.814493,-0.174533,-0.174533,-0.660021,-0.80039,-0.164731,-0.172793,0.552233,-0.394868,-0.147036,-0.0260976
29,65,-0.654498,-0.814493,-0.174533,-0.174533,-0.660021,-0.80039,-0.164731,-0.172793,0.552233,-0.394868,-0.147036,-0.0260976
29,65,-0.654498,-0.814493,-0.174533,-0.174533,-0.660021,-0.80039,-0.164731,-0.172793,0.552233,-0.394868,-0.147036,-0.0260976
29,65,-0.654498,-0.814493,-0.174533,-0.174533,-0.660021,-0.80039,-0.164731,-0.172793,0.552233,-0.394868,-0.147036,-0.0260976
29,65,-0.654498,-0.814493,-0.174533,-0.174533,-0.660021,-0.80039,-0.164731,-0.172793,0.552233,-0.394868,-0.147036,-0.0260976
29,65,-0.654498,-0.814493,-0.174533,-0.174533,-0.660021,-0.80039,-0.164731,-0.172793,0.552233,-0.394868,-0.147036,-0.0260976
29,65,-0.654498,-0.814493,-0.174533,-0.174533,-0.660021,-0.80039,-0.164731,-0.172793,0.552233,-0.394868,-0.147036,-0.0260976
29,65,-0.654498,-0.814493,-0.174533,-0.174533,-0.660021,-0.80039,-0.164731,-0.172793,0.552233,-0.394868,-0.147036,-0.0260976
29,65,-0.654498,-0.814493,-0.174533,-0.174533,-0.660021,-0.80039,-0.164731,-0.172793,0.552233,-0.394868,-0.147036,-0.0260976
29,65,-0.654498,-0.814493,-0.174533,-0.174533,-0.660021,-0.80039,-0.164731,-0.172793,0.552233,-0.394868,-0.147036,-0.0260976
29,65,-0.654498,-0.814493,-0.174533,-0.174533,-0.660021,-0.80039,-0.164731,-0.172793,0.552233,-0.394868,-0.147036,-0.0260976
29,65,-0.654498,-0.814493,-0.174533,-0.174533,-0.660021,-0.80039,-0.164731,-0.172793,0.552233,-0.394868,-0.147036,-0.0260976
29,65,-0.654498,-0.814493,-0.174533,-0.174533,-0.660021,-0.80039,-0.164731,-0.172793,0.552233,-0.394868,-0.147036,-0.0260976
29,65,-0.654498,-0.814493,-0.174533,-0.174533,-0.660021,-0.80039,-0.164731,-0.172793,0.552233,-0.394868,-0.147036,-0.0260976
29,65,-0.654498,-0.814493,-0.174533,-0.174533,-0.660021,-0.80039,-0.164731,-0.172793,0.552233,-0.394868,-0.147036,-0.0260976
29,65,-0.654498,-0.814493,-0.174533,-0.174533,-0.660021,-0.80039,-0.164731,-0.172793,0.552233,-0.394868,-0.147036,-0.0260976
29,65,-0.654498,-0.814493,-0.174533,-0.174533,-0.660021,-0.80039,-0.164731,-0.172793,0.552233,-0.394868,-0.147036,-0.0260976
29,65,-0.654498,-0.814493,-0.174533,-0.174533,-0.660021,-0.80039,-0.164731,-0.172793,0.552233,-0.394868,-0.147036,-0.0260976
29,65,-0.654498,-0.814493,-0.174533,-0.174533,-0.660021,-0.80039,-0.164731,-0.172793,0.552233,-0.394868,-0.147036,-0.0260976
29,65,-0.654498,-0.814493,-0.174533,-0.174533,-0.660021,-0.80039,-0.164731,-0.172793,0.552233,-0.394868,-0.147036,-0.0260976
29,65,-0.654498,-0.814493,-0.174533,-0.174533,-0.660021,-0.80039,-0.164731,-0.172793,0.552233,-0.394868,-0.147036,-0.0260976
29,65,-0.654498,-0.814493,-0.174533,-0.174533,-0.660021,-0.80039,-0.164731,-0.172793,0.552233,-0.394868,-0.147036,-0.0260976
29,65,-0.654498,-0.814493,-0.174533,-0.174533,-0.660021,-0.80039,-0.164731,-0.172793,0.552233,-0.394868,-0.147036,-0.0260976
29,65,-0.654498,-0.814493,-0.174533,-0.174533,-0.660021,-0.80039,-0.164731,-0.172793,0.552233,-0.394868,-0.147036,-0.0260976
29,65,-0.654498,-0.814493,-0.174533,-0.174533,-0.660021,-0.80039,-0.164731,-0.172793,0.552233,-0.394868,-0.147036,-0.0260976
29,65,-0.654498,-0.814493,-0.174533,-0.174533,-0.660021,-0.80039,-0.164731,-0.172793,0.552233,-0.394868,-0.147036,-0.0260976
29,65,-0.654498,-0.814493,-0.174533,-0.174533,-0.660021,-0.80039,-0.164731,-0.172793,0.552233,-0.394868,-0.147036,-0.0260976
29,65,-0.654498,-0.814493,-0.174533,-0.174533,-0.660021,-0.80039,-0.164731,-0.172793,0.552233,-0.394868,-0.147036,-0.0260976
29,65,-0.654498,-0.814493,-0.174533,-0.174533,-0.660021,-0.80039,-0.164731,-0.172793,0.552233,-0.394868,-0.147036,-0.0260976
29,65,-0.654498,-0.814493,-0.174533,-0.174533,-0.660021,-0.80039,-0.164731,-0.172793,0.552233,-0.394868,-0.147036,-0.0260976
29,65,-0.654498,-0.814493,-0.174533,-0.174533,-0.660021,-0.80039,-0.164731,-0.172793,0.552233,-0.394868,-0.147036,-0.0260976
29,65,-0.654498,-0.814493,-0.174533,-0.174533,-0.660021,-0.80039,-0.164731,-0.172793,0.552233,-0.394868,-0.147036,-0.0260976
29,65,-0.654498,-0.814493,-0.174533,-0.174533,-0.660021,-0.80039,-0.164731,-0.172793,0.552233,-0.394868,-0.147036,-0.0260976
29,65,-0.654498,-0.814493,-0.174533,-0.174533,-0.660021,-0.80039,-0.164731,-0.172793,0.552233,-0.394868,-0.147036,-0.0260976
29,65,-0.654498,-0.814493,-0.174533,-0.174533,-0.660021,-0.80039,-0.164731,-0.172793,0.552233,-0.394868,-0.147036,-0.0260976
29,65,-0.654498,-0.814493,-0.174533,-0.174533,-0.660021,-0.80039,-0.164731,-0.172793,0.552233,-0.394868,-0.147036,-0.0260976
29,65,-0.654498,-0.814493,-0.174533,-0.174533,-0.660021,-0.80039,-0.164731,-0.172793,0.552233,-0.394868,-0.147036,-0.0260976
29,65,-0.654498,-0.814493,-0.174533,-0.174533,-0.660021,-0.80039,-0.164731,-0.172793,0.552233,-0.394868,-0.147036,-0.0260976
29,65,-0.654498,-0.814493,-0.174533,-0.174533,-0.660021,-0.80039,-0.164731,-0.172793,0.552233,-0.394868,-0.147036,-0.0260976
29,65,-0.654498,-0.814493,-0.174533,-0.174533,-0.660021,-0.80039,-0.164731,-0.172793,0.552233,-0.394868,-0.147036,-0.0260976
29,65,-0.654498,-0.814493,-0.174533,-0.174533,-0.660021,-0.80039,-0.164731,-0.172793,0.552233,-0.394868,-0.147036,-0.0260976
29,65,-0.654498,-0.814493,-0.174533,-0.174533,-0.660021,-0.80039,-0.164731,-0.172793,0.552233,-0.394868,-0.147036,-0.0260976
29,65,-0.654498,-0.814493,-0.174533,-0.174533,-0.660021,-0.80039,-0.164731,-0.172793,0.552233,-0.394868,-0.147036,-0.0260976
29,65,-0.654498,-0.814493,-0.174533,-0.174533,-0.660021,-0.80039,-0.164731,-0.172793,0.552233,-0.394868,-0.147036,-0.0260976
29,65,-0.654498,-0.814493,-0.174533,-0.174533,-0.660021,-0.80039,-0.164731,-0.172793,0.552233,-0.394868,-0.147036,-0.0260976
29,65,-0.654498,-0.814493,-0.174533,-0.174533,-0.660021,-0.80039,-0.164731,-0.172793,0.552233,-0.394868,-0.147036,-0.0260976
29,65,-0.654498,-0.814493,-0.174533,-0.174533,-0.660021,-0.80039,-0.164731,-0.172793,0.552233,-0.394868,-0.147036,-0.0260976
29,65,-0.654498,-0.814493,-0.174533,-0.174533,-0.660021,-0.80039,-0.164731,-0.172793,0.552233,-0.394868,-0.147036,-0.0260976
29,65,-0.654498,-0.814493,-0.174533,-0.174533,-0.660021,-0.80039,-0.164731,-0.172793,0.552233,-0.394868,-0.147036,-0.0260976
29,65,-0.654498,-0.814493,-0.174533,-0.174533,-0.660021,-0.80039,-0.164731,-0.172793,0.552233,-0.394868,-0.147036,-0.0260976
29,65,-0.654498,-0.814493,-0.174533,-0.174533,-0.660021,-0.80039,-0.164731,-0.172793,0.552233,-0.394868,-0.147036,-0.0260976
29,65,-0.654498,-0.814493,-0.174533,-0.174533,-0.660021,-0.80039,-0.164731,-0.172793,0.552233,-0.394868,-0.147036,-0.0260976
29,65,-0.654498,-0.814493,-0.174533,-0.174533,-0.660021,-0.80039,-0.164731,-0.172793,0.552233,-0.394868,-0.147036,-0.0260976
29,65,-0.654498,-0.814493,-0.174533,-0.174533,-0.660021,-0.80039,-0.164731,-0.172793,0.552233,-0.394868,-0.147036,-0.0260976
29,65,-0.654498,-0.814493,-0.174533,-0.174533,-0.660021,-0.80039,-0.164731,-0.172793,0.552233,-0.394868,-0.147036,-0.0260976
29,65,-0.654498,-0.814493,-0.174533,-0.174533,-0.660021,-0.80039,-0.164731,-0.172793,0.552233,-0.394868,-0.147036,-0.0260976
29,65,-0.654498,-0.814493,-0.174533,-0.174533,-0.660021,-0.80039,-0.164731,-0.172793,0.552233,-0.394868,-0.147036,-0.0260976
29,65,-0.654498,-0.814493,-0.174533,-0.174533,-0.660021,-0.80039,-0.164731,-0.172793,0.552233,-0.394868,-0.147036,-0.0260976
29,65,-0.654498,-0.814493,-0.174533,-0.174533,-0.660021,-0.80039,-0.164731,-0.172793,0.552233,-0.394868,-0.147036,-0.0260976
29,65,-0.654498,-0.814493,-0.174533,-0.174533,-0.660021,-0.80039,-0.164731,-0.172793,0.552233,-0.394868,-0.147036,-0.0260976
29,65,-0.654498,-0.814493,-0.174533,-0.174533,-0.660021,-0.80039,-0.164731,-0.172793,0.552233,-0.394868,-0.147036,-0.0260976
29,65,-0.654498,-0.814493,-0.174533,-0.174533,-0.660021,-0.80039,-0.164731,-0.172793,0.552233,-0.394868,-0.147036,-0.0260976
29,65,-0.654498,-0.814493,-0.174533,-0.174533,-0.660021,-0.80039,-0.164731,-0.172793,0.552233,-0.394868,-0.147036,-0.0260976
29,65,-0.654498,-0.814493,-0.174533,-0.174533,-0.660021,-0.80039,-0.164731,-0.172793,0.552233,-0.394868,-0.147036,-0.0260976
29,65,-0.654498,-0.814493,-0.174533,-0.174533,-0.660021,-0.80039,-0.164731,-0.172793,0.552233,-0.394868,-0.147036,-0.0260976
29,65,-0.654498,-0.814493,-0.174533,-0.174533,-0.660021,-0.80039,-0.164731,-0.172793,0.552233,-0.394868,-0.147036,-0.0260976
29,65,-0.654498,-0.814493,-0.174533,-0.174533,-0.660021,-0.80039,-0.164731,-0.172793,0.552233,-0.394868,-0.147036,-0.0260976
29,65,-0.654498,-0.814493,-0.174533,-0.174533,-0.660021,-0.80039,-0.164731,-0.172793,0.552233,-0.394868,-0.147036,-0.0260976
29,65,-0.654498,-0.814493,-0.174533,-0.174533,-0.660021,-0.80039,-0.164731,-0.172793,0.552233,-0.394868,-0.147036,-0.0260976
29,65,-0.654498,-0.814493,-0.174533,-0.174533,-0.660021,-0.80039,-0.164731,-0.172793,0.552233,-0.394868,-0.147036,-0.0260976
29,65,-0.654498,-0.814493,-0.174533,-0.174533,-0.660021,-0.80039,-0.164731,-0.172793,0.552233,-0.394868,-0.147036,-0.0260976
29,65,-0.654498,-0.814493,-0.174533,-0.174533,-0.660021,-0.80039,-0.164731,-0.172793,0.552233,-0.394868,-0.147036,-0.0260976
29,65,-0.654498,-0.814493,-0.174533,-0.174533,-0.660021,-0.80039,-0.164731,-0.172793,0.552233,-0.394868,-0.147036,-0.0260976
29,65,-0.654498,-0.814493,-0.174533,-0.174533,-0.660021,-0.80039,-0.164731,-0.172793,0.552233,-0.394868,-0.147036,-0.0260976
29,65,-0.654498,-0.814493,-0.174533,-0.174533,-0.660021,-0.80039,-0.164731,-0.172793,0.552233,-0.394868,-0.147036,-0.0260976
29,65,-0.654498,-0.814493,-0.174533,-0.174533,-0.660021,-0.80039,-0.164731,-0.172793,0.552233,-0.394868,-0.147036,-0.0260976
29,65,-0.654498,-0.814493,-0.174533,-0.174533,-0.660021,-0.80039,-0.164731,-0.172793,0.552233,-0.394868,-0.147036,-0.0260976
29,65,-0.654498,-0.814493,-0.174533,-0.174533,-0.660021,-0.80039,-0.164731,-0.172793,0.552233,-0.394868,-0.147036,-0.0260976
29,65,-0.654498,-0.814493,-0.174533,-0.174533,-0.660021,-0.80039,-0.164731,-0.172793,0.552233,-0.394868,-0.147036,-0.0260976
29,65,-0.654498,-0.814493,-0.174533,-0.174533,-0.660021,-0.80039,-0.164731,-0.172793,0.552233,-0.394868,-0.147036,-0.0260976
29,65,-0.654498,-0.814493,-0.174533,-0.174533,-0.660021,-0.80039,-0.164731,-0.172793,0.552233,-0.394868,-0.147036,-0.0260976
29,65,-0.654498,-0.814493,-0.174533,-0.174533,-0.660021,-0.80039,-0.164731,-0.172793,0.552233,-0.394868,-0.147036,-0.0260976
29,65,-0.654498,-0.814493,-0.174533,-0.174533,-0.660021,-0.80039,-0.164666,-0.172751,0.552233,-0.394868,-0.148008,-0.0267291
29,65,-0.654498,-0.814493,-0.174533,-0.174533,-0.660021,-0.80039,-0.164666,-0.172751,0.552233,-0.394868,-0.148008,-0.0267291
29,65,-0.654498,-0.814493,-0.174533,-0.174533,-0.660021,-0.80039,-0.164666,-0.172751,0.552233,-0.394868,-0.148008,-0.0267291
29,65,-0.654498,-0.814493,-0.174533,-0.174533,-0.660021,-0.80039,-0.164666,-0.172751,0.552233,-0.394868,-0.148008,-0.0267291
29,65,-0.654498,-0.814493,-0.174533,-0.174533,-0.660021,-0.80039,-0.164666,-0.172751,0.552233,-0.394868,-0.148008,-0.0267291
29,65,-0.654498,-0.814493,-0.174533,-0.174533,-0.660021,-0.80039,-0.164666,-0.172751,0.552233,-0.394868,-0.148008,-0.0267291
29,65,-0.654498,-0.814493,-0.174533,-0.174533,-0.660021,-0.80039,-0.164666,-0.172751,0.552233,-0.394868,-0.148008,-0.0267291
29,65,-0.654498,-0.814493,-0.174533,-0.174533,-0.660021,-0.80039,-0.164666,-0.172751,0.552233,-0.394868,-0.148008,-0.0267291
29,65,-0.654498,-0.814493,-0.174533,-0.174533,-0.660021,-0.80039,-0.164666,-0.172751,0.552233,-0.394868,-0.148008,-0.0267291
29,65,-0.654498,-0.814493,-0.174533,-0.174533,-0.660021,-0.80039,-0.164666,-0.172751,0.552233,-0.394868,-0.148008,-0.0267291
29,65,-0.654498,-0.814493,-0.174533,-0.174533,-0.660021,-0.80039,-0.164666,-0.172751,0.552233,-0.394868,-0.148008,-0.0267291
29,65,-0.654498,-0.814493,-0.174533,-0.174533,-0.660021,-0.80039,-0.164666,-0.172751,0.552233,-0.394868,-0.148008,-0.0267291
29,65,-0.654498,-0.814493,-0.174533,-0.174533,-0.660021,-0.80039,-0.164666,-0.172751,0.552233,-0.394868,-0.148008,-0.0267291
29,65,-0.654498,-0.814493,-0.174533,-0.174533,-0.660021,-0.80039,-0.164666,-0.172751,0.552233,-0.394868,-0.148008,-0.0267291
29,65,-0.654498,-0.814493,-0.174533,-0.174533,-0.660021,-0.80039,-0.164666,-0.172751,0.552233,-0.394868,-0.148008,-0.0267291
29,65,-0.654498,-0.814493,-0.174533,-0.174533,-0.660021,-0.80039,-0.164666,-0.172751,0.552233,-0.394868,-0.148008,-0.0267291
29,65,-0.654498,-0.814493,-0.174533,-0.174533,-0.660021,-0.80039,-0.164666,-0.172751,0.552233,-0.394868,-0.148008,-0.0267291
29,65,-0.654498,-0.814493,-0.174533,-0.174533,-0.660021,-0.80039,-0.164666,-0.172751,0.552233,-0.394868,-0.148008,-0.0267291
29,65,-0.654498,-0.814493,-0.174533,-0.174533,-0.660021,-0.80039,-0.164666,-0.172751,0.552233,-0.394868,-0.148008,-0.0267291
29,65,-0.654498,-0.814493,-0.174533,-0.174533,-0.660021,-0.80039,-0.164666,-0.172751,0.552233,-0.394868,-0.148008,-0.0267291
29,65,-0.654498,-0.814493,-0.174533,-0.174533,-0.660021,-0.80039,-0.164666,-0.172751,0.552233,-0.394868,-0.148008,-0.0267291
29,65,-0.654498,-0.814493,-0.174533,-0.174533,-0.660021,-0.80039,-0.164666,-0.172751,0.552233,-0.394868,-0.148008,-0.0267291
29,65,-0.654498,-0.814493,-0.174533,-0.174533,-0.660021,-0.80039,-0.164666,-0.172751,0.552233,-0.394868,-0.148008,-0.0267291
29,65,-0.654498,-0.814493,-0.174533,-0.174533,-0.660021,-0.80039,-0.164666,-0.172751,0.552233,-0.394868,-0.148008,-0.0267291
29,65,-0.654498,-0.814493,-0.174533,-0.174533,-0.660021,-0.80039,-0.164666,-0.172751,0.552233,-0.394868,-0.148008,-0.0267291
29,65,-0.654498,-0.814493,-0.174533,-0.174533,-0.660021,-0.80039,-0.164666,-0.172751,0.552233,-0.394868,-0.148008,-0.0267291
29,65,-0.654498,-0.814493,-0.174533,-0.174533,-0.660021,-0.80039,-0.164666,-0.172751,0.552233,-0.394868,-0.148008,-0.0267291
29,65,-0.654498,-0.814493,-0.174533,-0.174533,-0.660021,-0.80039,-0.164666,-0.172751,0.552233,-0.394868,-0.148008,-0.0267291
29,65,-0.654498,-0.814493,-0.174533,-0.174533,-0.660021,-0.80039,-0.164666,-0.172751,0.552233,-0.394868,-0.148008,-0.0267291
29,65,-0.654498,-0.814493,-0.174533,-0.174533,-0.660021,-0.80039,-0.164666,-0.172751,0.552233,-0.394868,-0.148008,-0.0267291
29,65,-0.654498,-0.814493,-0.174533,-0.174533,-0.660021,-0.80039,-0.164666,-0.172751,0.552233,-0.394868,-0.148008,-0.0267291
29,65,-0.654498,-0.814493,-0.174533,-0.174533,-0.660021,-0.80039,-0.164666,-0.172751,0.552233,-0.394868,-0.148008,-0.0267291
29,65,-0.654498,-0.814493,-0.174533,-0.174533,-0.660021,-0.80039,-0.164666,-0.172751,0.552233,-0.394868,-0.148008,-0.0267291
29,65,-0.654498,-0.814493,-0.174533,-0.174533,-0.660021,-0.80039,-0.164666,-0.172751,0.552233,-0.394868,-0.148008,-0.0267291
29,65,-0.654498,-0.814493,-0.174533,-0.174533,-0.660021,-0.80039,-0.164666,-0.172751,0.552233,-0.394868,-0.148008,-0.0267291
29,65,-0.654498,-0.814493,-0.174533,-0.174533,-0.660021,-0.80039,-0.164666,-0.172751,0.552233,-0.394868,-0.148008,-0.0267291
29,65,-0.654498,-0.814493,-0.174533,-0.174533,-0.660021,-0.80039,-0.164666,-0.172751,0.552233,-0.394868,-0.148008,-0.0267291
29,65,-0.654498,-0.814493,-0.174533,-0.174533,-0.660021,-0.80039,-0.164666,-0.172751,0.552233,-0.394868,-0.148008,-0.0267291
29,65,-0.654498,-0.814493,-0.174533,-0.174533,-0.660021,-0.80039,-0.164666,-0.172751,0.552233,-0.394868,-0.148008,-0.0267291
29,65,-0.654498,-0.814493,-0.174533,-0.174533,-0.660021,-0.80039,-0.164666,-0.172751,0.552233,-0.394868,-0.148008,-0.0267291
29,65,-0.654498,-0.814493,-0.174533,-0.174533,-0.660021,-0.80039,-0.164666,-0.172751,0.552233,-0.394868,-0.148008,-0.0267291
29,65,-0.654498,-0.814493,-0.174533,-0.174533,-0.660021,-0.80039,-0.164666,-0.172751,0.552233,-0.394868,-0.148008,-0.0267291
29,65,-0.654498,-0.814493,-0.174533,-0.174533,-0.660021,-0.80039,-0.164666,-0.172751,0.552233,-0.394868,-0.148008,-0.0267291
29,65,-0.654498,-0.814493,-0.174533,-0.174533,-0.660021,-0.80039,-0.164666,-0.172751,0.552233,-0.394868,-0.148008,-0.0267291
29,65,-0.654498,-0.814493,-0.174533,-0.174533,-0.660021,-0.80039,-0.164666,-0.172751,0.552233,-0.394868,-0.148008,-0.0267291
29,65,-0.654498,-0.814493,-0.174533,-0.174533,-0.660021,-0.80039,-0.164666,-0.172751,0.552233,-0.394868,-0.148008,-0.0267291
29,65,-0.654498,-0.814493,-0.174533,-0.174533,-0.660021,-0.80039,-0.164666,-0.172751,0.552233,-0.394868,-0.148008,-0.0267291
29,65,-0.654498,-0.814493,-0.174533,-0.174533,-0.660021,-0.80039,-0.164666,-0.172751,0.552233,-0.394868,-0.148008,-0.0267291
29,65,-0.654498,-0.814493,-0.174533,-0.174533,-0.660021,-0.80039,-0.164666,-0.172751,0.552233,-0.394868,-0.148008,-0.0267291
29,65,-0.654498,-0.814493,-0.174533,-0.174533,-0.660021,-0.80039,-0.164666,-0.172751,0.552233,-0.394868,-0.148008,-0.0267291
29,65,-0.654498,-0.814493,-0.174533,-0.174533,-0.660021,-0.80039,-0.164666,-0.172751,0.552233,-0.394868,-0.148008,-0.0267291
29,65,-0.654498,-0.814493,-0.174533,-0.174533,-0.660021,-0.80039,-0.164666,-0.172751,0.552233,-0.394868,-0.148008,-0.0267291
29,65,-0.654498,-0.814493,-0.174533,-0.174533,-0.660021,-0.80039,-0.164666,-0.172751,0.552233,-0.394868,-0.148008,-0.0267291
29,65,-0.654498,-0.814493,-0.174533,-0.174533,-0.660021,-0.80039,-0.164666,-0.172751,0.552233,-0.394868,-0.148008,-0.0267291
29,65,-0.654498,-0.814493,-0.174533,-0.174533,-0.660021,-0.80039,-0.164666,-0.172751,0.552233,-0.394868,-0.148008,-0.0267291
29,65,-0.654498,-0.814493,-0.174533,-0.174533,-0.660021,-0.80039,-0.164666,-0.172751,0.552233,-0.394868,-0.148008,-0.0267291
29,65,-0.654498,-0.814493,-0.174533,-0.174533,-0.660021,-0.80039,-0.164666,-0.172751,0.552233,-0.394868,-0.148008,-0.0267291
29,65,-0.654498,-0.814493,-0.174533,-0.174533,-0.660021,-0.80039,-0.164666,-0.172751,0.552233,-0.394868,-0.148008,-0.0267291
29,65,-0.654498,-0.814493,-0.174533,-0.174533,-0.660021,-0.80039,-0.164666,-0.172751,0.552233,-0.394868,-0.148008,-0.0267291
29,65,-0.654498,-0.814493,-0.174533,-0.174533,-0.660021,-0.80039,-0.164666,-0.172751,0.552233,-0.394868,-0.148008,-0.0267291
29,65,-0.654498,-0.814493,-0.174533,-0.174533,-0.660021,-0.80039,-0.164666,-0.172751,0.552233,-0.394868,-0.148008,-0.0267291
29,65,-0.654498,-0.814493,-0.174533,-0.174533,-0.660021,-0.80039,-0.164666,-0.172751,0.552233,-0.394868,-0.148008,-0.0267291
29,65,-0.654498,-0.814493,-0.174533,-0.174533,-0.660021,-0.80039,-0.164666,-0.172751,0.552233,-0.394868,-0.148008,-0.0267291
29,65,-0.654498,-0.814493,-0.174533,-0.174533,-0.660021,-0.80039,-0.164666,-0.172751,0.552233,-0.394868,-0.148008,-0.0267291
29,65,-0.654498,-0.814493,-0.174533,-0.174533,-0.660021,-0.80039,-0.164666,-0.172751,0.552233,-0.394868,-0.148008,-0.0267291
29,65,-0.654498,-0.814493,-0.174533,-0.174533,-0.660021,-0.80039,-0.164666,-0.172751,0.552233,-0.394868,-0.148008,-0.0267291
29,65,-0.654498,-0.814493,-0.174533,-0.174533,-0.660021,-0.80039,-0.164666,-0.172751,0.552233,-0.394868,-0.148008,-0.0267291
29,65,-0.654498,-0.814493,-0.174533,-0.174533,-0.660021,-0.80039,-0.164666,-0.172751,0.552233,-0.394868,-0.148008,-0.0267291
29,65,-0.654498,-0.814493,-0.174533,-0.174533,-0.660021,-0.80039,-0.164666,-0.172751,0.552233,-0.394868,-0.148008,-0.0267291
29,65,-0.654498,-0.814493,-0.174533,-0.174533,-0.660021,-0.80039,-0.164666,-0.172751,0.552233,-0.394868,-0.148008,-0.0267291
29,65,-0.654498,-0.814493,-0.174533,-0.174533,-0.660021,-0.80039,-0.164666,-0.172751,0.552233,-0.394868,-0.148008,-0.0267291
29,65,-0.654498,-0.814493,-0.174533,-0.174533,-0.660021,-0.80039,-0.164666,-0.172751,0.552233,-0.394868,-0.148008,-0.0267291
29,65,-0.654498,-0.814493,-0.174533,-0.174533,-0.660021,-0.80039,-0.164666,-0.172751,0.552233,-0.394868,-0.148008,-0.0267291
29,65,-0.654498,-0.814493,-0.174533,-0.174533,-0.660021,-0.80039,-0.164666,-0.172751,0.552233,-0.394868,-0.148008,-0.0267291
29,65,-0.654498,-0.814493,-0.174533,-0.174533,-0.660021,-0.80039,-0.164666,-0.172751,0.552233,-0.394868,-0.148008,-0.0267291
29,65,-0.654498,-0.814493,-0.174533,-0.174533,-0.660021,-0.80039,-0.164666,-0.172751,0.552233,-0.394868,-0.148008,-0.0267291
29,65,-0.654498,-0.814493,-0.174533,-0.174533,-0.660021,-0.80039,-0.164666,-0.172751,0.552233,-0.394868,-0.148008,-0.0267291
29,65,-0.654498,-0.814493,-0.174533,-0.174533,-0.660021,-0.80039,-0.164666,-0.172751,0.552233,-0.394868,-0.148008,-0.0267291
29,65,-0.654498,-0.814493,-0.174533,-0.174533,-0.660021,-0.80039,-0.164666,-0.172751,0.552233,-0.394868,-0.148008,-0.0267291
29,65,-0.654498,-0.814493,-0.174533,-0.174533,-0.660021,-0.80039,-0.164666,-0.172751,0.552233,-0.394868,-0.148008,-0.0267291
29,65,-0.654498,-0.814493,-0.174533,-0.174533,-0.660021,-0.80039,-0.164666,-0.172751,0.552233,-0.394868,-0.148008,-0.0267291
29,65,-0.654498,-0.814493,-0.174533,-0.174533,-0.660021,-0.80039,-0.164666,-0.172751,0.552233,-0.394868,-0.148008,-0.0267291
29,65,-0.654498,-0.814493,-0.174533,-0.174533,-0.660021,-0.80039,-0.164666,-0.172751,0.552233,-0.394868,-0.148008,-0.0267291
29,65,-0.654498,-0.814493,-0.174533,-0.174533,-0.660021,-0.80039,-0.164666,-0.172751,0.552233,-0.394868,-0.148008,-0.0267291
29,65,-0.654498,-0.814493,-0.174533,-0.174533,-0.660021,-0.80039,-0.164666,-0.172751,0.552233,-0.394868,-0.148008,-0.0267291
29,65,-0.654498,-0.814493,-0.174533,-0.174533,-0.660021,-0.80039,-0.164666,-0.172751,0.552233,-0.394868,-0.148008,-0.0267291
29,65,-0.654498,-0.814493,-0.174533,-0.174533,-0.660021,-0.80039,-0.164666,-0.172751,0.552233,-0.394868,-0.148008,-0.0267291
29,65,-0.654498,-0.814493,-0.174533,-0.174533,-0.660021,-0.80039,-0.164666,-0.172751,0.552233,-0.394868,-0.148008,-0.0267291
29,65,-0.654498,-0.814493,-0.174533,-0.174533,-0.660021,-0.80039,-0.164666,-0.172751,0.552233,-0.394868,-0.148008,-0.0267291
29,65,-0.654498,-0.814493,-0.174533,-0.174533,-0.660021,-0.80039,-0.164666,-0.172751,0.552233,-0.394868,-0.148008,-0.0267291
29,65,-0.654498,-0.814493,-0.174533,-0.174533,-0.660021,-0.80039,-0.164666,-0.172751,0.552233,-0.394868,-0.148008,-0.0267291
29,65,-0.654498,-0.814493,-0.174533,-0.174533,-0.660021,-0.80039,-0.164666,-0.172751,0.552233,-0.394868,-0.148008,-0.0267291
29,65,-0.654498,-0.814493,-0.174533,-0.174533,-0.660021,-0.80039,-0.164666,-0.172751,0.552233,-0.394868,-0.148008,-0.0267291
29,65,-0.654498,-0.814493,-0.174533,-0.174533,-0.660021,-0.80039,-0.164601,-0.172709,0.552233,-0.394868,-0.148981,-0.0273607
29,65,-0.654498,-0.814493,-0.174533,-0.174533,-0.660021,-0.80039,-0.164601,-0.172709,0.552233,-0.394868,-0.148981,-0.0273607
29,65,-0.654498,-0.814493,-0.174533,-0.174533,-0.660021,-0.80039,-0.164601,-0.172709,0.552233,-0.394868,-0.148981,-0.0273607
29,65,-0.654498,-0.814493,-0.174533,-0.174533,-0.660021,-0.80039,-0.164601,-0.172709,0.552233,-0.394868,-0.148981,-0.0273607
29,65,-0.654498,-0.814493,-0.174533,-0.174533,-0.660021,-0.80039,-0.164601,-0.172709,0.552233,-0.394868,-0.148981,-0.0273607
29,65,-0.654498,-0.814493,-0.174533,-0.174533,-0.660021,-0.80039,-0.164601,-0.172709,0.552233,-0.394868,-0.148981,-0.0273607
29,65,-0.654498,-0.814493,-0.174533,-0.174533,-0.660021,-0.80039,-0.164601,-0.172709,0.552233,-0.394868,-0.148981,-0.0273607
29,65,-0.654498,-0.814493,-0.174533,-0.174533,-0.660021,-0.80039,-0.164601,-0.172709,0.552233,-0.394868,-0.148981,-0.0273607
29,65,-0.654498,-0.814493,-0.174533,-0.174533,-0.660021,-0.80039,-0.164601,-0.172709,0.552233,-0.394868,-0.148981,-0.0273607
29,65,-0.654498,-0.814493,-0.174533,-0.174533,-0.660021,-0.80039,-0.164601,-0.172709,0.552233,-0.394868,-0.148981,-0.0273607
29,65,-0.654498,-0.814493,-0.174533,-0.174533,-0.660021,-0.80039,-0.164601,-0.172709,0.552233,-0.394868,-0.148981,-0.0273607
29,65,-0.654498,-0.814493,-0.174533,-0.174533,-0.660021,-0.80039,-0.164601,-0.172709,0.552233,-0.394868,-0.148981,-0.0273607
29,65,-0.654498,-0.814493,-0.174533,-0.174533,-0.660021,-0.80039,-0.164601,-0.172709,0.552233,-0.394868,-0.148981,-0.0273607
29,65,-0.654498,-0.814493,-0.174533,-0.174533,-0.660021,-0.80039,-0.164601,-0.172709,0.552233,-0.394868,-0.148981,-0.0273607
29,65,-0.654498,-0.814493,-0.174533,-0.174533,-0.660021,-0.80039,-0.164601,-0.172709,0.552233,-0.394868,-0.148981,-0.0273607
29,65,-0.654498,-0.814493,-0.174533,-0.174533,-0.660021,-0.80039,-0.164601,-0.172709,0.552233,-0.394868,-0.148981,-0.0273607
29,65,-0.654498,-0.814493,-0.174533,-0.174533,-0.660021,-0.80039,-0.164601,-0.172709,0.552233,-0.394868,-0.148981,-0.0273607
29,65,-0.654498,-0.814493,-0.174533,-0.174533,-0.660021,-0.80039,-0.164601,-0.172709,0.552233,-0.394868,-0.148981,-0.0273607
29,65,-0.654498,-0.814493,-0.174533,-0.174533,-0.660021,-0.80039,-0.164601,-0.172709,0.552233,-0.394868,-0.148981,-0.0273607
29,65,-0.654498,-0.814493,-0.174533,-0.174533,-0.660021,-0.80039,-0.164601,-0.172709,0.552233,-0.394868,-0.148981,-0.0273607
29,65,-0.654498,-0.814493,-0.174533,-0.174533,-0.660021,-0.80039,-0.164601,-0.172709,0.552233,-0.394868,-0.148981,-0.0273607
29,65,-0.654498,-0.814493,-0.174533,-0.174533,-0.660021,-0.80039,-0.164601,-0.172709,0.552233,-0.394868,-0.148981,-0.0273607
29,65,-0.654498,-0.814493,-0.174533,-0.174533,-0.660021,-0.80039,-0.164601,-0.172709,0.552233,-0.394868,-0.148981,-0.0273607
29,65,-0.654498,-0.814493,-0.174533,-0.174533,-0.660021,-0.80039,-0.164601,-0.172709,0.552233,-0.394868,-0.148981,-0.0273607
29,65,-0.654498,-0.814493,-0.174533,-0.174533,-0.660021,-0.80039,-0.164601,-0.172709,0.552233,-0.394868,-0.148981,-0.0273607
29,65,-0.654498,-0.814493,-0.174533,-0.174533,-0.660021,-0.80039,-0.164601,-0.172709,0.552233,-0.394868,-0.148981,-0.0273607
29,65,-0.654498,-0.814493,-0.174533,-0.174533,-0.660021,-0.80039,-0.164601,-0.172709,0.552233,-0.394868,-0.148981,-0.0273607
29,65,-0.654498,-0.814493,-0.174533,-0.174533,-0.660021,-0.80039,-0.164601,-0.172709,0.552233,-0.394868,-0.148981,-0.0273607
29,65,-0.654498,-0.814493,-0.174533,-0.174533,-0.660021,-0.80039,-0.164601,-0.172709,0.552233,-0.394868,-0.148981,-0.0273607
29,65,-0.654498,-0.814493,-0.174533,-0.174533,-0.660021,-0.80039,-0.164601,-0.172709,0.552233,-0.394868,-0.148981,-0.0273607
29,65,-0.654498,-0.814493,-0.174533,-0.174533,-0.660021,-0.80039,-0.164601,-0.172709,0.552233,-0.394868,-0.148981,-0.0273607
29,65,-0.654498,-0.814493,-0.174533,-0.174533,-0.660021,-0.80039,-0.164601,-0.172709,0.552233,-0.394868,-0.148981,-0.0273607
29,65,-0.654498,-0.814493,-0.174533,-0.174533,-0.660021,-0.80039,-0.164601,-0.172709,0.552233,-0.394868,-0.148981,-0.0273607
29,65,-0.654498,-0.814493,-0.174533,-0.174533,-0.660021,-0.80039,-0.164601,-0.172709,0.552233,-0.394868,-0.148981,-0.0273607
29,65,-0.654498,-0.814493,-0.174533,-0.174533,-0.660021,-0.80039,-0.164601,-0.172709,0.552233,-0.394868,-0.148981,-0.0273607
29,65,-0.654498,-0.814493,-0.174533,-0.174533,-0.660021,-0.80039,-0.164601,-0.172709,0.552233,-0.394868,-0.148981,-0.0273607
29,65,-0.654498,-0.814493,-0.174533,-0.174533,-0.660021,-0.80039,-0.164601,-0.172709,0.552233,-0.394868,-0.148981,-0.0273607
29,65,-0.654498,-0.814493,-0.174533,-0.174533,-0.660021,-0.80039,-0.164601,-0.172709,0.552233,-0.394868,-0.148981,-0.0273607
29,65,-0.654498,-0.814493,-0.174533,-0.174533,-0.660021,-0.80039,-0.164601,-0.172709,0.552233,-0.394868,-0.148981,-0.0273607
29,65,-0.654498,-0.814493,-0.174533,-0.174533,-0.660021,-0.80039,-0.164601,-0.172709,0.552233,-0.394868,-0.148981,-0.0273607
29,65,-0.654498,-0.814493,-0.174533,-0.174533,-0.660021,-0.80039,-0.164601,-0.172709,0.552233,-0.394868,-0.148981,-0.0273607
29,65,-0.654498,-0.814493,-0.174533,-0.174533,-0.660021,-0.80039,-0.164601,-0.172709,0.552233,-0.394868,-0.148981,-0.0273607
29,65,-0.654498,-0.814493,-0.174533,-0.174533,-0.660021,-0.80039,-0.164601,-0.172709,0.552233,-0.394868,-0.148981,-0.0273607
29,65,-0.654498,-0.814493,-0.174533,-0.174533,-0.660021,-0.80039,-0.164601,-0.172709,0.552233,-0.394868,-0.148981,-0.0273607
29,65,-0.654498,-0.814493,-0.174533,-0.174533,-0.660021,-0.80039,-0.164601,-0.172709,0.552233,-0.394868,-0.148981,-0.0273607
29,65,-0.654498,-0.814493,-0.174533,-0.174533,-0.660021,-0.80039,-0.164601,-0.172709,0.552233,-0.394868,-0.148981,-0.0273607
29,65,-0.654498,-0.814493,-0.174533,-0.174533,-0.660021,-0.80039,-0.164601,-0.172709,0.552233,-0.394868,-0.148981,-0.0273607
29,65,-0.654498,-0.814493,-0.174533,-0.174533,-0.660021,-0.80039,-0.164601,-0.172709,0.552233,-0.394868,-0.148981,-0.0273607
29,65,-0.654498,-0.814493,-0.174533,-0.174533,-0.660021,-0.80039,-0.164601,-0.172709,0.552233,-0.394868,-0.148981,-0.0273607
29,65,-0.654498,-0.814493,-0.174533,-0.174533,-0.660021,-0.80039,-0.164601,-0.172709,0.552233,-0.394868,-0.148981,-0.0273607
29,65,-0.654498,-0.814493,-0.174533,-0.174533,-0.660021,-0.80039,-0.164601,-0.172709,0.552233,-0.394868,-0.148981,-0.0273607
29,65,-0.654498,-0.814493,-0.174533,-0.174533,-0.660021,-0.80039,-0.164601,-0.172709,0.552233,-0.394868,-0.148981,-0.0273607
29,65,-0.654498,-0.814493,-0.174533,-0.174533,-0.660021,-0.80039,-0.164601,-0.172709,0.552233,-0.394868,-0.148981,-0.0273607
29,65,-0.654498,-0.814493,-0.174533,-0.174533,-0.660021,-0.80039,-0.164601,-0.172709,0.552233,-0.394868,-0.148981,-0.0273607
29,65,-0.654498,-0.814493,-0.174533,-0.174533,-0.660021,-0.80039,-0.164601,-0.172709,0.552233,-0.394868,-0.148981,-0.0273607
29,65,-0.654498,-0.814493,-0.174533,-0.174533,-0.660021,-0.80039,-0.164601,-0.172709,0.552233,-0.394868,-0.148981,-0.0273607
29,65,-0.654498,-0.814493,-0.174533,-0.174533,-0.660021,-0.80039,-0.164601,-0.172709,0.552233,-0.394868,-0.148981,-0.0273607
29,65,-0.654498,-0.814493,-0.174533,-0.174533,-0.660021,-0.80039,-0.164601,-0.172709,0.552233,-0.394868,-0.148981,-0.0273607
29,65,-0.654498,-0.814493,-0.174533,-0.174533,-0.660021,-0.80039,-0.164601,-0.172709,0.552233,-0.394868,-0.148981,-0.0273607
29,65,-0.654498,-0.814493,-0.174533,-0.174533,-0.660021,-0.80039,-0.164601,-0.172709,0.552233,-0.394868,-0.148981,-0.0273607
29,65,-0.654498,-0.814493,-0.174533,-0.174533,-0.660021,-0.80039,-0.164601,-0.172709,0.552233,-0.394868,-0.148981,-0.0273607
29,65,-0.654498,-0.814493,-0.174533,-0.174533,-0.660021,-0.80039,-0.164601,-0.172709,0.552233,-0.394868,-0.148981,-0.0273607
29,65,-0.654498,-0.814493,-0.174533,-0.174533,-0.660021,-0.80039,-0.164601,-0.172709,0.552233,-0.394868,-0.148981,-0.0273607
29,65,-0.654498,-0.814493,-0.174533,-0.174533,-0.660021,-0.80039,-0.164601,-0.172709,0.552233,-0.394868,-0.148981,-0.0273607
29,65,-0.654498,-0.814493,-0.174533,-0.174533,-0.660021,-0.80039,-0.164601,-0.172709,0.552233,-0.394868,-0.148981,-0.0273607
29,65,-0.654498,-0.814493,-0.174533,-0.174533,-0.660021,-0.80039,-0.164601,-0.172709,0.552233,-0.394868,-0.148981,-0.0273607
29,65,-0.654498,-0.814493,-0.174533,-0.174533,-0.660021,-0.80039,-0.164601,-0.172709,0.552233,-0.394868,-0.148981,-0.0273607
29,65,-0.654498,-0.814493,-0.174533,-0.174533,-0.660021,-0.80039,-0.164601,-0.172709,0.552233,-0.394868,-0.148981,-0.0273607
29,65,-0.654498,-0.814493,-0.174533,-0.174533,-0.660021,-0.80039,-0.164601,-0.172709,0.552233,-0.394868,-0.148981,-0.0273607
29,65,-0.654498,-0.814493,-0.174533,-0.174533,-0.660021,-0.80039,-0.164601,-0.172709,0.552233,-0.394868,-0.148981,-0.0273607
29,65,-0.654498,-0.814493,-0.174533,-0.174533,-0.660021,-0.80039,-0.164601,-0.172709,0.552233,-0.394868,-0.148981,-0.0273607
29,65,-0.654498,-0.814493,-0.174533,-0.174533,-0.660021,-0.80039,-0.164601,-0.172709,0.552233,-0.394868,-0.148981,-0.0273607
29,65,-0.654498,-0.814493,-0.174533,-0.174533,-0.660021,-0.80039,-0.164601,-0.172709,0.552233,-0.394868,-0.148981,-0.0273607
29,65,-0.654498,-0.814493,-0.174533,-0.174533,-0.660021,-0.80039,-0.164601,-0.172709,0.552233,-0.394868,-0.148981,-0.0273607
29,65,-0.654498,-0.814493,-0.174533,-0.174533,-0.660021,-0.80039,-0.164601,-0.172709,0.552233,-0.394868,-0.148981,-0.0273607
29,65,-0.654498,-0.814493,-0.174533,-0.174533,-0.660021,-0.80039,-0.164601,-0.172709,0.552233,-0.394868,-0.148981,-0.0273607
29,65,-0.654498,-0.814493,-0.174533,-0.174533,-0.660021,-0.80039,-0.164601,-0.172709,0.552233,-0.394868,-0.148981,-0.0273607
29,65,-0.654498,-0.814493,-0.174533,-0.174533,-0.660021,-0.80039,-0.164601,-0.172709,0.552233,-0.394868,-0.148981,-0.0273607
29,65,-0.654498,-0.814493,-0.174533,-0.174533,-0.660021,-0.80039,-0.164601,-0.172709,0.552233,-0.394868,-0.148981,-0.0273607
29,65,-0.654498,-0.814493,-0.174533,-0.174533,-0.660021,-0.80039,-0.164601,-0.172709,0.552233,-0.394868,-0.148981,-0.0273607
29,65,-0.654498,-0.814493,-0.174533,-0.174533,-0.660021,-0.80039,-0.164601,-0.172709,0.552233,-0.394868,-0.148981,-0.0273607
29,65,-0.654498,-0.814493,-0.174533,-0.174533,-0.660021,-0.80039,-0.164601,-0.172709,0.552233,-0.394868,-0.148981,-0.0273607
29,65,-0.654498,-0.814493,-0.174533,-0.174533,-0.660021,-0.80039,-0.164601,-0.172709,0.552233,-0.394868,-0.148981,-0.0273607
29,65,-0.654498,-0.814493,-0.174533,-0.174533,-0.660021,-0.80039,-0.164601,-0.172709,0.552233,-0.394868,-0.148981,-0.0273607
29,65,-0.654498,-0.814493,-0.174533,-0.174533,-0.660021,-0.80039,-0.164601,-0.172709,0.552233,-0.394868,-0.148981,-0.0273607
29,65,-0.654498,-0.814493,-0.174533,-0.174533,-0.660021,-0.80039,-0.164601,-0.172709,0.552233,-0.394868,-0.148981,-0.0273607
29,65,-0.654498,-0.814493,-0.174533,-0.174533,-0.660021,-0.80039,-0.164601,-0.172709,0.552233,-0.394868,-0.148981,-0.0273607
29,65,-0.654498,-0.814493,-0.174533,-0.174533,-0.660021,-0.80039,-0.164601,-0.172709,0.552233,-0.394868,-0.148981,-0.0273607
29,65,-0.654498,-0.814493,-0.174533,-0.174533,-0.660021,-0.80039,-0.164601,-0.172709,0.552233,-0.394868,-0.148981,-0.0273607
29,65,-0.654498,-0.814493,-0.174533,-0.174533,-0.660021,-0.80039,-0.164601,-0.172709,0.552233,-0.394868,-0.148981,-0.0273607
29,65,-0.654498,-0.814493,-0.174533,-0.174533,-0.660021,-0.80039,-0.164601,-0.172709,0.552233,-0.394868,-0.148981,-0.0273607
29,65,-0.654498,-0.814493,-0.174533,-0.174533,-0.660021,-0.80039,-0.164601,-0.172709,0.552233,-0.394868,-0.148981,-0.0273607
29,65,-0.654498,-0.814493,-0.174533,-0.174533,-0.660021,-0.80039,-0.164601,-0.172709,0.552233,-0.394868,-0.148981,-0.0273607
29,65,-0.654498,-0.814493,-0.174533,-0.174533,-0.660021,-0.80039,-0.164601,-0.172709,0.552233,-0.394868,-0.148981,-0.0273607
29,65,-0.654498,-0.814493,-0.174533,-0.174533,-0.660021,-0.80039,-0.164601,-0.172709,0.552233,-0.394868,-0.148981,-0.0273607
29,65,-0.654498,-0.814493,-0.174533,-0.174533,-0.660021,-0.80039,-0.164601,-0.172709,0.552233,-0.394868,-0.148981,-0.0273607
29,65,-0.654498,-0.814493,-0.174533,-0.174533,-0.660021,-0.80039,-0.164601,-0.172709,0.552233,-0.394868,-0.148981,-0.0273607
29,65,-0.654498,-0.814493,-0.174533,-0.174533,-0.660021,-0.80039,-0.164601,-0.172709,0.552233,-0.394868,-0.148981,-0.0273607
29,65,-0.654498,-0.814493,-0.174533,-0.174533,-0.660021,-0.80039,-0.164601,-0.172709,0.552233,-0.394868,-0.148981,-0.0273607
29,65,-0.654498,-0.814493,-0.174533,-0.174533,-0.660021,-0.80039,-0.164601,-0.172709,0.552233,-0.394868,-0.148981,-0.0273607
29,65,-0.654498,-0.814493,-0.174533,-0.174533,-0.660021,-0.80039,-0.164601,-0.172709,0.552233,-0.394868,-0.148981,-0.0273607
29,65,-0.654498,-0.814493,-0.174533,-0.174533,-0.660021,-0.80039,-0.164601,-0.172709,0.552233,-0.394868,-0.148981,-0.0273607
29,65,-0.654498,-0.814493,-0.174533,-0.174533,-0.660021,-0.80039,-0.164601,-0.172709,0.552233,-0.394868,-0.148981,-0.0273607
29,65,-0.654498,-0.814493,-0.174533,-0.174533,-0.660021,-0.80039,-0.164601,-0.172709,0.552233,-0.394868,-0.148981,-0.0273607
29,65,-0.654498,-0.814493,-0.174533,-0.174533,-0.660021,-0.80039,-0.164601,-0.172709,0.552233,-0.394868,-0.148981,-0.0273607
29,65,-0.654498,-0.814493,-0.174533,-0.174533,-0.660021,-0.80039,-0.164601,-0.172709,0.552233,-0.394868,-0.148981,-0.0273607
29,65,-0.654498,-0.814493,-0.174533,-0.174533,-0.660021,-0.80039,-0.164601,-0.172709,0.552233,-0.394868,-0.148981,-0.0273607
29,65,-0.654498,-0.814493,-0.174533,-0.174533,-0.660021,-0.80039,-0.164601,-0.172709,0.552233,-0.394868,-0.148981,-0.0273607
29,65,-0.654498,-0.814493,-0.174533,-0.174533,-0.660021,-0.80039,-0.164601,-0.172709,0.552233,-0.394868,-0.148981,-0.0273607
29,65,-0.654498,-0.814493,-0.174533,-0.174533,-0.660021,-0.80039,-0.164601,-0.172709,0.552233,-0.394868,-0.148981,-0.0273607
29,65,-0.654498,-0.814493,-0.174533,-0.174533,-0.660021,-0.80039,-0.164601,-0.172709,0.552233,-0.394868,-0.148981,-0.0273607
29,65,-0.654498,-0.814493,-0.174533,-0.174533,-0.660021,-0.80039,-0.164601,-0.172709,0.552233,-0.394868,-0.148981,-0.0273607
29,65,-0.654498,-0.814493,-0.174533,-0.174533,-0.660021,-0.80039,-0.164601,-0.172709,0.552233,-0.394868,-0.148981,-0.0273607
29,65,-0.654498,-0.814493,-0.174533,-0.174533,-0.660021,-0.80039,-0.164601,-0.172709,0.552233,-0.394868,-0.148981,-0.0273607
29,65,-0.654498,-0.814493,-0.174533,-0.174533,-0.660021,-0.80039,-0.164601,-0.172709,0.552233,-0.394868,-0.148981,-0.0273607
29,65,-0.654498,-0.814493,-0.174533,-0.174533,-0.660021,-0.80039,-0.164601,-0.172709,0.552233,-0.394868,-0.148981,-0.0273607
29,65,-0.654498,-0.814493,-0.174533,-0.174533,-0.660021,-0.80039,-0.164601,-0.172709,0.552233,-0.394868,-0.148981,-0.0273607
29,65,-0.654498,-0.814493,-0.174533,-0.174533,-0.660021,-0.80039,-0.164601,-0.172709,0.552233,-0.394868,-0.148981,-0.0273607
29,65,-0.654498,-0.814493,-0.174533,-0.174533,-0.660021,-0.80039,-0.164601,-0.172709,0.552233,-0.394868,-0.148981,-0.0273607
29,65,-0.654498,-0.814493,-0.174533,-0.174533,-0.660021,-0.80039,-0.164601,-0.172709,0.552233,-0.394868,-0.148981,-0.0273607
29,65,-0.654498,-0.814493,-0.174533,-0.174533,-0.660021,-0.80039,-0.164601,-0.172709,0.552233,-0.394868,-0.148981,-0.0273607
29,65,-0.654498,-0.814493,-0.174533,-0.174533,-0.660021,-0.80039,-0.164601,-0.172709,0.552233,-0.394868,-0.148981,-0.0273607
29,65,-0.654498,-0.814493,-0.174533,-0.174533,-0.660021,-0.80039,-0.164601,-0.172709,0.552233,-0.394868,-0.148981,-0.0273607
29,65,-0.654498,-0.814493,-0.174533,-0.174533,-0.660021,-0.80039,-0.164601,-0.172709,0.552233,-0.394868,-0.148981,-0.0273607
29,65,-0.654498,-0.814493,-0.174533,-0.174533,-0.660021,-0.80039,-0.164601,-0.172709,0.552233,-0.394868,-0.148981,-0.0273607
29,65,-0.654498,-0.814493,-0.174533,-0.174533,-0.660021,-0.80039,-0.164601,-0.172709,0.552233,-0.394868,-0.148981,-0.0273607
29,65,-0.654498,-0.814493,-0.174533,-0.174533,-0.660021,-0.80039,-0.164601,-0.172709,0.552233,-0.394868,-0.148981,-0.0273607
29,65,-0.654498,-0.814493,-0.174533,-0.174533,-0.660021,-0.80039,-0.164601,-0.172709,0.552233,-0.394868,-0.148981,-0.0273607
29,65,-0.654498,-0.814493,-0.174533,-0.174533,-0.660021,-0.80039,-0.164601,-0.172709,0.552233,-0.394868,-0.148981,-0.0273607
29,65,-0.654498,-0.814493,-0.174533,-0.174533,-0.660021,-0.80039,-0.164601,-0.172709,0.552233,-0.394868,-0.148981,-0.0273607
29,65,-0.654498,-0.814493,-0.174533,-0.174533,-0.660021,-0.80039,-0.164601,-0.172709,0.552233,-0.394868,-0.148981,-0.0273607
29,65,-0.654498,-0.814493,-0.174533,-0.174533,-0.660021,-0.80039,-0.164601,-0.172709,0.552233,-0.394868,-0.148981,-0.0273607
29,65,-0.654498,-0.814493,-0.174533,-0.174533,-0.660021,-0.80039,-0.164601,-0.172709,0.552233,-0.394868,-0.148981,-0.0273607
29,65,-0.654498,-0.814493,-0.174533,-0.174533,-0.660021,-0.80039,-0.164601,-0.172709,0.552233,-0.394868,-0.148981,-0.0273607
29,65,-0.654498,-0.814493,-0.174533,-0.174533,-0.660021,-0.80039,-0.164601,-0.172709,0.552233,-0.394868,-0.148981,-0.0273607
29,65,-0.654498,-0.814493,-0.174533,-0.174533,-0.660021,-0.80039,-0.164601,-0.172709,0.552233,-0.394868,-0.148981,-0.0273607
29,65,-0.654498,-0.814493,-0.174533,-0.174533,-0.660021,-0.80039,-0.164601,-0.172709,0.552233,-0.394868,-0.148981,-0.0273607
29,65,-0.654498,-0.814493,-0.174533,-0.174533,-0.660021,-0.80039,-0.164601,-0.172709,0.552233,-0.394868,-0.148981,-0.0273607
29,65,-0.654498,-0.814493,-0.174533,-0.174533,-0.660021,-0.80039,-0.164601,-0.172709,0.552233,-0.394868,-0.148981,-0.0273607
29,65,-0.654498,-0.814493,-0.174533,-0.174533,-0.660021,-0.80039,-0.164601,-0.172709,0.552233,-0.394868,-0.148981,-0.0273607
29,65,-0.654498,-0.814493,-0.174533,-0.174533,-0.660021,-0.80039,-0.164601,-0.172709,0.552233,-0.394868,-0.148981,-0.0273607
29,65,-0.654498,-0.814493,-0.174533,-0.174533,-0.660021,-0.80039,-0.164601,-0.172709,0.552233,-0.394868,-0.148981,-0.0273607
29,65,-0.654498,-0.814493,-0.174533,-0.174533,-0.660021,-0.80039,-0.164601,-0.172709,0.552233,-0.394868,-0.148981,-0.0273607
29,65,-0.654498,-0.814493,-0.174533,-0.174533,-0.660021,-0.80039,-0.164601,-0.172709,0.552233,-0.394868,-0.148981,-0.0273607
29,65,-0.654498,-0.814493,-0.174533,-0.174533,-0.660021,-0.80039,-0.164601,-0.172709,0.552233,-0.394868,-0.148981,-0.0273607
29,65,-0.654498,-0.814493,-0.174533,-0.174533,-0.660021,-0.80039,-0.164601,-0.172709,0.552233,-0.394868,-0.148981,-0.0273607
29,65,-0.654498,-0.814493,-0.174533,-0.174533,-0.660021,-0.80039,-0.164601,-0.172709,0.552233,-0.394868,-0.148981,-0.0273607
29,65,-0.654498,-0.814493,-0.174533,-0.174533,-0.660021,-0.80039,-0.164601,-0.172709,0.552233,-0.394868,-0.148981,-0.0273607
29,65,-0.654498,-0.814493,-0.174533,-0.174533,-0.660021,-0.80039,-0.164601,-0.172709,0.552233,-0.394868,-0.148981,-0.0273607
29,65,-0.654498,-0.814493,-0.174533,-0.174533,-0.660021,-0.80039,-0.164601,-0.172709,0.552233,-0.394868,-0.148981,-0.0273607
29,65,-0.654498,-0.814493,-0.174533,-0.174533,-0.660021,-0.80039,-0.164601,-0.172709,0.552233,-0.394868,-0.148981,-0.0273607
29,65,-0.654498,-0.814493,-0.174533,-0.174533,-0.660021,-0.80039,-0.164601,-0.172709,0.552233,-0.394868,-0.148981,-0.0273607
29,65,-0.654498,-0.814493,-0.174533,-0.174533,-0.660021,-0.80039,-0.164601,-0.172709,0.552233,-0.394868,-0.148981,-0.0273607
29,65,-0.654498,-0.814493,-0.174533,-0.174533,-0.660021,-0.80039,-0.164601,-0.172709,0.552233,-0.394868,-0.148981,-0.0273607
29,65,-0.654498,-0.814493,-0.174533,-0.174533,-0.660021,-0.80039,-0.164601,-0.172709,0.552233,-0.394868,-0.148981,-0.0273607
29,65,-0.654498,-0.814493,-0.174533,-0.174533,-0.660021,-0.80039,-0.164601,-0.172709,0.552233,-0.394868,-0.148981,-0.0273607
29,65,-0.654498,-0.814493,-0.174533,-0.174533,-0.660021,-0.80039,-0.164601,-0.172709,0.552233,-0.394868,-0.148981,-0.0273607
29,65,-0.654498,-0.814493,-0.174533,-0.174533,-0.660021,-0.80039,-0.164601,-0.172709,0.552233,-0.394868,-0.148981,-0.0273607
29,65,-0.654498,-0.814493,-0.174533,-0.174533,-0.660021,-0.80039,-0.164601,-0.172709,0.552233,-0.394868,-0.148981,-0.0273607
29,65,-0.654498,-0.814493,-0.174533,-0.174533,-0.660021,-0.80039,-0.164601,-0.172709,0.552233,-0.394868,-0.148981,-0.0273607
29,65,-0.654498,-0.814493,-0.174533,-0.174533,-0.660021,-0.80039,-0.164601,-0.172709,0.552233,-0.394868,-0.148981,-0.0273607
29,65,-0.654498,-0.814493,-0.174533,-0.174533,-0.660021,-0.80039,-0.164601,-0.172709,0.552233,-0.394868,-0.148981,-0.0273607
29,65,-0.654498,-0.814493,-0.174533,-0.174533,-0.660021,-0.80039,-0.164601,-0.172709,0.552233,-0.394868,-0.148981,-0.0273607
29,65,-0.654498,-0.814493,-0.174533,-0.174533,-0.660021,-0.80039,-0.164601,-0.172709,0.552233,-0.394868,-0.148981,-0.0273607
29,65,-0.654498,-0.814493,-0.174533,-0.174533,-0.660021,-0.80039,-0.164601,-0.172709,0.552233,-0.394868,-0.148981,-0.0273607
29,65,-0.654498,-0.814493,-0.174533,-0.174533,-0.660021,-0.80039,-0.164601,-0.172709,0.552233,-0.394868,-0.148981,-0.0273607
29,65,-0.654498,-0.814493,-0.174533,-0.174533,-0.660021,-0.80039,-0.164601,-0.172709,0.552233,-0.394868,-0.148981,-0.0273607
29,65,-0.654498,-0.814493,-0.174533,-0.174533,-0.660021,-0.80039,-0.164601,-0.172709,0.552233,-0.394868,-0.148981,-0.0273607
29,65,-0.654498,-0.814493,-0.174533,-0.174533,-0.660021,-0.80039,-0.164601,-0.172709,0.552233,-0.394868,-0.148981,-0.0273607
29,65,-0.654498,-0.814493,-0.174533,-0.174533,-0.660021,-0.80039,-0.164601,-0.172709,0.552233,-0.394868,-0.148981,-0.0273607
29,65,-0.654498,-0.814493,-0.174533,-0.174533,-0.660021,-0.80039,-0.164601,-0.172709,0.552233,-0.394868,-0.148981,-0.0273607
29,65,-0.654498,-0.814493,-0.174533,-0.174533,-0.660021,-0.80039,-0.164601,-0.172709,0.552233,-0.394868,-0.148981,-0.0273607
29,65,-0.654498,-0.814493,-0.174533,-0.174533,-0.660021,-0.80039,-0.164601,-0.172709,0.552233,-0.394868,-0.148981,-0.0273607
29,65,-0.654498,-0.814493,-0.174533,-0.174533,-0.660021,-0.80039,-0.164601,-0.172709,0.552233,-0.394868,-0.148981,-0.0273607
29,65,-0.654498,-0.814493,-0.174533,-0.174533,-0.660021,-0.80039,-0.164601,-0.172709,0.552233,-0.394868,-0.148981,-0.0273607
29,65,-0.654498,-0.814493,-0.174533,-0.174533,-0.660021,-0.80039,-0.164601,-0.172709,0.552233,-0.394868,-0.148981,-0.0273607
29,65,-0.654498,-0.814493,-0.174533,-0.174533,-0.660021,-0.80039,-0.164601,-0.172709,0.552233,-0.394868,-0.148981,-0.0273607
29,65,-0.654498,-0.814493,-0.174533,-0.174533,-0.660021,-0.80039,-0.164601,-0.172709,0.552233,-0.394868,-0.148981,-0.0273607
29,65,-0.654498,-0.814493,-0.174533,-0.174533,-0.660021,-0.80039,-0.164601,-0.172709,0.552233,-0.394868,-0.148981,-0.0273607
29,65,-0.654498,-0.814493,-0.174533,-0.174533,-0.660021,-0.80039,-0.164601,-0.172709,0.552233,-0.394868,-0.148981,-0.0273607
29,65,-0.654498,-0.814493,-0.174533,-0.174533,-0.660021,-0.80039,-0.164601,-0.172709,0.552233,-0.394868,-0.148981,-0.0273607
29,65,-0.654498,-0.814493,-0.174533,-0.174533,-0.660021,-0.80039,-0.164601,-0.172709,0.552233,-0.394868,-0.148981,-0.0273607
29,65,-0.654498,-0.814493,-0.174533,-0.174533,-0.660021,-0.80039,-0.164601,-0.172709,0.552233,-0.394868,-0.148981,-0.0273607
29,65,-0.654498,-0.814493,-0.174533,-0.174533,-0.660021,-0.80039,-0.164601,-0.172709,0.552233,-0.394868,-0.148981,-0.0273607
29,65,-0.654498,-0.814493,-0.174533,-0.174533,-0.660021,-0.80039,-0.164601,-0.172709,0.552233,-0.394868,-0.148981,-0.0273607
29,65,-0.654498,-0.814493,-0.174533,-0.174533,-0.660021,-0.80039,-0.164601,-0.172709,0.552233,-0.394868,-0.148981,-0.0273607
29,65,-0.654498,-0.814493,-0.174533,-0.174533,-0.660021,-0.80039,-0.164601,-0.172709,0.552233,-0.394868,-0.148981,-0.0273607
29,65,-0.654498,-0.814493,-0.174533,-0.174533,-0.660021,-0.80039,-0.164601,-0.172709,0.552233,-0.394868,-0.148981,-0.0273607
29,65,-0.654498,-0.814493,-0.174533,-0.174533,-0.660021,-0.80039,-0.164601,-0.172709,0.552233,-0.394868,-0.148981,-0.0273607
29,65,-0.654498,-0.814493,-0.174533,-0.174533,-0.660021,-0.80039,-0.164601,-0.172709,0.552233,-0.394868,-0.148981,-0.0273607
29,65,-0.654498,-0.814493,-0.174533,-0.174533,-0.660021,-0.80039,-0.164601,-0.172709,0.552233,-0.394868,-0.148981,-0.0273607
29,65,-0.654498,-0.814493,-0.174533,-0.174533,-0.660021,-0.80039,-0.164601,-0.172709,0.552233,-0.394868,-0.148981,-0.0273607
29,65,-0.654498,-0.814493,-0.174533,-0.174533,-0.660021,-0.80039,-0.164601,-0.172709,0.552233,-0.394868,-0.148981,-0.0273607
29,65,-0.654498,-0.814493,-0.174533,-0.174533,-0.660021,-0.80039,-0.164601,-0.172709,0.552233,-0.394868,-0.148981,-0.0273607
29,65,-0.654498,-0.814493,-0.174533,-0.174533,-0.660021,-0.80039,-0.164601,-0.172709,0.552233,-0.394868,-0.148981,-0.0273607
29,65,-0.654498,-0.814493,-0.174533,-0.174533,-0.660021,-0.80039,-0.164601,-0.172709,0.552233,-0.394868,-0.148981,-0.0273607
29,65,-0.654498,-0.814493,-0.174533,-0.174533,-0.660021,-0.80039,-0.164601,-0.172709,0.552233,-0.394868,-0.148981,-0.0273607
29,65,-0.654498,-0.814493,-0.174533,-0.174533,-0.660021,-0.80039,-0.164601,-0.172709,0.552233,-0.394868,-0.148981,-0.0273607
29,65,-0.654498,-0.814493,-0.174533,-0.174533,-0.660021,-0.80039,-0.164601,-0.172709,0.552233,-0.394868,-0.148981,-0.0273607
29,65,-0.654498,-0.814493,-0.174533,-0.174533,-0.660021,-0.80039,-0.164601,-0.172709,0.552233,-0.394868,-0.148981,-0.0273607
29,65,-0.654498,-0.814493,-0.174533,-0.174533,-0.660021,-0.80039,-0.164601,-0.172709,0.552233,-0.394868,-0.148981,-0.0273607
29,65,-0.654498,-0.814493,-0.174533,-0.174533,-0.660021,-0.80039,-0.164601,-0.172709,0.552233,-0.394868,-0.148981,-0.0273607
29,65,-0.654498,-0.814493,-0.174533,-0.174533,-0.660021,-0.80039,-0.164601,-0.172709,0.552233,-0.394868,-0.148981,-0.0273607
29,65,-0.654498,-0.814493,-0.174533,-0.174533,-0.660021,-0.80039,-0.164601,-0.172709,0.552233,-0.394868,-0.148981,-0.0273607
29,65,-0.654498,-0.814493,-0.174533,-0.174533,-0.660021,-0.80039,-0.164601,-0.172709,0.552233,-0.394868,-0.148981,-0.0273607
29,65,-0.654498,-0.814493,-0.174533,-0.174533,-0.660021,-0.80039,-0.164601,-0.172709,0.552233,-0.394868,-0.148981,-0.0273607
29,65,-0.654498,-0.814493,-0.174533,-0.174533,-0.660021,-0.80039,-0.164601,-0.172709,0.552233,-0.394868,-0.148981,-0.0273607
29,65,-0.654498,-0.814493,-0.174533,-0.174533,-0.660021,-0.80039,-0.164601,-0.172709,0.552233,-0.394868,-0.148981,-0.0273607
29,65,-0.654498,-0.814493,-0.174533,-0.174533,-0.660021,-0.80039,-0.164601,-0.172709,0.552233,-0.394868,-0.148981,-0.0273607
29,65,-0.654498,-0.814493,-0.174533,-0.174533,-0.660021,-0.80039,-0.164601,-0.172709,0.552233,-0.394868,-0.148981,-0.0273607
29,65,-0.654498,-0.814493,-0.174533,-0.174533,-0.660021,-0.80039,-0.164601,-0.172709,0.552233,-0.394868,-0.148981,-0.0273607
29,65,-0.654498,-0.814493,-0.174533,-0.174533,-0.660021,-0.80039,-0.164601,-0.172709,0.552233,-0.394868,-0.148981,-0.0273607
29,65,-0.654498,-0.814493,-0.174533,-0.174533,-0.660021,-0.80039,-0.164601,-0.172709,0.552233,-0.394868,-0.148981,-0.0273607
29,65,-0.654498,-0.814493,-0.174533,-0.174533,-0.660021,-0.80039,-0.164601,-0.172709,0.552233,-0.394868,-0.148981,-0.0273607
29,65,-0.654498,-0.814493,-0.174533,-0.174533,-0.660021,-0.80039,-0.164601,-0.172709,0.552233,-0.394868,-0.148981,-0.0273607
29,65,-0.654498,-0.814493,-0.174533,-0.174533,-0.660021,-0.80039,-0.164601,-0.172709,0.552233,-0.394868,-0.148981,-0.0273607
29,65,-0.654498,-0.814493,-0.174533,-0.174533,-0.660021,-0.80039,-0.164601,-0.172709,0.552233,-0.394868,-0.148981,-0.0273607
29,65,-0.654498,-0.814493,-0.174533,-0.174533,-0.660021,-0.80039,-0.164601,-0.172709,0.552233,-0.394868,-0.148981,-0.0273607
29,65,-0.654498,-0.814493,-0.174533,-0.174533,-0.660021,-0.80039,-0.164601,-0.172709,0.552233,-0.394868,-0.148981,-0.0273607
29,65,-0.654498,-0.814493,-0.174533,-0.174533,-0.660021,-0.80039,-0.164601,-0.172709,0.552233,-0.394868,-0.148981,-0.0273607
29,65,-0.654498,-0.814493,-0.174533,-0.174533,-0.660021,-0.80039,-0.164536,-0.172667,0.552233,-0.394868,-0.149953,-0.0279921
29,65,-0.654498,-0.814493,-0.174533,-0.174533,-0.660021,-0.80039,-0.164536,-0.172667,0.552233,-0.394868,-0.149953,-0.0279921
29,65,-0.654498,-0.814493,-0.174533,-0.174533,-0.660021,-0.80039,-0.164536,-0.172667,0.552233,-0.394868,-0.149953,-0.0279921
29,65,-0.654498,-0.814493,-0.174533,-0.174533,-0.660021,-0.80039,-0.164536,-0.172667,0.552233,-0.394868,-0.149953,-0.0279921
29,65,-0.654498,-0.814493,-0.174533,-0.174533,-0.660021,-0.80039,-0.164536,-0.172667,0.552233,-0.394868,-0.149953,-0.0279921
29,65,-0.654498,-0.814493,-0.174533,-0.174533,-0.660021,-0.80039,-0.164536,-0.172667,0.552233,-0.394868,-0.149953,-0.0279921
29,65,-0.654498,-0.814493,-0.174533,-0.174533,-0.660021,-0.80039,-0.164536,-0.172667,0.552233,-0.394868,-0.149953,-0.0279921
29,65,-0.654498,-0.814493,-0.174533,-0.174533,-0.660021,-0.80039,-0.164536,-0.172667,0.552233,-0.394868,-0.149953,-0.0279921
29,65,-0.654498,-0.814493,-0.174533,-0.174533,-0.660021,-0.80039,-0.164536,-0.172667,0.552233,-0.394868,-0.149953,-0.0279921
29,65,-0.654498,-0.814493,-0.174533,-0.174533,-0.660021,-0.80039,-0.164536,-0.172667,0.552233,-0.394868,-0.149953,-0.0279921
29,65,-0.654498,-0.814493,-0.174533,-0.174533,-0.660021,-0.80039,-0.164536,-0.172667,0.552233,-0.394868,-0.149953,-0.0279921
29,65,-0.654498,-0.814493,-0.174533,-0.174533,-0.660021,-0.80039,-0.164536,-0.172667,0.552233,-0.394868,-0.149953,-0.0279921
29,65,-0.654498,-0.814493,-0.174533,-0.174533,-0.660021,-0.80039,-0.164536,-0.172667,0.552233,-0.394868,-0.149953,-0.0279921
29,65,-0.654498,-0.814493,-0.174533,-0.174533,-0.660021,-0.80039,-0.164536,-0.172667,0.552233,-0.394868,-0.149953,-0.0279921
29,65,-0.654498,-0.814493,-0.174533,-0.174533,-0.660021,-0.80039,-0.164536,-0.172667,0.552233,-0.394868,-0.149953,-0.0279921
29,65,-0.654498,-0.814493,-0.174533,-0.174533,-0.660021,-0.80039,-0.164536,-0.172667,0.552233,-0.394868,-0.149953,-0.0279921
29,65,-0.654498,-0.814493,-0.174533,-0.174533,-0.660021,-0.80039,-0.164536,-0.172667,0.552233,-0.394868,-0.149953,-0.0279921
29,65,-0.654498,-0.814493,-0.174533,-0.174533,-0.660021,-0.80039,-0.164536,-0.172667,0.552233,-0.394868,-0.149953,-0.0279921
29,65,-0.654498,-0.814493,-0.174533,-0.174533,-0.660021,-0.80039,-0.164536,-0.172667,0.552233,-0.394868,-0.149953,-0.0279921
29,65,-0.654498,-0.814493,-0.174533,-0.174533,-0.660021,-0.80039,-0.164536,-0.172667,0.552233,-0.394868,-0.149953,-0.0279921
29,65,-0.654498,-0.814493,-0.174533,-0.174533,-0.660021,-0.80039,-0.164536,-0.172667,0.552233,-0.394868,-0.149953,-0.0279921
29,65,-0.654498,-0.814493,-0.174533,-0.174533,-0.660021,-0.80039,-0.164536,-0.172667,0.552233,-0.394868,-0.149953,-0.0279921
29,65,-0.654498,-0.814493,-0.174533,-0.174533,-0.660021,-0.80039,-0.164536,-0.172667,0.552233,-0.394868,-0.149953,-0.0279921
29,65,-0.654498,-0.814493,-0.174533,-0.174533,-0.660021,-0.80039,-0.164536,-0.172667,0.552233,-0.394868,-0.149953,-0.0279921
29,65,-0.654498,-0.814493,-0.174533,-0.174533,-0.660021,-0.80039,-0.164536,-0.172667,0.552233,-0.394868,-0.149953,-0.0279921
29,65,-0.654498,-0.814493,-0.174533,-0.174533,-0.660021,-0.80039,-0.164536,-0.172667,0.552233,-0.394868,-0.149953,-0.0279921
29,65,-0.654498,-0.814493,-0.174533,-0.174533,-0.660021,-0.80039,-0.164536,-0.172667,0.552233,-0.394868,-0.149953,-0.0279921
29,65,-0.654498,-0.814493,-0.174533,-0.174533,-0.660021,-0.80039,-0.164536,-0.172667,0.552233,-0.394868,-0.149953,-0.0279921
29,65,-0.654498,-0.814493,-0.174533,-0.174533,-0.660021,-0.80039,-0.164536,-0.172667,0.552233,-0.394868,-0.149953,-0.0279921
29,65,-0.654498,-0.814493,-0.174533,-0.174533,-0.660021,-0.80039,-0.164536,-0.172667,0.552233,-0.394868,-0.149953,-0.0279921
29,65,-0.654498,-0.814493,-0.174533,-0.174533,-0.660021,-0.80039,-0.164536,-0.172667,0.552233,-0.394868,-0.149953,-0.0279921
29,65,-0.654498,-0.814493,-0.174533,-0.174533,-0.660021,-0.80039,-0.164536,-0.172667,0.552233,-0.394868,-0.149953,-0.0279921
29,65,-0.654498,-0.814493,-0.174533,-0.174533,-0.660021,-0.80039,-0.164536,-0.172667,0.552233,-0.394868,-0.149953,-0.0279921
29,65,-0.654498,-0.814493,-0.174533,-0.174533,-0.660021,-0.80039,-0.164536,-0.172667,0.552233,-0.394868,-0.149953,-0.0279921
29,65,-0.654498,-0.814493,-0.174533,-0.174533,-0.660021,-0.80039,-0.164536,-0.172667,0.552233,-0.394868,-0.149953,-0.0279921
29,65,-0.654498,-0.814493,-0.174533,-0.174533,-0.660021,-0.80039,-0.164536,-0.172667,0.552233,-0.394868,-0.149953,-0.0279921
29,65,-0.654498,-0.814493,-0.174533,-0.174533,-0.660021,-0.80039,-0.164536,-0.172667,0.552233,-0.394868,-0.149953,-0.0279921
29,65,-0.654498,-0.814493,-0.174533,-0.174533,-0.660021,-0.80039,-0.164536,-0.172667,0.552233,-0.394868,-0.149953,-0.0279921
29,65,-0.654498,-0.814493,-0.174533,-0.174533,-0.660021,-0.80039,-0.164536,-0.172667,0.552233,-0.394868,-0.149953,-0.0279921
29,65,-0.654498,-0.814493,-0.174533,-0.174533,-0.660021,-0.80039,-0.164536,-0.172667,0.552233,-0.394868,-0.149953,-0.0279921
29,65,-0.654498,-0.814493,-0.174533,-0.174533,-0.660021,-0.80039,-0.164536,-0.172667,0.552233,-0.394868,-0.149953,-0.0279921
29,65,-0.654498,-0.814493,-0.174533,-0.174533,-0.660021,-0.80039,-0.164536,-0.172667,0.552233,-0.394868,-0.149953,-0.0279921
29,65,-0.654498,-0.814493,-0.174533,-0.174533,-0.660021,-0.80039,-0.164536,-0.172667,0.552233,-0.394868,-0.149953,-0.0279921
29,65,-0.654498,-0.814493,-0.174533,-0.174533,-0.660021,-0.80039,-0.164536,-0.172667,0.552233,-0.394868,-0.149953,-0.0279921
29,65,-0.654498,-0.814493,-0.174533,-0.174533,-0.660021,-0.80039,-0.164536,-0.172667,0.552233,-0.394868,-0.149953,-0.0279921
29,65,-0.654498,-0.814493,-0.174533,-0.174533,-0.660021,-0.80039,-0.164536,-0.172667,0.552233,-0.394868,-0.149953,-0.0279921
29,65,-0.654498,-0.814493,-0.174533,-0.174533,-0.660021,-0.80039,-0.164536,-0.172667,0.552233,-0.394868,-0.149953,-0.0279921
29,65,-0.654498,-0.814493,-0.174533,-0.174533,-0.660021,-0.80039,-0.164536,-0.172667,0.552233,-0.394868,-0.149953,-0.0279921
29,65,-0.654498,-0.814493,-0.174533,-0.174533,-0.660021,-0.80039,-0.164536,-0.172667,0.552233,-0.394868,-0.149953,-0.0279921
29,65,-0.654498,-0.814493,-0.174533,-0.174533,-0.660021,-0.80039,-0.164536,-0.172667,0.552233,-0.394868,-0.149953,-0.0279921
29,65,-0.654498,-0.814493,-0.174533,-0.174533,-0.660021,-0.80039,-0.164536,-0.172667,0.552233,-0.394868,-0.149953,-0.0279921
29,65,-0.654498,-0.814493,-0.174533,-0.174533,-0.660021,-0.80039,-0.164536,-0.172667,0.552233,-0.394868,-0.149953,-0.0279921
29,65,-0.654498,-0.814493,-0.174533,-0.174533,-0.660021,-0.80039,-0.164536,-0.172667,0.552233,-0.394868,-0.149953,-0.0279921
29,65,-0.654498,-0.814493,-0.174533,-0.174533,-0.660021,-0.80039,-0.164536,-0.172667,0.552233,-0.394868,-0.149953,-0.0279921
29,65,-0.654498,-0.814493,-0.174533,-0.174533,-0.660021,-0.80039,-0.164536,-0.172667,0.552233,-0.394868,-0.149953,-0.0279921
29,65,-0.654498,-0.814493,-0.174533,-0.174533,-0.660021,-0.80039,-0.164536,-0.172667,0.552233,-0.394868,-0.149953,-0.0279921
29,65,-0.654498,-0.814493,-0.174533,-0.174533,-0.660021,-0.80039,-0.164536,-0.172667,0.552233,-0.394868,-0.149953,-0.0279921
29,65,-0.654498,-0.814493,-0.174533,-0.174533,-0.660021,-0.80039,-0.164536,-0.172667,0.552233,-0.394868,-0.149953,-0.0279921
29,65,-0.654498,-0.814493,-0.174533,-0.174533,-0.660021,-0.80039,-0.164536,-0.172667,0.552233,-0.394868,-0.149953,-0.0279921
29,65,-0.654498,-0.814493,-0.174533,-0.174533,-0.660021,-0.80039,-0.164536,-0.172667,0.552233,-0.394868,-0.149953,-0.0279921
29,65,-0.654498,-0.814493,-0.174533,-0.174533,-0.660021,-0.80039,-0.164536,-0.172667,0.552233,-0.394868,-0.149953,-0.0279921
29,65,-0.654498,-0.814493,-0.174533,-0.174533,-0.660021,-0.80039,-0.164536,-0.172667,0.552233,-0.394868,-0.149953,-0.0279921
29,65,-0.654498,-0.814493,-0.174533,-0.174533,-0.660021,-0.80039,-0.164536,-0.172667,0.552233,-0.394868,-0.149953,-0.0279921
29,65,-0.654498,-0.814493,-0.174533,-0.174533,-0.660021,-0.80039,-0.164536,-0.172667,0.552233,-0.394868,-0.149953,-0.0279921
29,65,-0.654498,-0.814493,-0.174533,-0.174533,-0.660021,-0.80039,-0.164536,-0.172667,0.552233,-0.394868,-0.149953,-0.0279921
29,65,-0.654498,-0.814493,-0.174533,-0.174533,-0.660021,-0.80039,-0.164536,-0.172667,0.552233,-0.394868,-0.149953,-0.0279921
29,65,-0.654498,-0.814493,-0.174533,-0.174533,-0.660021,-0.80039,-0.164536,-0.172667,0.552233,-0.394868,-0.149953,-0.0279921
29,65,-0.654498,-0.814493,-0.174533,-0.174533,-0.660021,-0.80039,-0.164536,-0.172667,0.552233,-0.394868,-0.149953,-0.0279921
29,65,-0.654498,-0.814493,-0.174533,-0.174533,-0.660021,-0.80039,-0.164536,-0.172667,0.552233,-0.394868,-0.149953,-0.0279921
29,65,-0.654498,-0.814493,-0.174533,-0.174533,-0.660021,-0.80039,-0.164536,-0.172667,0.552233,-0.394868,-0.149953,-0.0279921
29,65,-0.654498,-0.814493,-0.174533,-0.174533,-0.660021,-0.80039,-0.164536,-0.172667,0.552233,-0.394868,-0.149953,-0.0279921
29,65,-0.654498,-0.814493,-0.174533,-0.174533,-0.660021,-0.80039,-0.164536,-0.172667,0.552233,-0.394868,-0.149953,-0.0279921
29,65,-0.654498,-0.814493,-0.174533,-0.174533,-0.660021,-0.80039,-0.164536,-0.172667,0.552233,-0.394868,-0.149953,-0.0279921
29,65,-0.654498,-0.814493,-0.174533,-0.174533,-0.660021,-0.80039,-0.164536,-0.172667,0.552233,-0.394868,-0.149953,-0.0279921
29,65,-0.654498,-0.814493,-0.174533,-0.174533,-0.660021,-0.80039,-0.164536,-0.172667,0.552233,-0.394868,-0.149953,-0.0279921
29,65,-0.654498,-0.814493,-0.174533,-0.174533,-0.660021,-0.80039,-0.164536,-0.172667,0.552233,-0.394868,-0.149953,-0.0279921
29,65,-0.654498,-0.814493,-0.174533,-0.174533,-0.660021,-0.80039,-0.164536,-0.172667,0.552233,-0.394868,-0.149953,-0.0279921
29,65,-0.654498,-0.814493,-0.174533,-0.174533,-0.660021,-0.80039,-0.164536,-0.172667,0.552233,-0.394868,-0.149953,-0.0279921
29,65,-0.654498,-0.814493,-0.174533,-0.174533,-0.660021,-0.80039,-0.164536,-0.172667,0.552233,-0.394868,-0.149953,-0.0279921
29,65,-0.654498,-0.814493,-0.174533,-0.174533,-0.660021,-0.80039,-0.164536,-0.172667,0.552233,-0.394868,-0.149953,-0.0279921
29,65,-0.654498,-0.814493,-0.174533,-0.174533,-0.660021,-0.80039,-0.164536,-0.172667,0.552233,-0.394868,-0.149953,-0.0279921
29,65,-0.654498,-0.814493,-0.174533,-0.174533,-0.660021,-0.80039,-0.164536,-0.172667,0.552233,-0.394868,-0.149953,-0.0279921
29,65,-0.654498,-0.814493,-0.174533,-0.174533,-0.660021,-0.80039,-0.164536,-0.172667,0.552233,-0.394868,-0.149953,-0.0279921
29,65,-0.654498,-0.814493,-0.174533,-0.174533,-0.660021,-0.80039,-0.164536,-0.172667,0.552233,-0.394868,-0.149953,-0.0279921
29,65,-0.654498,-0.814493,-0.174533,-0.174533,-0.660021,-0.80039,-0.164471,-0.172625,0.552233,-0.394868,-0.150926,-0.0286235
29,65,-0.654498,-0.814493,-0.174533,-0.174533,-0.660021,-0.80039,-0.164471,-0.172625,0.552233,-0.394868,-0.150926,-0.0286235
29,65,-0.654498,-0.814493,-0.174533,-0.174533,-0.660021,-0.80039,-0.164471,-0.172625,0.552233,-0.394868,-0.150926,-0.0286235
29,65,-0.654498,-0.814493,-0.174533,-0.174533,-0.660021,-0.80039,-0.164471,-0.172625,0.552233,-0.394868,-0.150926,-0.0286235
29,65,-0.654498,-0.814493,-0.174533,-0.174533,-0.660021,-0.80039,-0.164471,-0.172625,0.552233,-0.394868,-0.150926,-0.0286235
29,65,-0.654498,-0.814493,-0.174533,-0.174533,-0.660021,-0.80039,-0.164471,-0.172625,0.552233,-0.394868,-0.150926,-0.0286235
29,65,-0.654498,-0.814493,-0.174533,-0.174533,-0.660021,-0.80039,-0.164471,-0.172625,0.552233,-0.394868,-0.150926,-0.0286235
29,65,-0.654498,-0.814493,-0.174533,-0.174533,-0.660021,-0.80039,-0.164471,-0.172625,0.552233,-0.394868,-0.150926,-0.0286235
29,65,-0.654498,-0.814493,-0.174533,-0.174533,-0.660021,-0.80039,-0.164471,-0.172625,0.552233,-0.394868,-0.150926,-0.0286235
29,65,-0.654498,-0.814493,-0.174533,-0.174533,-0.660021,-0.80039,-0.164471,-0.172625,0.552233,-0.394868,-0.150926,-0.0286235
29,65,-0.654498,-0.814493,-0.174533,-0.174533,-0.660021,-0.80039,-0.164471,-0.172625,0.552233,-0.394868,-0.150926,-0.0286235
29,65,-0.654498,-0.814493,-0.174533,-0.174533,-0.660021,-0.80039,-0.164471,-0.172625,0.552233,-0.394868,-0.150926,-0.0286235
29,65,-0.654498,-0.814493,-0.174533,-0.174533,-0.660021,-0.80039,-0.164471,-0.172625,0.552233,-0.394868,-0.150926,-0.0286235
29,65,-0.654498,-0.814493,-0.174533,-0.174533,-0.660021,-0.800441,-0.164471,-0.172625,0.552233,-0.393445,-0.150926,-0.0286235
29,65,-0.654498,-0.814493,-0.174533,-0.174533,-0.660021,-0.800441,-0.164471,-0.172625,0.552233,-0.393445,-0.150926,-0.0286235
29,65,-0.654498,-0.814493,-0.174533,-0.174533,-0.660021,-0.800441,-0.164471,-0.172625,0.552233,-0.393445,-0.150926,-0.0286235
29,65,-0.654498,-0.814493,-0.174533,-0.174533,-0.660021,-0.800441,-0.164471,-0.172625,0.552233,-0.393445,-0.150926,-0.0286235
29,65,-0.654498,-0.814493,-0.174533,-0.174533,-0.660021,-0.800441,-0.164471,-0.172625,0.552233,-0.393445,-0.150926,-0.0286235
29,65,-0.654498,-0.814493,-0.174533,-0.174533,-0.660021,-0.800441,-0.164471,-0.172625,0.552233,-0.393445,-0.150926,-0.0286235
29,65,-0.654498,-0.814493,-0.174533,-0.174533,-0.660021,-0.800441,-0.164471,-0.172625,0.552233,-0.393445,-0.150926,-0.0286235
29,65,-0.654498,-0.814493,-0.174533,-0.174533,-0.660021,-0.800441,-0.164471,-0.172625,0.552233,-0.393445,-0.150926,-0.0286235
29,65,-0.654498,-0.814493,-0.174533,-0.174533,-0.660021,-0.800441,-0.164471,-0.172625,0.552233,-0.393445,-0.150926,-0.0286235
29,65,-0.654498,-0.814493,-0.174533,-0.174533,-0.660021,-0.800441,-0.164471,-0.172625,0.552233,-0.393445,-0.150926,-0.0286235
29,65,-0.654498,-0.814493,-0.174533,-0.174533,-0.660021,-0.800441,-0.164471,-0.172625,0.552233,-0.393445,-0.150926,-0.0286235
29,65,-0.654498,-0.814493,-0.174533,-0.174533,-0.660021,-0.800441,-0.164471,-0.172625,0.552233,-0.393445,-0.150926,-0.0286235
29,65,-0.654498,-0.814493,-0.174533,-0.174533,-0.660021,-0.800441,-0.164471,-0.172625,0.552233,-0.393445,-0.150926,-0.0286235
29,65,-0.654498,-0.814493,-0.174533,-0.174533,-0.660021,-0.800441,-0.164471,-0.172625,0.552233,-0.393445,-0.150926,-0.0286235
29,65,-0.654498,-0.814493,-0.174533,-0.174533,-0.660021,-0.800441,-0.164471,-0.172625,0.552233,-0.393445,-0.150926,-0.0286235
29,65,-0.654498,-0.814493,-0.174533,-0.174533,-0.660021,-0.800441,-0.164471,-0.172625,0.552233,-0.393445,-0.150926,-0.0286235
29,65,-0.654498,-0.814493,-0.174533,-0.174533,-0.660021,-0.800441,-0.164471,-0.172625,0.552233,-0.393445,-0.150926,-0.0286235
29,65,-0.654498,-0.814493,-0.174533,-0.174533,-0.660021,-0.800441,-0.164471,-0.172625,0.552233,-0.393445,-0.150926,-0.0286235
29,65,-0.654498,-0.814493,-0.174533,-0.174533,-0.660021,-0.800441,-0.164471,-0.172625,0.552233,-0.393445,-0.150926,-0.0286235
29,65,-0.654498,-0.814493,-0.174533,-0.174533,-0.660021,-0.800441,-0.164471,-0.172625,0.552233,-0.393445,-0.150926,-0.0286235
29,65,-0.654498,-0.814493,-0.174533,-0.174533,-0.660021,-0.800441,-0.164471,-0.172625,0.552233,-0.393445,-0.150926,-0.0286235
29,65,-0.654498,-0.814493,-0.174533,-0.174533,-0.660021,-0.800441,-0.164471,-0.172625,0.552233,-0.393445,-0.150926,-0.0286235
29,65,-0.654498,-0.814493,-0.174533,-0.174533,-0.660021,-0.800441,-0.164471,-0.172625,0.552233,-0.393445,-0.150926,-0.0286235
29,65,-0.654498,-0.814493,-0.174533,-0.174533,-0.660021,-0.800441,-0.164471,-0.172625,0.552233,-0.393445,-0.150926,-0.0286235
29,65,-0.654498,-0.814493,-0.174533,-0.174533,-0.660021,-0.800441,-0.164471,-0.172625,0.552233,-0.393445,-0.150926,-0.0286235
29,65,-0.654498,-0.814493,-0.174533,-0.174533,-0.660021,-0.800441,-0.164471,-0.172625,0.552233,-0.393445,-0.150926,-0.0286235
29,65,-0.654498,-0.814493,-0.174533,-0.174533,-0.660021,-0.800441,-0.164471,-0.172625,0.552233,-0.393445,-0.150926,-0.0286235
29,65,-0.654498,-0.814493,-0.174533,-0.174533,-0.660021,-0.800441,-0.164471,-0.172625,0.552233,-0.393445,-0.150926,-0.0286235
29,65,-0.654498,-0.814493,-0.174533,-0.174533,-0.660021,-0.800441,-0.164471,-0.172625,0.552233,-0.393445,-0.150926,-0.0286235
29,65,-0.654498,-0.814493,-0.174533,-0.174533,-0.660021,-0.800441,-0.164471,-0.172625,0.552233,-0.393445,-0.150926,-0.0286235
29,65,-0.654498,-0.814493,-0.174533,-0.174533,-0.660021,-0.800441,-0.164471,-0.172625,0.552233,-0.393445,-0.150926,-0.0286235
29,65,-0.654498,-0.814493,-0.174533,-0.174533,-0.660021,-0.800441,-0.164471,-0.172625,0.552233,-0.393445,-0.150926,-0.0286235
29,65,-0.654498,-0.814493,-0.174533,-0.174533,-0.660021,-0.800441,-0.164471,-0.172625,0.552233,-0.393445,-0.150926,-0.0286235
29,65,-0.654498,-0.814493,-0.174533,-0.174533,-0.660021,-0.800441,-0.164471,-0.172625,0.552233,-0.393445,-0.150926,-0.0286235
29,65,-0.654498,-0.814493,-0.174533,-0.174533,-0.660021,-0.800441,-0.164471,-0.172625,0.552233,-0.393445,-0.150926,-0.0286235
29,65,-0.654498,-0.814493,-0.174533,-0.174533,-0.660021,-0.800441,-0.164471,-0.172625,0.552233,-0.393445,-0.150926,-0.0286235
29,65,-0.654498,-0.814493,-0.174533,-0.174533,-0.660021,-0.800441,-0.164471,-0.172625,0.552233,-0.393445,-0.150926,-0.0286235
29,65,-0.654498,-0.814493,-0.174533,-0.174533,-0.660021,-0.800441,-0.164471,-0.172625,0.552233,-0.393445,-0.150926,-0.0286235
29,65,-0.654498,-0.814493,-0.174533,-0.174533,-0.660021,-0.800441,-0.164471,-0.172625,0.552233,-0.393445,-0.150926,-0.0286235
29,65,-0.654498,-0.814493,-0.174533,-0.174533,-0.660021,-0.800441,-0.164471,-0.172625,0.552233,-0.393445,-0.150926,-0.0286235
29,65,-0.654498,-0.814493,-0.174533,-0.174533,-0.660021,-0.800441,-0.164471,-0.172625,0.552233,-0.393445,-0.150926,-0.0286235
29,65,-0.654498,-0.814493,-0.174533,-0.174533,-0.660021,-0.800441,-0.164471,-0.172625,0.552233,-0.393445,-0.150926,-0.0286235
29,65,-0.654498,-0.814493,-0.174533,-0.174533,-0.660021,-0.800441,-0.164471,-0.172625,0.552233,-0.393445,-0.150926,-0.0286235
29,65,-0.654498,-0.814493,-0.174533,-0.174533,-0.660021,-0.800441,-0.164471,-0.172625,0.552233,-0.393445,-0.150926,-0.0286235
29,65,-0.654498,-0.814493,-0.174533,-0.174533,-0.660021,-0.800441,-0.164471,-0.172625,0.552233,-0.393445,-0.150926,-0.0286235
29,65,-0.654498,-0.814493,-0.174533,-0.174533,-0.660021,-0.800441,-0.164471,-0.172625,0.552233,-0.393445,-0.150926,-0.0286235
29,65,-0.654498,-0.814493,-0.174533,-0.174533,-0.660021,-0.800441,-0.164471,-0.172625,0.552233,-0.393445,-0.150926,-0.0286235
29,65,-0.654498,-0.814493,-0.174533,-0.174533,-0.660021,-0.800441,-0.164471,-0.172625,0.552233,-0.393445,-0.150926,-0.0286235
29,65,-0.654498,-0.814493,-0.174533,-0.174533,-0.660021,-0.800441,-0.164471,-0.172625,0.552233,-0.393445,-0.150926,-0.0286235
29,65,-0.654498,-0.814493,-0.174533,-0.174533,-0.660021,-0.800441,-0.164471,-0.172625,0.552233,-0.393445,-0.150926,-0.0286235
29,65,-0.654498,-0.814493,-0.174533,-0.174533,-0.660021,-0.800441,-0.164471,-0.172625,0.552233,-0.393445,-0.150926,-0.0286235
29,65,-0.654498,-0.814493,-0.174533,-0.174533,-0.660021,-0.800441,-0.164471,-0.172625,0.552233,-0.393445,-0.150926,-0.0286235
29,65,-0.654498,-0.814493,-0.174533,-0.174533,-0.660021,-0.800441,-0.164471,-0.172625,0.552233,-0.393445,-0.150926,-0.0286235
29,65,-0.654498,-0.814493,-0.174533,-0.174533,-0.660021,-0.800441,-0.164471,-0.172625,0.552233,-0.393445,-0.150926,-0.0286235
29,65,-0.654498,-0.814493,-0.174533,-0.174533,-0.660021,-0.800441,-0.164471,-0.172625,0.552233,-0.393445,-0.150926,-0.0286235
29,65,-0.654498,-0.814493,-0.174533,-0.174533,-0.660021,-0.800441,-0.164471,-0.172625,0.552233,-0.393445,-0.150926,-0.0286235
29,65,-0.654498,-0.814493,-0.174533,-0.174533,-0.660021,-0.800441,-0.164471,-0.172625,0.552233,-0.393445,-0.150926,-0.0286235
29,65,-0.654498,-0.814493,-0.174533,-0.174533,-0.660021,-0.800441,-0.164471,-0.172625,0.552233,-0.393445,-0.150926,-0.0286235
29,65,-0.654498,-0.814493,-0.174533,-0.174533,-0.660021,-0.800441,-0.164471,-0.172625,0.552233,-0.393445,-0.150926,-0.0286235
29,65,-0.654498,-0.814493,-0.174533,-0.174533,-0.660021,-0.800441,-0.164471,-0.172625,0.552233,-0.393445,-0.150926,-0.0286235
29,65,-0.654498,-0.814493,-0.174533,-0.174533,-0.660021,-0.800441,-0.164471,-0.172625,0.552233,-0.393445,-0.150926,-0.0286235
29,65,-0.654498,-0.814493,-0.174533,-0.174533,-0.660021,-0.800441,-0.164471,-0.172625,0.552233,-0.393445,-0.150926,-0.0286235
29,65,-0.654498,-0.814493,-0.174533,-0.174533,-0.660021,-0.800441,-0.164471,-0.172625,0.552233,-0.393445,-0.150926,-0.0286235
29,65,-0.654498,-0.814493,-0.174533,-0.174533,-0.660021,-0.800441,-0.164471,-0.172625,0.552233,-0.393445,-0.150926,-0.0286235
29,65,-0.654498,-0.814493,-0.174533,-0.174533,-0.660021,-0.800441,-0.164471,-0.172625,0.552233,-0.393445,-0.150926,-0.0286235
29,65,-0.654498,-0.814493,-0.174533,-0.174533,-0.660021,-0.800441,-0.164471,-0.172625,0.552233,-0.393445,-0.150926,-0.0286235
29,65,-0.654498,-0.814493,-0.174533,-0.174533,-0.660021,-0.800441,-0.164471,-0.172625,0.552233,-0.393445,-0.150926,-0.0286235
29,65,-0.654498,-0.814493,-0.174533,-0.174533,-0.660021,-0.800441,-0.164471,-0.172625,0.552233,-0.393445,-0.150926,-0.0286235
29,65,-0.654498,-0.814493,-0.174533,-0.174533,-0.660021,-0.800441,-0.164471,-0.172625,0.552233,-0.393445,-0.150926,-0.0286235
29,65,-0.654498,-0.814493,-0.174533,-0.174533,-0.660021,-0.800441,-0.164471,-0.172625,0.552233,-0.393445,-0.150926,-0.0286235
29,65,-0.654498,-0.814493,-0.174533,-0.174533,-0.660021,-0.800441,-0.164406,-0.172583,0.552233,-0.393445,-0.151898,-0.0292549
