stim_pw [us],stim_amp [mA],com_elbow_fe [rad],com_forearm_ps [rad],com_wrist_fe [rad],com_wrist_ru [rad],act_elbow_fe [rad],act_forearm_ps [rad],act_wrist_fe [rad],act_wrist_ru [rad],elbow_fe_trq [Nm],forearm_ps_trq [Nm],wrist_fe_trq [Nm],wrist_ru_trq [Nm]
23,45,-1.0472,-0.698132,-0.174533,-0.174533,-1.03828,-0.681066,-0.134294,-0.182304,-0.891754,-0.477827,-0.603534,0.116603
23,45,-1.0472,-0.698132,-0.174533,-0.174533,-1.03828,-0.681066,-0.134294,-0.182304,-0.891754,-0.477827,-0.603534,0.116603
23,45,-1.0472,-0.698132,-0.174533,-0.174533,-1.03828,-0.681066,-0.134294,-0.182304,-0.891754,-0.477827,-0.603534,0.116603
23,45,-1.0472,-0.698132,-0.174533,-0.174533,-1.03828,-0.681066,-0.134294,-0.182304,-0.891754,-0.477827,-0.603534,0.116603
23,45,-1.0472,-0.698132,-0.174533,-0.174533,-1.03828,-0.681066,-0.134358,-0.182345,-0.891754,-0.477827,-0.602569,0.11722
23,45,-1.0472,-0.698132,-0.174533,-0.174533,-1.03828,-0.681066,-0.134358,-0.182345,-0.891754,-0.477827,-0.602569,0.11722
23,45,-1.0472,-0.698132,-0.174533,-0.174533,-1.03828,-0.681066,-0.134358,-0.182345,-0.891754,-0.477827,-0.602569,0.11722
23,45,-1.0472,-0.698132,-0.174533,-0.174533,-1.03828,-0.681066,-0.134358,-0.182345,-0.891754,-0.477827,-0.602569,0.11722
23,45,-1.0472,-0.698132,-0.174533,-0.174533,-1.03828,-0.681066,-0.134358,-0.182345,-0.891754,-0.477827,-0.602569,0.11722
23,45,-1.0472,-0.698132,-0.174533,-0.174533,-1.03828,-0.681066,-0.134421,-0.182386,-0.891754,-0.477827,-0.6016,0.117839
23,45,-1.0472,-0.698132,-0.174533,-0.174533,-1.03828,-0.681066,-0.134421,-0.182386,-0.891754,-0.477827,-0.6016,0.117839
23,45,-1.0472,-0.698132,-0.174533,-0.174533,-1.03828,-0.681066,-0.134361,-0.182406,-0.891754,-0.477827,-0.602505,0.118141
23,45,-1.0472,-0.698132,-0.174533,-0.174533,-1.03828,-0.681066,-0.134361,-0.182406,-0.891754,-0.477827,-0.602505,0.118141
23,45,-1.0472,-0.698132,-0.174533,-0.174533,-1.03828,-0.681066,-0.134361,-0.182406,-0.891754,-0.477827,-0.602505,0.118141
23,45,-1.0472,-0.698132,-0.174533,-0.174533,-1.03828,-0.681066,-0.134361,-0.182406,-0.891754,-0.477827,-0.602505,0.118141
23,45,-1.0472,-0.698132,-0.174533,-0.174533,-1.03828,-0.681066,-0.134361,-0.182406,-0.891754,-0.477827,-0.602505,0.118141
23,45,-1.0472,-0.698132,-0.174533,-0.174533,-1.03828,-0.681066,-0.134425,-0.182447,-0.891754,-0.477827,-0.60153,0.118764
23,45,-1.0472,-0.698132,-0.174533,-0.174533,-1.03828,-0.681066,-0.134365,-0.182467,-0.891754,-0.477827,-0.602436,0.119065
23,45,-1.0472,-0.698132,-0.174533,-0.174533,-1.03828,-0.681066,-0.134365,-0.182467,-0.891754,-0.477827,-0.602436,0.119065
23,45,-1.0472,-0.698132,-0.174533,-0.174533,-1.03828,-0.681066,-0.134365,-0.182467,-0.891754,-0.477827,-0.602436,0.119065
23,45,-1.0472,-0.698132,-0.174533,-0.174533,-1.03828,-0.681066,-0.134365,-0.182467,-0.891754,-0.477827,-0.602436,0.119065
23,45,-1.0472,-0.698132,-0.174533,-0.174533,-1.03828,-0.681066,-0.134365,-0.182467,-0.891754,-0.477827,-0.602436,0.119065
23,45,-1.0472,-0.698132,-0.174533,-0.174533,-1.03828,-0.681066,-0.134429,-0.182508,-0.891754,-0.477827,-0.601467,0.119684
23,45,-1.0472,-0.698132,-0.174533,-0.174533,-1.03828,-0.681066,-0.134429,-0.182508,-0.891754,-0.477827,-0.601467,0.119684
23,45,-1.0472,-0.698132,-0.174533,-0.174533,-1.03828,-0.681066,-0.134429,-0.182508,-0.891754,-0.477827,-0.601467,0.119684
23,45,-1.0472,-0.698132,-0.174533,-0.174533,-1.03828,-0.681066,-0.134368,-0.182528,-0.891754,-0.477827,-0.602417,0.120001
23,45,-1.0472,-0.698132,-0.174533,-0.174533,-1.03828,-0.681066,-0.134368,-0.182528,-0.891754,-0.477827,-0.602417,0.120001
23,45,-1.0472,-0.698132,-0.174533,-0.174533,-1.03828,-0.681066,-0.134368,-0.182528,-0.891754,-0.477827,-0.602417,0.120001
23,45,-1.0472,-0.698132,-0.174533,-0.174533,-1.03828,-0.681066,-0.134432,-0.182569,-0.891754,-0.477827,-0.601449,0.120619
23,45,-1.0472,-0.698132,-0.174533,-0.174533,-1.03828,-0.681066,-0.134432,-0.182569,-0.891754,-0.477827,-0.601449,0.120619
23,45,-1.0472,-0.698132,-0.174533,-0.174533,-1.03828,-0.681066,-0.134432,-0.182569,-0.891754,-0.477827,-0.601449,0.120619
23,45,-1.0472,-0.698132,-0.174533,-0.174533,-1.03828,-0.681066,-0.134372,-0.182589,-0.891754,-0.477827,-0.602382,0.12093
23,45,-1.0472,-0.698132,-0.174533,-0.174533,-1.03828,-0.681066,-0.134372,-0.182589,-0.891754,-0.477827,-0.602382,0.12093
23,45,-1.0472,-0.698132,-0.174533,-0.174533,-1.03828,-0.681066,-0.134372,-0.182589,-0.891754,-0.477827,-0.602382,0.12093
23,45,-1.0472,-0.698132,-0.174533,-0.174533,-1.03828,-0.681066,-0.134436,-0.18263,-0.891754,-0.477827,-0.601428,0.12154
23,45,-1.0472,-0.698132,-0.174533,-0.174533,-1.03828,-0.681066,-0.134436,-0.18263,-0.891754,-0.477827,-0.601428,0.12154
23,45,-1.0472,-0.698132,-0.174533,-0.174533,-1.03828,-0.681066,-0.134436,-0.18263,-0.891754,-0.477827,-0.601428,0.12154
23,45,-1.0472,-0.698132,-0.174533,-0.174533,-1.03828,-0.681066,-0.134375,-0.18265,-0.891754,-0.477827,-0.602354,0.121848
23,45,-1.0472,-0.698132,-0.174533,-0.174533,-1.03828,-0.681066,-0.134375,-0.18265,-0.891754,-0.477827,-0.602354,0.121848
23,45,-1.0472,-0.698132,-0.174533,-0.174533,-1.03828,-0.681066,-0.134375,-0.18265,-0.891754,-0.477827,-0.602354,0.121848
23,45,-1.0472,-0.698132,-0.174533,-0.174533,-1.03828,-0.681066,-0.134439,-0.182691,-0.891754,-0.477827,-0.601389,0.122464
23,45,-1.0472,-0.698132,-0.174533,-0.174533,-1.03828,-0.681066,-0.134379,-0.182711,-0.891754,-0.477827,-0.602305,0.122769
23,45,-1.0472,-0.698132,-0.174533,-0.174533,-1.03828,-0.681066,-0.134379,-0.182711,-0.891754,-0.477827,-0.602305,0.122769
23,45,-1.0472,-0.698132,-0.174533,-0.174533,-1.03828,-0.681066,-0.134379,-0.182711,-0.891754,-0.477827,-0.602305,0.122769
23,45,-1.0472,-0.698132,-0.174533,-0.174533,-1.03828,-0.681066,-0.134379,-0.182711,-0.891754,-0.477827,-0.602305,0.122769
23,45,-1.0472,-0.698132,-0.174533,-0.174533,-1.03828,-0.681066,-0.134319,-0.182731,-0.891754,-0.477827,-0.603233,0.123079
23,45,-1.0472,-0.698132,-0.174533,-0.174533,-1.03828,-0.681066,-0.134319,-0.182731,-0.891754,-0.477827,-0.603233,0.123079
23,45,-1.0472,-0.698132,-0.174533,-0.174533,-1.03828,-0.681066,-0.134383,-0.182772,-0.891754,-0.477827,-0.602275,0.123691
23,45,-1.0472,-0.698132,-0.174533,-0.174533,-1.03828,-0.681066,-0.134383,-0.182772,-0.891754,-0.477827,-0.602275,0.123691
23,45,-1.0472,-0.698132,-0.174533,-0.174533,-1.03828,-0.681066,-0.134322,-0.182792,-0.891754,-0.477827,-0.603197,0.123998
23,45,-1.0472,-0.698132,-0.174533,-0.174533,-1.03828,-0.681066,-0.134322,-0.182792,-0.891754,-0.477827,-0.603197,0.123998
23,45,-1.0472,-0.698132,-0.174533,-0.174533,-1.03828,-0.681066,-0.134322,-0.182792,-0.891754,-0.477827,-0.603197,0.123998
23,45,-1.0472,-0.698132,-0.174533,-0.174533,-1.03828,-0.681066,-0.134262,-0.182812,-0.891754,-0.477827,-0.604122,0.124306
23,45,-1.0472,-0.698132,-0.174533,-0.174533,-1.03828,-0.681066,-0.134262,-0.182812,-0.891754,-0.477827,-0.604122,0.124306
23,45,-1.0472,-0.698132,-0.174533,-0.174533,-1.03828,-0.681066,-0.134262,-0.182812,-0.891754,-0.477827,-0.604122,0.124306
23,45,-1.0472,-0.698132,-0.174533,-0.174533,-1.03828,-0.681066,-0.134265,-0.182873,-0.891754,-0.477827,-0.604089,0.125218
23,45,-1.0472,-0.698132,-0.174533,-0.174533,-1.03828,-0.681066,-0.134265,-0.182873,-0.891754,-0.477827,-0.604089,0.125218
23,45,-1.0472,-0.698132,-0.174533,-0.174533,-1.03828,-0.681066,-0.134265,-0.182873,-0.891754,-0.477827,-0.604089,0.125218
23,45,-1.0472,-0.698132,-0.174533,-0.174533,-1.03828,-0.681066,-0.134205,-0.182893,-0.891754,-0.477827,-0.605005,0.125523
23,45,-1.0472,-0.698132,-0.174533,-0.174533,-1.03828,-0.681066,-0.134205,-0.182893,-0.891754,-0.477827,-0.605005,0.125523
23,45,-1.0472,-0.698132,-0.174533,-0.174533,-1.03828,-0.681066,-0.134205,-0.182893,-0.891754,-0.477827,-0.605005,0.125523
23,45,-1.0472,-0.698132,-0.174533,-0.174533,-1.03828,-0.681066,-0.134208,-0.182954,-0.891754,-0.477827,-0.604969,0.126445
23,45,-1.0472,-0.698132,-0.174533,-0.174533,-1.03828,-0.681066,-0.134208,-0.182954,-0.891754,-0.477827,-0.604969,0.126445
23,45,-1.0472,-0.698132,-0.174533,-0.174533,-1.03828,-0.681066,-0.134208,-0.182954,-0.891754,-0.477827,-0.604969,0.126445
23,45,-1.0472,-0.698132,-0.174533,-0.174533,-1.03828,-0.681066,-0.134208,-0.182954,-0.891754,-0.477827,-0.604969,0.126445
23,45,-1.0472,-0.698132,-0.174533,-0.174533,-1.03828,-0.681066,-0.134148,-0.182974,-0.891754,-0.477827,-0.605866,0.126743
23,45,-1.0472,-0.698132,-0.174533,-0.174533,-1.03828,-0.681066,-0.134148,-0.182974,-0.891754,-0.477827,-0.605866,0.126743
23,45,-1.0472,-0.698132,-0.174533,-0.174533,-1.03828,-0.681066,-0.134148,-0.182974,-0.891754,-0.477827,-0.605866,0.126743
23,45,-1.0472,-0.698132,-0.174533,-0.174533,-1.03828,-0.681066,-0.134088,-0.182994,-0.891754,-0.477827,-0.60676,0.127041
23,45,-1.0472,-0.698132,-0.174533,-0.174533,-1.03828,-0.681066,-0.134088,-0.182994,-0.891754,-0.477827,-0.60676,0.127041
23,45,-1.0472,-0.698132,-0.174533,-0.174533,-1.03828,-0.681066,-0.134088,-0.182994,-0.891754,-0.477827,-0.60676,0.127041
23,45,-1.0472,-0.698132,-0.174533,-0.174533,-1.03828,-0.681066,-0.134088,-0.182994,-0.891754,-0.477827,-0.60676,0.127041
23,45,-1.0472,-0.698132,-0.174533,-0.174533,-1.03828,-0.681066,-0.134088,-0.182994,-0.891754,-0.477827,-0.60676,0.127041
23,45,-1.0472,-0.698132,-0.174533,-0.174533,-1.03828,-0.681066,-0.134027,-0.183014,-0.891754,-0.477827,-0.607651,0.127338
23,45,-1.0472,-0.698132,-0.174533,-0.174533,-1.03828,-0.681066,-0.134091,-0.183055,-0.891754,-0.477827,-0.606713,0.127936
23,45,-1.0472,-0.698132,-0.174533,-0.174533,-1.03828,-0.681066,-0.134091,-0.183055,-0.891754,-0.477827,-0.606713,0.127936
23,45,-1.0472,-0.698132,-0.174533,-0.174533,-1.03828,-0.681066,-0.134091,-0.183055,-0.891754,-0.477827,-0.606713,0.127936
23,45,-1.0472,-0.698132,-0.174533,-0.174533,-1.03828,-0.681066,-0.134091,-0.183055,-0.891754,-0.477827,-0.606713,0.127936
23,45,-1.0472,-0.698132,-0.174533,-0.174533,-1.03828,-0.681066,-0.134091,-0.183055,-0.891754,-0.477827,-0.606713,0.127936
23,45,-1.0472,-0.698132,-0.174533,-0.174533,-1.03828,-0.681066,-0.134031,-0.183075,-0.891754,-0.477827,-0.607588,0.128228
23,45,-1.0472,-0.698132,-0.174533,-0.174533,-1.03828,-0.681066,-0.134031,-0.183075,-0.891754,-0.477827,-0.607588,0.128228
23,45,-1.0472,-0.698132,-0.174533,-0.174533,-1.03828,-0.681066,-0.134031,-0.183075,-0.891754,-0.477827,-0.607588,0.128228
23,45,-1.0472,-0.698132,-0.174533,-0.174533,-1.03828,-0.681066,-0.134031,-0.183075,-0.891754,-0.477827,-0.607588,0.128228
23,45,-1.0472,-0.698132,-0.174533,-0.174533,-1.03828,-0.681066,-0.134031,-0.183075,-0.891754,-0.477827,-0.607588,0.128228
23,45,-1.0472,-0.698132,-0.174533,-0.174533,-1.03828,-0.681066,-0.134034,-0.183136,-0.891754,-0.477827,-0.607539,0.129137
23,45,-1.0472,-0.698132,-0.174533,-0.174533,-1.03828,-0.681066,-0.134034,-0.183136,-0.891754,-0.477827,-0.607539,0.129137
23,45,-1.0472,-0.698132,-0.174533,-0.174533,-1.03828,-0.681066,-0.134034,-0.183136,-0.891754,-0.477827,-0.607539,0.129137
23,45,-1.0472,-0.698132,-0.174533,-0.174533,-1.03828,-0.681066,-0.134034,-0.183136,-0.891754,-0.477827,-0.607539,0.129137
23,45,-1.0472,-0.698132,-0.174533,-0.174533,-1.03828,-0.681066,-0.133974,-0.183156,-0.891754,-0.477827,-0.608441,0.129437
23,45,-1.0472,-0.698132,-0.174533,-0.174533,-1.03828,-0.681066,-0.133974,-0.183156,-0.891754,-0.477827,-0.608441,0.129437
23,45,-1.0472,-0.698132,-0.174533,-0.174533,-1.03828,-0.681066,-0.133974,-0.183156,-0.891754,-0.477827,-0.608441,0.129437
23,45,-1.0472,-0.698132,-0.174533,-0.174533,-1.03828,-0.681066,-0.133974,-0.183156,-0.891754,-0.477827,-0.608441,0.129437
23,45,-1.0472,-0.698132,-0.174533,-0.174533,-1.03828,-0.681066,-0.133974,-0.183156,-0.891754,-0.477827,-0.608441,0.129437
23,45,-1.0472,-0.698132,-0.174533,-0.174533,-1.03828,-0.681066,-0.133914,-0.183177,-0.891754,-0.477827,-0.609345,0.129738
23,45,-1.0472,-0.698132,-0.174533,-0.174533,-1.03828,-0.681066,-0.133914,-0.183177,-0.891754,-0.477827,-0.609345,0.129738
23,45,-1.0472,-0.698132,-0.174533,-0.174533,-1.03828,-0.681066,-0.133978,-0.183217,-0.891754,-0.477827,-0.608391,0.130347
23,45,-1.0472,-0.698132,-0.174533,-0.174533,-1.03828,-0.681016,-0.133978,-0.183217,-0.891754,-0.47925,-0.608391,0.130347
23,45,-1.0472,-0.698132,-0.174533,-0.174533,-1.03828,-0.681016,-0.133978,-0.183217,-0.891754,-0.47925,-0.608391,0.130347
23,45,-1.0472,-0.698132,-0.174533,-0.174533,-1.03828,-0.681016,-0.133978,-0.183217,-0.891754,-0.47925,-0.608391,0.130347
23,45,-1.0472,-0.698132,-0.174533,-0.174533,-1.03828,-0.681016,-0.133917,-0.183237,-0.891754,-0.47925,-0.609298,0.130649
23,45,-1.0472,-0.698132,-0.174533,-0.174533,-1.03828,-0.681016,-0.133917,-0.183237,-0.891754,-0.47925,-0.609298,0.130649
23,45,-1.0472,-0.698132,-0.174533,-0.174533,-1.03828,-0.681016,-0.133917,-0.183237,-0.891754,-0.47925,-0.609298,0.130649
23,45,-1.0472,-0.698132,-0.174533,-0.174533,-1.03828,-0.681016,-0.133917,-0.183237,-0.891754,-0.47925,-0.609298,0.130649
23,45,-1.0472,-0.698132,-0.174533,-0.174533,-1.03828,-0.681016,-0.133917,-0.183237,-0.891754,-0.47925,-0.609298,0.130649
23,45,-1.0472,-0.698132,-0.174533,-0.174533,-1.03828,-0.681016,-0.133917,-0.183237,-0.891754,-0.47925,-0.609298,0.130649
23,45,-1.0472,-0.698132,-0.174533,-0.174533,-1.03828,-0.681016,-0.133921,-0.183298,-0.891754,-0.47925,-0.609241,0.131557
23,45,-1.0472,-0.698132,-0.174533,-0.174533,-1.03828,-0.681016,-0.133921,-0.183298,-0.891754,-0.47925,-0.609241,0.131557
23,45,-1.0472,-0.698132,-0.174533,-0.174533,-1.03828,-0.681016,-0.133921,-0.183298,-0.891754,-0.47925,-0.609241,0.131557
23,45,-1.0472,-0.698132,-0.174533,-0.174533,-1.03828,-0.681016,-0.133921,-0.183298,-0.891754,-0.47925,-0.609241,0.131557
23,45,-1.0472,-0.698132,-0.174533,-0.174533,-1.03828,-0.681016,-0.13386,-0.183319,-0.891754,-0.47925,-0.61015,0.13186
23,45,-1.0472,-0.698132,-0.174533,-0.174533,-1.03828,-0.681016,-0.13386,-0.183319,-0.891754,-0.47925,-0.61015,0.13186
23,45,-1.0472,-0.698132,-0.174533,-0.174533,-1.03828,-0.681016,-0.133924,-0.183359,-0.891754,-0.47925,-0.609179,0.13248
23,45,-1.0472,-0.698132,-0.174533,-0.174533,-1.03828,-0.681016,-0.133924,-0.183359,-0.891754,-0.47925,-0.609179,0.13248
23,45,-1.0472,-0.698132,-0.174533,-0.174533,-1.03828,-0.681016,-0.133864,-0.18338,-0.891754,-0.47925,-0.610088,0.132782
23,45,-1.0472,-0.698132,-0.174533,-0.174533,-1.03828,-0.681016,-0.133864,-0.18338,-0.891754,-0.47925,-0.610088,0.132782
23,45,-1.0472,-0.698132,-0.174533,-0.174533,-1.03828,-0.681016,-0.133864,-0.18338,-0.891754,-0.47925,-0.610088,0.132782
23,45,-1.0472,-0.698132,-0.174533,-0.174533,-1.03828,-0.681016,-0.133864,-0.18338,-0.891754,-0.47925,-0.610088,0.132782
23,45,-1.0472,-0.698132,-0.174533,-0.174533,-1.03828,-0.681016,-0.133864,-0.18338,-0.891754,-0.47925,-0.610088,0.132782
23,45,-1.0472,-0.698132,-0.174533,-0.174533,-1.03828,-0.681016,-0.133864,-0.18338,-0.891754,-0.47925,-0.610088,0.132782
23,45,-1.0472,-0.698132,-0.174533,-0.174533,-1.03828,-0.681016,-0.133803,-0.1834,-0.891754,-0.47925,-0.610997,0.133085
23,45,-1.0472,-0.698132,-0.174533,-0.174533,-1.03828,-0.681016,-0.133803,-0.1834,-0.891754,-0.47925,-0.610997,0.133085
23,45,-1.0472,-0.698132,-0.174533,-0.174533,-1.03828,-0.681016,-0.133803,-0.1834,-0.891754,-0.47925,-0.610997,0.133085
23,45,-1.0472,-0.698132,-0.174533,-0.174533,-1.03828,-0.681016,-0.133803,-0.1834,-0.891754,-0.47925,-0.610997,0.133085
23,45,-1.0472,-0.698132,-0.174533,-0.174533,-1.03828,-0.681016,-0.133803,-0.1834,-0.891754,-0.47925,-0.610997,0.133085
23,45,-1.0472,-0.698132,-0.174533,-0.174533,-1.03828,-0.681016,-0.133743,-0.18342,-0.891754,-0.47925,-0.611905,0.133387
23,45,-1.0472,-0.698132,-0.174533,-0.174533,-1.03828,-0.681016,-0.133743,-0.18342,-0.891754,-0.47925,-0.611905,0.133387
23,45,-1.0472,-0.698132,-0.174533,-0.174533,-1.03828,-0.681016,-0.133807,-0.183461,-0.891754,-0.47925,-0.610952,0.133995
23,45,-1.0472,-0.698132,-0.174533,-0.174533,-1.03828,-0.681016,-0.133807,-0.183461,-0.891754,-0.47925,-0.610952,0.133995
23,45,-1.0472,-0.698132,-0.174533,-0.174533,-1.03828,-0.681016,-0.133807,-0.183461,-0.891754,-0.47925,-0.610952,0.133995
23,45,-1.0472,-0.698132,-0.174533,-0.174533,-1.03828,-0.681016,-0.133746,-0.183481,-0.891754,-0.47925,-0.611854,0.134295
23,45,-1.0472,-0.698132,-0.174533,-0.174533,-1.03828,-0.681016,-0.133746,-0.183481,-0.891754,-0.47925,-0.611854,0.134295
23,45,-1.0472,-0.698132,-0.174533,-0.174533,-1.03828,-0.681016,-0.133746,-0.183481,-0.891754,-0.47925,-0.611854,0.134295
23,45,-1.0472,-0.698132,-0.174533,-0.174533,-1.03828,-0.681016,-0.133686,-0.183501,-0.891754,-0.47925,-0.612767,0.134599
23,45,-1.0472,-0.698132,-0.174533,-0.174533,-1.03828,-0.681016,-0.133686,-0.183501,-0.891754,-0.47925,-0.612767,0.134599
23,45,-1.0472,-0.698132,-0.174533,-0.174533,-1.03828,-0.681016,-0.133686,-0.183501,-0.891754,-0.47925,-0.612767,0.134599
23,45,-1.0472,-0.698132,-0.174533,-0.174533,-1.03828,-0.681016,-0.133686,-0.183501,-0.891754,-0.47925,-0.612767,0.134599
23,45,-1.0472,-0.698132,-0.174533,-0.174533,-1.03828,-0.681016,-0.133686,-0.183501,-0.891754,-0.47925,-0.612767,0.134599
23,45,-1.0472,-0.698132,-0.174533,-0.174533,-1.03828,-0.681016,-0.133626,-0.183521,-0.891754,-0.47925,-0.613679,0.134903
23,45,-1.0472,-0.698132,-0.174533,-0.174533,-1.03828,-0.681016,-0.133626,-0.183521,-0.891754,-0.47925,-0.613679,0.134903
23,45,-1.0472,-0.698132,-0.174533,-0.174533,-1.03828,-0.681016,-0.133626,-0.183521,-0.891754,-0.47925,-0.613679,0.134903
23,45,-1.0472,-0.698132,-0.174533,-0.174533,-1.03828,-0.681016,-0.13369,-0.183562,-0.891754,-0.47925,-0.612724,0.135513
23,45,-1.0472,-0.698132,-0.174533,-0.174533,-1.03828,-0.681016,-0.13369,-0.183562,-0.891754,-0.47925,-0.612724,0.135513
23,45,-1.0472,-0.698132,-0.174533,-0.174533,-1.03828,-0.681016,-0.13369,-0.183562,-0.891754,-0.47925,-0.612724,0.135513
23,45,-1.0472,-0.698132,-0.174533,-0.174533,-1.03828,-0.681016,-0.13369,-0.183562,-0.891754,-0.47925,-0.612724,0.135513
23,45,-1.0472,-0.698132,-0.174533,-0.174533,-1.03828,-0.681016,-0.133629,-0.183582,-0.891754,-0.47925,-0.613625,0.135813
23,45,-1.0472,-0.698132,-0.174533,-0.174533,-1.03828,-0.681016,-0.133629,-0.183582,-0.891754,-0.47925,-0.613625,0.135813
23,45,-1.0472,-0.698132,-0.174533,-0.174533,-1.03828,-0.681016,-0.133629,-0.183582,-0.891754,-0.47925,-0.613625,0.135813
23,45,-1.0472,-0.698132,-0.174533,-0.174533,-1.03828,-0.681016,-0.133629,-0.183582,-0.891754,-0.47925,-0.613625,0.135813
23,45,-1.0472,-0.698132,-0.174533,-0.174533,-1.03828,-0.681016,-0.133629,-0.183582,-0.891754,-0.47925,-0.613625,0.135813
23,45,-1.0472,-0.698132,-0.174533,-0.174533,-1.03828,-0.681016,-0.133629,-0.183582,-0.891754,-0.47925,-0.613625,0.135813
23,45,-1.0472,-0.698132,-0.174533,-0.174533,-1.03828,-0.681016,-0.133629,-0.183582,-0.891754,-0.47925,-0.613625,0.135813
23,45,-1.0472,-0.698132,-0.174533,-0.174533,-1.03828,-0.681016,-0.133629,-0.183582,-0.891754,-0.47925,-0.613625,0.135813
23,45,-1.0472,-0.698132,-0.174533,-0.174533,-1.03828,-0.681016,-0.133629,-0.183582,-0.891754,-0.47925,-0.613625,0.135813
23,45,-1.0472,-0.698132,-0.174533,-0.174533,-1.03828,-0.681016,-0.133629,-0.183582,-0.891754,-0.47925,-0.613625,0.135813
23,45,-1.0472,-0.698132,-0.174533,-0.174533,-1.03828,-0.681016,-0.133633,-0.183643,-0.891754,-0.47925,-0.613547,0.136714
23,45,-1.0472,-0.698132,-0.174533,-0.174533,-1.03828,-0.681016,-0.133633,-0.183643,-0.891754,-0.47925,-0.613547,0.136714
23,45,-1.0472,-0.698132,-0.174533,-0.174533,-1.03828,-0.681016,-0.133633,-0.183643,-0.891754,-0.47925,-0.613547,0.136714
23,45,-1.0472,-0.698132,-0.174533,-0.174533,-1.03828,-0.681016,-0.133633,-0.183643,-0.891754,-0.47925,-0.613547,0.136714
23,45,-1.0472,-0.698132,-0.174533,-0.174533,-1.03828,-0.681016,-0.133633,-0.183643,-0.891754,-0.47925,-0.613547,0.136714
23,45,-1.0472,-0.698132,-0.174533,-0.174533,-1.03828,-0.681016,-0.133633,-0.183643,-0.891754,-0.47925,-0.613547,0.136714
23,45,-1.0472,-0.698132,-0.174533,-0.174533,-1.03828,-0.681016,-0.133633,-0.183643,-0.891754,-0.47925,-0.613547,0.136714
23,45,-1.0472,-0.698132,-0.174533,-0.174533,-1.03828,-0.681016,-0.133572,-0.183663,-0.891754,-0.47925,-0.614443,0.137013
23,45,-1.0472,-0.698132,-0.174533,-0.174533,-1.03828,-0.681016,-0.133572,-0.183663,-0.891754,-0.47925,-0.614443,0.137013
23,45,-1.0472,-0.698132,-0.174533,-0.174533,-1.03828,-0.681016,-0.133636,-0.183704,-0.891754,-0.47925,-0.613486,0.137623
23,45,-1.0472,-0.698132,-0.174533,-0.174533,-1.03828,-0.681016,-0.133636,-0.183704,-0.891754,-0.47925,-0.613486,0.137623
23,45,-1.0472,-0.698132,-0.174533,-0.174533,-1.03828,-0.681016,-0.133636,-0.183704,-0.891754,-0.47925,-0.613486,0.137623
23,45,-1.0472,-0.698132,-0.174533,-0.174533,-1.03828,-0.681016,-0.133636,-0.183704,-0.891754,-0.47925,-0.613486,0.137623
23,45,-1.0472,-0.698132,-0.174533,-0.174533,-1.03828,-0.681016,-0.133636,-0.183704,-0.891754,-0.47925,-0.613486,0.137623
23,45,-1.0472,-0.698132,-0.174533,-0.174533,-1.03828,-0.681016,-0.133636,-0.183704,-0.891754,-0.47925,-0.613486,0.137623
23,45,-1.0472,-0.698132,-0.174533,-0.174533,-1.03828,-0.681016,-0.133636,-0.183704,-0.891754,-0.47925,-0.613486,0.137623
23,45,-1.0472,-0.698132,-0.174533,-0.174533,-1.03828,-0.681016,-0.133636,-0.183704,-0.891754,-0.47925,-0.613486,0.137623
23,45,-1.0472,-0.698132,-0.174533,-0.174533,-1.03828,-0.681016,-0.133576,-0.183724,-0.891754,-0.47925,-0.614378,0.13792
23,45,-1.0472,-0.698132,-0.174533,-0.174533,-1.03828,-0.681016,-0.133576,-0.183724,-0.891754,-0.47925,-0.614378,0.13792
23,45,-1.0472,-0.698132,-0.174533,-0.174533,-1.03828,-0.681016,-0.133576,-0.183724,-0.891754,-0.47925,-0.614378,0.13792
23,45,-1.0472,-0.698132,-0.174533,-0.174533,-1.03828,-0.681016,-0.133576,-0.183724,-0.891754,-0.47925,-0.614378,0.13792
23,45,-1.0472,-0.698132,-0.174533,-0.174533,-1.03828,-0.681016,-0.133576,-0.183724,-0.891754,-0.47925,-0.614378,0.13792
23,45,-1.0472,-0.698132,-0.174533,-0.174533,-1.03828,-0.681016,-0.133576,-0.183724,-0.891754,-0.47925,-0.614378,0.13792
23,45,-1.0472,-0.698132,-0.174533,-0.174533,-1.03828,-0.681016,-0.133576,-0.183724,-0.891754,-0.47925,-0.614378,0.13792
23,45,-1.0472,-0.698132,-0.174533,-0.174533,-1.03828,-0.681016,-0.133515,-0.183744,-0.891754,-0.47925,-0.615285,0.138222
23,45,-1.0472,-0.698132,-0.174533,-0.174533,-1.03828,-0.681016,-0.133515,-0.183744,-0.891754,-0.47925,-0.615285,0.138222
23,45,-1.0472,-0.698132,-0.174533,-0.174533,-1.03828,-0.681016,-0.133579,-0.183785,-0.891754,-0.47925,-0.614327,0.138833
23,45,-1.0472,-0.698132,-0.174533,-0.174533,-1.03828,-0.681016,-0.133579,-0.183785,-0.891754,-0.47925,-0.614327,0.138833
23,45,-1.0472,-0.698132,-0.174533,-0.174533,-1.03828,-0.681016,-0.133519,-0.183805,-0.891754,-0.47925,-0.615249,0.13914
23,45,-1.0472,-0.698132,-0.174533,-0.174533,-1.03828,-0.681016,-0.133519,-0.183805,-0.891754,-0.47925,-0.615249,0.13914
23,45,-1.0472,-0.698132,-0.174533,-0.174533,-1.03828,-0.681016,-0.133519,-0.183805,-0.891754,-0.47925,-0.615249,0.13914
23,45,-1.0472,-0.698132,-0.174533,-0.174533,-1.03828,-0.681016,-0.133519,-0.183805,-0.891754,-0.47925,-0.615249,0.13914
23,45,-1.0472,-0.698132,-0.174533,-0.174533,-1.03828,-0.681016,-0.133458,-0.183825,-0.891754,-0.47925,-0.616168,0.139446
23,45,-1.0472,-0.698132,-0.174533,-0.174533,-1.03828,-0.681016,-0.133458,-0.183825,-0.891754,-0.47925,-0.616168,0.139446
23,45,-1.0472,-0.698132,-0.174533,-0.174533,-1.03828,-0.681016,-0.133458,-0.183825,-0.891754,-0.47925,-0.616168,0.139446
23,45,-1.0472,-0.698132,-0.174533,-0.174533,-1.03828,-0.681016,-0.133398,-0.183845,-0.891754,-0.47925,-0.617113,0.13976
23,45,-1.0472,-0.698132,-0.174533,-0.174533,-1.03828,-0.681016,-0.133462,-0.183886,-0.891754,-0.47925,-0.616148,0.140375
23,45,-1.0472,-0.698132,-0.174533,-0.174533,-1.03828,-0.681016,-0.133462,-0.183886,-0.891754,-0.47925,-0.616148,0.140375
23,45,-1.0472,-0.698132,-0.174533,-0.174533,-1.03828,-0.681016,-0.133462,-0.183886,-0.891754,-0.47925,-0.616148,0.140375
23,45,-1.0472,-0.698132,-0.174533,-0.174533,-1.03828,-0.681016,-0.133402,-0.183906,-0.891754,-0.47925,-0.617082,0.140686
23,45,-1.0472,-0.698132,-0.174533,-0.174533,-1.03828,-0.681016,-0.133402,-0.183906,-0.891754,-0.47925,-0.617082,0.140686
23,45,-1.0472,-0.698132,-0.174533,-0.174533,-1.03828,-0.681016,-0.133402,-0.183906,-0.891754,-0.47925,-0.617082,0.140686
23,45,-1.0472,-0.698132,-0.174533,-0.174533,-1.03828,-0.681016,-0.133341,-0.183926,-0.891754,-0.47925,-0.618004,0.140993
23,45,-1.0472,-0.698132,-0.174533,-0.174533,-1.03828,-0.681016,-0.133341,-0.183926,-0.891754,-0.47925,-0.618004,0.140993
23,45,-1.0472,-0.698132,-0.174533,-0.174533,-1.03828,-0.681016,-0.133341,-0.183926,-0.891754,-0.47925,-0.618004,0.140993
23,45,-1.0472,-0.698132,-0.174533,-0.174533,-1.03828,-0.681016,-0.133281,-0.183946,-0.891754,-0.47925,-0.618919,0.141297
23,45,-1.0472,-0.698132,-0.174533,-0.174533,-1.03828,-0.681016,-0.133345,-0.183987,-0.891754,-0.47925,-0.617955,0.141912
23,45,-1.0472,-0.698132,-0.174533,-0.174533,-1.03828,-0.681016,-0.133284,-0.184007,-0.891754,-0.47925,-0.618884,0.142222
23,45,-1.0472,-0.698132,-0.174533,-0.174533,-1.03828,-0.681016,-0.133284,-0.184007,-0.891754,-0.47925,-0.618884,0.142222
23,45,-1.0472,-0.698132,-0.174533,-0.174533,-1.03828,-0.681016,-0.133224,-0.184028,-0.891754,-0.47925,-0.619813,0.14253
23,45,-1.0472,-0.698132,-0.174533,-0.174533,-1.03828,-0.681016,-0.133224,-0.184028,-0.891754,-0.47925,-0.619813,0.14253
23,45,-1.0472,-0.698132,-0.174533,-0.174533,-1.03828,-0.681016,-0.133224,-0.184028,-0.891754,-0.47925,-0.619813,0.14253
23,45,-1.0472,-0.698132,-0.174533,-0.174533,-1.03828,-0.681016,-0.133224,-0.184028,-0.891754,-0.47925,-0.619813,0.14253
23,45,-1.0472,-0.698132,-0.174533,-0.174533,-1.03828,-0.681016,-0.133163,-0.184048,-0.891754,-0.47925,-0.62072,0.142832
23,45,-1.0472,-0.698132,-0.174533,-0.174533,-1.03828,-0.681016,-0.133163,-0.184048,-0.891754,-0.47925,-0.62072,0.142832
23,45,-1.0472,-0.698132,-0.174533,-0.174533,-1.03828,-0.681016,-0.133163,-0.184048,-0.891754,-0.47925,-0.62072,0.142832
23,45,-1.0472,-0.698132,-0.174533,-0.174533,-1.03828,-0.681016,-0.133103,-0.184068,-0.891754,-0.47925,-0.621621,0.143132
23,45,-1.0472,-0.698132,-0.174533,-0.174533,-1.03828,-0.681016,-0.133103,-0.184068,-0.891754,-0.47925,-0.621621,0.143132
23,45,-1.0472,-0.698132,-0.174533,-0.174533,-1.03828,-0.681016,-0.133106,-0.184129,-0.891754,-0.47925,-0.621565,0.144042
23,45,-1.0472,-0.698132,-0.174533,-0.174533,-1.03828,-0.681016,-0.133106,-0.184129,-0.891754,-0.47925,-0.621565,0.144042
23,45,-1.0472,-0.698132,-0.174533,-0.174533,-1.03828,-0.681016,-0.133046,-0.184149,-0.891754,-0.47925,-0.622474,0.144345
23,45,-1.0472,-0.698132,-0.174533,-0.174533,-1.03828,-0.681016,-0.133046,-0.184149,-0.891754,-0.47925,-0.622474,0.144345
23,45,-1.0472,-0.698132,-0.174533,-0.174533,-1.03828,-0.681016,-0.133046,-0.184149,-0.891754,-0.47925,-0.622474,0.144345
23,45,-1.0472,-0.698132,-0.174533,-0.174533,-1.03828,-0.681016,-0.133046,-0.184149,-0.891754,-0.47925,-0.622474,0.144345
23,45,-1.0472,-0.698132,-0.174533,-0.174533,-1.03828,-0.681016,-0.132985,-0.184169,-0.891754,-0.47925,-0.623379,0.144646
23,45,-1.0472,-0.698132,-0.174533,-0.174533,-1.03828,-0.681016,-0.132985,-0.184169,-0.891754,-0.47925,-0.623379,0.144646
23,45,-1.0472,-0.698132,-0.174533,-0.174533,-1.03828,-0.681016,-0.132985,-0.184169,-0.891754,-0.47925,-0.623379,0.144646
23,45,-1.0472,-0.698132,-0.174533,-0.174533,-1.03828,-0.681016,-0.132985,-0.184169,-0.891754,-0.47925,-0.623379,0.144646
23,45,-1.0472,-0.698132,-0.174533,-0.174533,-1.03828,-0.681016,-0.132985,-0.184169,-0.891754,-0.47925,-0.623379,0.144646
23,45,-1.0472,-0.698132,-0.174533,-0.174533,-1.03828,-0.681016,-0.132925,-0.184189,-0.891754,-0.47925,-0.624244,0.144933
23,45,-1.0472,-0.698132,-0.174533,-0.174533,-1.03828,-0.681016,-0.132925,-0.184189,-0.891754,-0.47925,-0.624244,0.144933
23,45,-1.0472,-0.698132,-0.174533,-0.174533,-1.03828,-0.681016,-0.132925,-0.184189,-0.891754,-0.47925,-0.624244,0.144933
23,45,-1.0472,-0.698132,-0.174533,-0.174533,-1.03828,-0.681016,-0.132989,-0.18423,-0.891754,-0.47925,-0.62328,0.145548
23,45,-1.0472,-0.698132,-0.174533,-0.174533,-1.03828,-0.681016,-0.132989,-0.18423,-0.891754,-0.47925,-0.62328,0.145548
23,45,-1.0472,-0.698132,-0.174533,-0.174533,-1.03828,-0.681016,-0.132989,-0.18423,-0.891754,-0.47925,-0.62328,0.145548
23,45,-1.0472,-0.698132,-0.174533,-0.174533,-1.03828,-0.681016,-0.132989,-0.18423,-0.891754,-0.47925,-0.62328,0.145548
23,45,-1.0472,-0.698132,-0.174533,-0.174533,-1.03828,-0.681016,-0.132989,-0.18423,-0.891754,-0.47925,-0.62328,0.145548
23,45,-1.0472,-0.698132,-0.174533,-0.174533,-1.03828,-0.681016,-0.132928,-0.18425,-0.891754,-0.47925,-0.624138,0.145833
23,45,-1.0472,-0.698132,-0.174533,-0.174533,-1.03828,-0.681016,-0.132928,-0.18425,-0.891754,-0.47925,-0.624138,0.145833
23,45,-1.0472,-0.698132,-0.174533,-0.174533,-1.03828,-0.681016,-0.132928,-0.18425,-0.891754,-0.47925,-0.624138,0.145833
23,45,-1.0472,-0.698132,-0.174533,-0.174533,-1.03828,-0.681016,-0.132928,-0.18425,-0.891754,-0.47925,-0.624138,0.145833
23,45,-1.0472,-0.698132,-0.174533,-0.174533,-1.03828,-0.681016,-0.132992,-0.184291,-0.891754,-0.47925,-0.623176,0.146446
23,45,-1.0472,-0.698132,-0.174533,-0.174533,-1.03828,-0.681016,-0.132992,-0.184291,-0.891754,-0.47925,-0.623176,0.146446
23,45,-1.0472,-0.698132,-0.174533,-0.174533,-1.03828,-0.681016,-0.132992,-0.184291,-0.891754,-0.47925,-0.623176,0.146446
23,45,-1.0472,-0.698132,-0.174533,-0.174533,-1.03828,-0.681016,-0.132992,-0.184291,-0.891754,-0.47925,-0.623176,0.146446
23,45,-1.0472,-0.698132,-0.174533,-0.174533,-1.03828,-0.681016,-0.132992,-0.184291,-0.891754,-0.47925,-0.623176,0.146446
23,45,-1.0472,-0.698132,-0.174533,-0.174533,-1.03828,-0.681016,-0.132992,-0.184291,-0.891754,-0.47925,-0.623176,0.146446
23,45,-1.0472,-0.698132,-0.174533,-0.174533,-1.03828,-0.681016,-0.132932,-0.184311,-0.891754,-0.47925,-0.62405,0.146737
23,45,-1.0472,-0.698132,-0.174533,-0.174533,-1.03828,-0.681016,-0.132932,-0.184311,-0.891754,-0.47925,-0.62405,0.146737
23,45,-1.0472,-0.698132,-0.174533,-0.174533,-1.03828,-0.681016,-0.132932,-0.184311,-0.891754,-0.47925,-0.62405,0.146737
23,45,-1.0472,-0.698132,-0.174533,-0.174533,-1.03828,-0.681016,-0.132932,-0.184311,-0.891754,-0.47925,-0.62405,0.146737
23,45,-1.0472,-0.698132,-0.174533,-0.174533,-1.03828,-0.681016,-0.132932,-0.184311,-0.891754,-0.47925,-0.62405,0.146737
23,45,-1.0472,-0.698132,-0.174533,-0.174533,-1.03828,-0.681016,-0.132932,-0.184311,-0.891754,-0.47925,-0.62405,0.146737
23,45,-1.0472,-0.698132,-0.174533,-0.174533,-1.03828,-0.681016,-0.132932,-0.184311,-0.891754,-0.47925,-0.62405,0.146737
23,45,-1.0472,-0.698132,-0.174533,-0.174533,-1.03828,-0.681016,-0.132932,-0.184311,-0.891754,-0.47925,-0.62405,0.146737
23,45,-1.0472,-0.698132,-0.174533,-0.174533,-1.03828,-0.681016,-0.132932,-0.184311,-0.891754,-0.47925,-0.62405,0.146737
23,45,-1.0472,-0.698132,-0.174533,-0.174533,-1.03828,-0.681016,-0.132932,-0.184311,-0.891754,-0.47925,-0.62405,0.146737
23,45,-1.0472,-0.698132,-0.174533,-0.174533,-1.03828,-0.681016,-0.132932,-0.184311,-0.891754,-0.47925,-0.62405,0.146737
23,45,-1.0472,-0.698132,-0.174533,-0.174533,-1.03828,-0.681016,-0.132932,-0.184311,-0.891754,-0.47925,-0.62405,0.146737
23,45,-1.0472,-0.698132,-0.174533,-0.174533,-1.03828,-0.681016,-0.132996,-0.184352,-0.891754,-0.47925,-0.623098,0.147344
23,45,-1.0472,-0.698132,-0.174533,-0.174533,-1.03828,-0.681016,-0.132996,-0.184352,-0.891754,-0.47925,-0.623098,0.147344
23,45,-1.0472,-0.698132,-0.174533,-0.174533,-1.03828,-0.681016,-0.132996,-0.184352,-0.891754,-0.47925,-0.623098,0.147344
23,45,-1.0472,-0.698132,-0.174533,-0.174533,-1.03828,-0.681016,-0.132935,-0.184372,-0.891754,-0.47925,-0.623977,0.147636
23,45,-1.0472,-0.698132,-0.174533,-0.174533,-1.03828,-0.681016,-0.132935,-0.184372,-0.891754,-0.47925,-0.623977,0.147636
23,45,-1.0472,-0.698132,-0.174533,-0.174533,-1.03828,-0.681016,-0.132935,-0.184372,-0.891754,-0.47925,-0.623977,0.147636
23,45,-1.0472,-0.698132,-0.174533,-0.174533,-1.03828,-0.681016,-0.132935,-0.184372,-0.891754,-0.47925,-0.623977,0.147636
23,45,-1.0472,-0.698132,-0.174533,-0.174533,-1.03828,-0.681016,-0.132935,-0.184372,-0.891754,-0.47925,-0.623977,0.147636
23,45,-1.0472,-0.698132,-0.174533,-0.174533,-1.03828,-0.681016,-0.132935,-0.184372,-0.891754,-0.47925,-0.623977,0.147636
23,45,-1.0472,-0.698132,-0.174533,-0.174533,-1.03828,-0.681016,-0.132935,-0.184372,-0.891754,-0.47925,-0.623977,0.147636
23,45,-1.0472,-0.698132,-0.174533,-0.174533,-1.03828,-0.681016,-0.132935,-0.184372,-0.891754,-0.47925,-0.623977,0.147636
23,45,-1.0472,-0.698132,-0.174533,-0.174533,-1.03828,-0.681016,-0.132935,-0.184372,-0.891754,-0.47925,-0.623977,0.147636
23,45,-1.0472,-0.698132,-0.174533,-0.174533,-1.03828,-0.681016,-0.132935,-0.184372,-0.891754,-0.47925,-0.623977,0.147636
23,45,-1.0472,-0.698132,-0.174533,-0.174533,-1.03828,-0.681016,-0.132935,-0.184372,-0.891754,-0.47925,-0.623977,0.147636
23,45,-1.0472,-0.698132,-0.174533,-0.174533,-1.03828,-0.681016,-0.132999,-0.184413,-0.891754,-0.47925,-0.623018,0.148248
23,45,-1.0472,-0.698132,-0.174533,-0.174533,-1.03828,-0.681016,-0.132999,-0.184413,-0.891754,-0.47925,-0.623018,0.148248
23,45,-1.0472,-0.698132,-0.174533,-0.174533,-1.03828,-0.681016,-0.132999,-0.184413,-0.891754,-0.47925,-0.623018,0.148248
23,45,-1.0472,-0.698132,-0.174533,-0.174533,-1.03828,-0.681016,-0.132999,-0.184413,-0.891754,-0.47925,-0.623018,0.148248
23,45,-1.0472,-0.698132,-0.174533,-0.174533,-1.03828,-0.681016,-0.132939,-0.184433,-0.891754,-0.47925,-0.623915,0.148546
23,45,-1.0472,-0.698132,-0.174533,-0.174533,-1.03828,-0.681016,-0.132939,-0.184433,-0.891754,-0.47925,-0.623915,0.148546
23,45,-1.0472,-0.698132,-0.174533,-0.174533,-1.03828,-0.681016,-0.132939,-0.184433,-0.891754,-0.47925,-0.623915,0.148546
23,45,-1.0472,-0.698132,-0.174533,-0.174533,-1.03828,-0.681016,-0.132939,-0.184433,-0.891754,-0.47925,-0.623915,0.148546
23,45,-1.0472,-0.698132,-0.174533,-0.174533,-1.03828,-0.681016,-0.132939,-0.184433,-0.891754,-0.47925,-0.623915,0.148546
23,45,-1.0472,-0.698132,-0.174533,-0.174533,-1.03828,-0.681016,-0.132939,-0.184433,-0.891754,-0.47925,-0.623915,0.148546
23,45,-1.0472,-0.698132,-0.174533,-0.174533,-1.03828,-0.681016,-0.132939,-0.184433,-0.891754,-0.47925,-0.623915,0.148546
23,45,-1.0472,-0.698132,-0.174533,-0.174533,-1.03828,-0.681016,-0.132939,-0.184433,-0.891754,-0.47925,-0.623915,0.148546
23,45,-1.0472,-0.698132,-0.174533,-0.174533,-1.03828,-0.681016,-0.132939,-0.184433,-0.891754,-0.47925,-0.623915,0.148546
23,45,-1.0472,-0.698132,-0.174533,-0.174533,-1.03828,-0.681016,-0.132939,-0.184433,-0.891754,-0.47925,-0.623915,0.148546
23,45,-1.0472,-0.698132,-0.174533,-0.174533,-1.03828,-0.681016,-0.132939,-0.184433,-0.891754,-0.47925,-0.623915,0.148546
23,45,-1.0472,-0.698132,-0.174533,-0.174533,-1.03828,-0.681016,-0.133003,-0.184474,-0.891754,-0.47925,-0.622955,0.149158
23,45,-1.0472,-0.698132,-0.174533,-0.174533,-1.03828,-0.681016,-0.133003,-0.184474,-0.891754,-0.47925,-0.622955,0.149158
23,45,-1.0472,-0.698132,-0.174533,-0.174533,-1.03828,-0.681016,-0.133003,-0.184474,-0.891754,-0.47925,-0.622955,0.149158
23,45,-1.0472,-0.698132,-0.174533,-0.174533,-1.03828,-0.681016,-0.133003,-0.184474,-0.891754,-0.47925,-0.622955,0.149158
23,45,-1.0472,-0.698132,-0.174533,-0.174533,-1.03828,-0.681016,-0.133003,-0.184474,-0.891754,-0.47925,-0.622955,0.149158
23,45,-1.0472,-0.698132,-0.174533,-0.174533,-1.03828,-0.681016,-0.133003,-0.184474,-0.891754,-0.47925,-0.622955,0.149158
23,45,-1.0472,-0.698132,-0.174533,-0.174533,-1.03828,-0.681016,-0.133003,-0.184474,-0.891754,-0.47925,-0.622955,0.149158
23,45,-1.0472,-0.698132,-0.174533,-0.174533,-1.03828,-0.681016,-0.133003,-0.184474,-0.891754,-0.47925,-0.622955,0.149158
23,45,-1.0472,-0.698132,-0.174533,-0.174533,-1.03828,-0.681016,-0.133007,-0.184535,-0.891754,-0.47925,-0.62289,0.150071
23,45,-1.0472,-0.698132,-0.174533,-0.174533,-1.03828,-0.681016,-0.133007,-0.184535,-0.891754,-0.47925,-0.62289,0.150071
23,45,-1.0472,-0.698132,-0.174533,-0.174533,-1.03828,-0.681016,-0.133007,-0.184535,-0.891754,-0.47925,-0.62289,0.150071
23,45,-1.0472,-0.698132,-0.174533,-0.174533,-1.03828,-0.681016,-0.133007,-0.184535,-0.891754,-0.47925,-0.62289,0.150071
23,45,-1.0472,-0.698132,-0.174533,-0.174533,-1.03828,-0.681016,-0.133007,-0.184535,-0.891754,-0.47925,-0.62289,0.150071
23,45,-1.0472,-0.698132,-0.174533,-0.174533,-1.03828,-0.681016,-0.133007,-0.184535,-0.891754,-0.47925,-0.62289,0.150071
23,45,-1.0472,-0.698132,-0.174533,-0.174533,-1.03828,-0.681016,-0.133071,-0.184575,-0.891754,-0.47925,-0.621919,0.15069
23,45,-1.0472,-0.698132,-0.174533,-0.174533,-1.03828,-0.681016,-0.133071,-0.184575,-0.891754,-0.47925,-0.621919,0.15069
23,45,-1.0472,-0.698132,-0.174533,-0.174533,-1.03828,-0.681016,-0.13301,-0.184596,-0.891754,-0.47925,-0.622826,0.150991
23,45,-1.0472,-0.698132,-0.174533,-0.174533,-1.03828,-0.681016,-0.13301,-0.184596,-0.891754,-0.47925,-0.622826,0.150991
23,45,-1.0472,-0.698132,-0.174533,-0.174533,-1.03828,-0.681016,-0.13301,-0.184596,-0.891754,-0.47925,-0.622826,0.150991
23,45,-1.0472,-0.698132,-0.174533,-0.174533,-1.03828,-0.681016,-0.13301,-0.184596,-0.891754,-0.47925,-0.622826,0.150991
23,45,-1.0472,-0.698132,-0.174533,-0.174533,-1.03828,-0.681016,-0.13301,-0.184596,-0.891754,-0.47925,-0.622826,0.150991
23,45,-1.0472,-0.698132,-0.174533,-0.174533,-1.03828,-0.681016,-0.13301,-0.184596,-0.891754,-0.47925,-0.622826,0.150991
23,45,-1.0472,-0.698132,-0.174533,-0.174533,-1.03828,-0.681016,-0.13301,-0.184596,-0.891754,-0.47925,-0.622826,0.150991
23,45,-1.0472,-0.698132,-0.174533,-0.174533,-1.03828,-0.681016,-0.13301,-0.184596,-0.891754,-0.47925,-0.622826,0.150991
23,45,-1.0472,-0.698132,-0.174533,-0.174533,-1.03828,-0.681016,-0.13301,-0.184596,-0.891754,-0.47925,-0.622826,0.150991
23,45,-1.0472,-0.698132,-0.174533,-0.174533,-1.03828,-0.681016,-0.13301,-0.184596,-0.891754,-0.47925,-0.622826,0.150991
23,45,-1.0472,-0.698132,-0.174533,-0.174533,-1.03828,-0.681016,-0.13301,-0.184596,-0.891754,-0.47925,-0.622826,0.150991
23,45,-1.0472,-0.698132,-0.174533,-0.174533,-1.03828,-0.681016,-0.13301,-0.184596,-0.891754,-0.47925,-0.622826,0.150991
23,45,-1.0472,-0.698132,-0.174533,-0.174533,-1.03828,-0.681016,-0.13301,-0.184596,-0.891754,-0.47925,-0.622826,0.150991
23,45,-1.0472,-0.698132,-0.174533,-0.174533,-1.03828,-0.681016,-0.13301,-0.184596,-0.891754,-0.47925,-0.622826,0.150991
23,45,-1.0472,-0.698132,-0.174533,-0.174533,-1.03828,-0.681016,-0.13295,-0.184616,-0.891754,-0.47925,-0.623734,0.151294
23,45,-1.0472,-0.698132,-0.174533,-0.174533,-1.03828,-0.681016,-0.13295,-0.184616,-0.891754,-0.47925,-0.623734,0.151294
23,45,-1.0472,-0.698132,-0.174533,-0.174533,-1.03828,-0.681016,-0.13295,-0.184616,-0.891754,-0.47925,-0.623734,0.151294
23,45,-1.0472,-0.698132,-0.174533,-0.174533,-1.03828,-0.681016,-0.13295,-0.184616,-0.891754,-0.47925,-0.623734,0.151294
23,45,-1.0472,-0.698132,-0.174533,-0.174533,-1.03828,-0.681016,-0.133014,-0.184657,-0.891754,-0.47925,-0.62278,0.151902
23,45,-1.0472,-0.698132,-0.174533,-0.174533,-1.03828,-0.681016,-0.133014,-0.184657,-0.891754,-0.47925,-0.62278,0.151902
23,45,-1.0472,-0.698132,-0.174533,-0.174533,-1.03828,-0.681016,-0.133014,-0.184657,-0.891754,-0.47925,-0.62278,0.151902
23,45,-1.0472,-0.698132,-0.174533,-0.174533,-1.03828,-0.681016,-0.132953,-0.184677,-0.891754,-0.47925,-0.623694,0.152205
23,45,-1.0472,-0.698132,-0.174533,-0.174533,-1.03828,-0.681016,-0.132953,-0.184677,-0.891754,-0.47925,-0.623694,0.152205
23,45,-1.0472,-0.698132,-0.174533,-0.174533,-1.03828,-0.681016,-0.132953,-0.184677,-0.891754,-0.47925,-0.623694,0.152205
23,45,-1.0472,-0.698132,-0.174533,-0.174533,-1.03828,-0.681016,-0.132953,-0.184677,-0.891754,-0.47925,-0.623694,0.152205
23,45,-1.0472,-0.698132,-0.174533,-0.174533,-1.03828,-0.681016,-0.132953,-0.184677,-0.891754,-0.47925,-0.623694,0.152205
23,45,-1.0472,-0.698132,-0.174533,-0.174533,-1.03828,-0.681016,-0.132953,-0.184677,-0.891754,-0.47925,-0.623694,0.152205
23,45,-1.0472,-0.698132,-0.174533,-0.174533,-1.03828,-0.681016,-0.132953,-0.184677,-0.891754,-0.47925,-0.623694,0.152205
23,45,-1.0472,-0.698132,-0.174533,-0.174533,-1.03828,-0.681016,-0.132893,-0.184697,-0.891754,-0.47925,-0.624614,0.152511
23,45,-1.0472,-0.698132,-0.174533,-0.174533,-1.03828,-0.681016,-0.132893,-0.184697,-0.891754,-0.47925,-0.624614,0.152511
23,45,-1.0472,-0.698132,-0.174533,-0.174533,-1.03828,-0.681016,-0.132893,-0.184697,-0.891754,-0.47925,-0.624614,0.152511
23,45,-1.0472,-0.698132,-0.174533,-0.174533,-1.03828,-0.681016,-0.132893,-0.184697,-0.891754,-0.47925,-0.624614,0.152511
23,45,-1.0472,-0.698132,-0.174533,-0.174533,-1.03828,-0.681016,-0.132832,-0.184717,-0.891754,-0.47925,-0.625536,0.152818
23,45,-1.0472,-0.698132,-0.174533,-0.174533,-1.03828,-0.681016,-0.132832,-0.184717,-0.891754,-0.47925,-0.625536,0.152818
23,45,-1.0472,-0.698132,-0.174533,-0.174533,-1.03828,-0.681016,-0.132832,-0.184717,-0.891754,-0.47925,-0.625536,0.152818
23,45,-1.0472,-0.698132,-0.174533,-0.174533,-1.03828,-0.681016,-0.132832,-0.184717,-0.891754,-0.47925,-0.625536,0.152818
23,45,-1.0472,-0.698132,-0.174533,-0.174533,-1.03828,-0.681016,-0.132896,-0.184758,-0.891754,-0.47925,-0.624578,0.153428
23,45,-1.0472,-0.698132,-0.174533,-0.174533,-1.03828,-0.681016,-0.132896,-0.184758,-0.891754,-0.47925,-0.624578,0.153428
23,45,-1.0472,-0.698132,-0.174533,-0.174533,-1.03828,-0.681016,-0.132896,-0.184758,-0.891754,-0.47925,-0.624578,0.153428
23,45,-1.0472,-0.698132,-0.174533,-0.174533,-1.03828,-0.681016,-0.132896,-0.184758,-0.891754,-0.47925,-0.624578,0.153428
23,45,-1.0472,-0.698132,-0.174533,-0.174533,-1.03828,-0.681016,-0.132896,-0.184758,-0.891754,-0.47925,-0.624578,0.153428
23,45,-1.0472,-0.698132,-0.174533,-0.174533,-1.03828,-0.681016,-0.132836,-0.184778,-0.891754,-0.47925,-0.625507,0.153737
23,45,-1.0472,-0.698132,-0.174533,-0.174533,-1.03828,-0.681016,-0.132836,-0.184778,-0.891754,-0.47925,-0.625507,0.153737
23,45,-1.0472,-0.698132,-0.174533,-0.174533,-1.03828,-0.681016,-0.132836,-0.184778,-0.891754,-0.47925,-0.625507,0.153737
23,45,-1.0472,-0.698132,-0.174533,-0.174533,-1.03828,-0.681016,-0.132836,-0.184778,-0.891754,-0.47925,-0.625507,0.153737
23,45,-1.0472,-0.698132,-0.174533,-0.174533,-1.03828,-0.681016,-0.132775,-0.184798,-0.891754,-0.47925,-0.626417,0.154039
23,45,-1.0472,-0.698132,-0.174533,-0.174533,-1.03828,-0.681016,-0.132775,-0.184798,-0.891754,-0.47925,-0.626417,0.154039
23,45,-1.0472,-0.698132,-0.174533,-0.174533,-1.03828,-0.681016,-0.132775,-0.184798,-0.891754,-0.47925,-0.626417,0.154039
23,45,-1.0472,-0.698132,-0.174533,-0.174533,-1.03828,-0.681016,-0.132775,-0.184798,-0.891754,-0.47925,-0.626417,0.154039
23,45,-1.0472,-0.698132,-0.174533,-0.174533,-1.03828,-0.681016,-0.132775,-0.184798,-0.891754,-0.47925,-0.626417,0.154039
23,45,-1.0472,-0.698132,-0.174533,-0.174533,-1.03828,-0.681016,-0.132775,-0.184798,-0.891754,-0.47925,-0.626417,0.154039
23,45,-1.0472,-0.698132,-0.174533,-0.174533,-1.03828,-0.681016,-0.132775,-0.184798,-0.891754,-0.47925,-0.626417,0.154039
23,45,-1.0472,-0.698132,-0.174533,-0.174533,-1.03828,-0.681016,-0.132775,-0.184798,-0.891754,-0.47925,-0.626417,0.154039
23,45,-1.0472,-0.698132,-0.174533,-0.174533,-1.03828,-0.681016,-0.132715,-0.184818,-0.891754,-0.47925,-0.627322,0.15434
23,45,-1.0472,-0.698132,-0.174533,-0.174533,-1.03828,-0.681016,-0.132715,-0.184818,-0.891754,-0.47925,-0.627322,0.15434
23,45,-1.0472,-0.698132,-0.174533,-0.174533,-1.03828,-0.681016,-0.132715,-0.184818,-0.891754,-0.47925,-0.627322,0.15434
23,45,-1.0472,-0.698132,-0.174533,-0.174533,-1.03828,-0.680965,-0.132715,-0.184818,-0.891754,-0.480674,-0.627322,0.15434
23,45,-1.0472,-0.698132,-0.174533,-0.174533,-1.03828,-0.680965,-0.132715,-0.184818,-0.891754,-0.480674,-0.627322,0.15434
23,45,-1.0472,-0.698132,-0.174533,-0.174533,-1.03828,-0.680965,-0.132715,-0.184818,-0.891754,-0.480674,-0.627322,0.15434
23,45,-1.0472,-0.698132,-0.174533,-0.174533,-1.03828,-0.680965,-0.132779,-0.184859,-0.891754,-0.480674,-0.626374,0.154945
23,45,-1.0472,-0.698132,-0.174533,-0.174533,-1.03828,-0.680965,-0.132779,-0.184859,-0.891754,-0.480674,-0.626374,0.154945
23,45,-1.0472,-0.698132,-0.174533,-0.174533,-1.03828,-0.680965,-0.132779,-0.184859,-0.891754,-0.480674,-0.626374,0.154945
23,45,-1.0472,-0.698132,-0.174533,-0.174533,-1.03828,-0.680965,-0.132779,-0.184859,-0.891754,-0.480674,-0.626374,0.154945
23,45,-1.0472,-0.698132,-0.174533,-0.174533,-1.03828,-0.680965,-0.132779,-0.184859,-0.891754,-0.480674,-0.626374,0.154945
23,45,-1.0472,-0.698132,-0.174533,-0.174533,-1.03828,-0.680965,-0.132779,-0.184859,-0.891754,-0.480674,-0.626374,0.154945
23,45,-1.0472,-0.698132,-0.174533,-0.174533,-1.03828,-0.680965,-0.132779,-0.184859,-0.891754,-0.480674,-0.626374,0.154945
23,45,-1.0472,-0.698132,-0.174533,-0.174533,-1.03828,-0.680965,-0.132718,-0.184879,-0.891754,-0.480674,-0.627255,0.155238
23,45,-1.0472,-0.698132,-0.174533,-0.174533,-1.03828,-0.680965,-0.132718,-0.184879,-0.891754,-0.480674,-0.627255,0.155238
23,45,-1.0472,-0.698132,-0.174533,-0.174533,-1.03828,-0.680965,-0.132782,-0.18492,-0.891754,-0.480674,-0.626295,0.15585
23,45,-1.0472,-0.698132,-0.174533,-0.174533,-1.03828,-0.680965,-0.132782,-0.18492,-0.891754,-0.480674,-0.626295,0.15585
23,45,-1.0472,-0.698132,-0.174533,-0.174533,-1.03828,-0.680965,-0.132782,-0.18492,-0.891754,-0.480674,-0.626295,0.15585
23,45,-1.0472,-0.698132,-0.174533,-0.174533,-1.03828,-0.680965,-0.132782,-0.18492,-0.891754,-0.480674,-0.626295,0.15585
23,45,-1.0472,-0.698132,-0.174533,-0.174533,-1.03828,-0.680965,-0.132782,-0.18492,-0.891754,-0.480674,-0.626295,0.15585
23,45,-1.0472,-0.698132,-0.174533,-0.174533,-1.03828,-0.680965,-0.132782,-0.18492,-0.891754,-0.480674,-0.626295,0.15585
23,45,-1.0472,-0.698132,-0.174533,-0.174533,-1.03828,-0.680965,-0.132782,-0.18492,-0.891754,-0.480674,-0.626295,0.15585
23,45,-1.0472,-0.698132,-0.174533,-0.174533,-1.03828,-0.680965,-0.132782,-0.18492,-0.891754,-0.480674,-0.626295,0.15585
23,45,-1.0472,-0.698132,-0.174533,-0.174533,-1.03828,-0.680965,-0.132722,-0.18494,-0.891754,-0.480674,-0.627195,0.156149
23,45,-1.0472,-0.698132,-0.174533,-0.174533,-1.03828,-0.680965,-0.132722,-0.18494,-0.891754,-0.480674,-0.627195,0.156149
23,45,-1.0472,-0.698132,-0.174533,-0.174533,-1.03828,-0.680965,-0.132722,-0.18494,-0.891754,-0.480674,-0.627195,0.156149
23,45,-1.0472,-0.698132,-0.174533,-0.174533,-1.03828,-0.680965,-0.132722,-0.18494,-0.891754,-0.480674,-0.627195,0.156149
23,45,-1.0472,-0.698132,-0.174533,-0.174533,-1.03828,-0.680965,-0.132722,-0.18494,-0.891754,-0.480674,-0.627195,0.156149
23,45,-1.0472,-0.698132,-0.174533,-0.174533,-1.03828,-0.680965,-0.132722,-0.18494,-0.891754,-0.480674,-0.627195,0.156149
23,45,-1.0472,-0.698132,-0.174533,-0.174533,-1.03828,-0.680965,-0.132786,-0.184981,-0.891754,-0.480674,-0.626231,0.156764
23,45,-1.0472,-0.698132,-0.174533,-0.174533,-1.03828,-0.680965,-0.132786,-0.184981,-0.891754,-0.480674,-0.626231,0.156764
23,45,-1.0472,-0.698132,-0.174533,-0.174533,-1.03828,-0.680965,-0.132725,-0.185001,-0.891754,-0.480674,-0.627138,0.157065
23,45,-1.0472,-0.698132,-0.174533,-0.174533,-1.03828,-0.680965,-0.132725,-0.185001,-0.891754,-0.480674,-0.627138,0.157065
23,45,-1.0472,-0.698132,-0.174533,-0.174533,-1.03828,-0.680965,-0.132725,-0.185001,-0.891754,-0.480674,-0.627138,0.157065
23,45,-1.0472,-0.698132,-0.174533,-0.174533,-1.03828,-0.680965,-0.132725,-0.185001,-0.891754,-0.480674,-0.627138,0.157065
23,45,-1.0472,-0.698132,-0.174533,-0.174533,-1.03828,-0.680965,-0.132725,-0.185001,-0.891754,-0.480674,-0.627138,0.157065
23,45,-1.0472,-0.698132,-0.174533,-0.174533,-1.03828,-0.680965,-0.132725,-0.185001,-0.891754,-0.480674,-0.627138,0.157065
23,45,-1.0472,-0.698132,-0.174533,-0.174533,-1.03828,-0.680965,-0.132725,-0.185001,-0.891754,-0.480674,-0.627138,0.157065
23,45,-1.0472,-0.698132,-0.174533,-0.174533,-1.03828,-0.680965,-0.132665,-0.185021,-0.891754,-0.480674,-0.628047,0.157367
23,45,-1.0472,-0.698132,-0.174533,-0.174533,-1.03828,-0.680965,-0.132665,-0.185021,-0.891754,-0.480674,-0.628047,0.157367
23,45,-1.0472,-0.698132,-0.174533,-0.174533,-1.03828,-0.680965,-0.132665,-0.185021,-0.891754,-0.480674,-0.628047,0.157367
23,45,-1.0472,-0.698132,-0.174533,-0.174533,-1.03828,-0.680965,-0.132665,-0.185021,-0.891754,-0.480674,-0.628047,0.157367
23,45,-1.0472,-0.698132,-0.174533,-0.174533,-1.03828,-0.680965,-0.132729,-0.185062,-0.891754,-0.480674,-0.627082,0.157982
23,45,-1.0472,-0.698132,-0.174533,-0.174533,-1.03828,-0.680965,-0.132729,-0.185062,-0.891754,-0.480674,-0.627082,0.157982
23,45,-1.0472,-0.698132,-0.174533,-0.174533,-1.03828,-0.680965,-0.132729,-0.185062,-0.891754,-0.480674,-0.627082,0.157982
23,45,-1.0472,-0.698132,-0.174533,-0.174533,-1.03828,-0.680965,-0.132668,-0.185082,-0.891754,-0.480674,-0.628002,0.158288
23,45,-1.0472,-0.698132,-0.174533,-0.174533,-1.03828,-0.680965,-0.132668,-0.185082,-0.891754,-0.480674,-0.628002,0.158288
23,45,-1.0472,-0.698132,-0.174533,-0.174533,-1.03828,-0.680965,-0.132668,-0.185082,-0.891754,-0.480674,-0.628002,0.158288
23,45,-1.0472,-0.698132,-0.174533,-0.174533,-1.03828,-0.680965,-0.132668,-0.185082,-0.891754,-0.480674,-0.628002,0.158288
23,45,-1.0472,-0.698132,-0.174533,-0.174533,-1.03828,-0.680965,-0.132668,-0.185082,-0.891754,-0.480674,-0.628002,0.158288
23,45,-1.0472,-0.698132,-0.174533,-0.174533,-1.03828,-0.680965,-0.132668,-0.185082,-0.891754,-0.480674,-0.628002,0.158288
23,45,-1.0472,-0.698132,-0.174533,-0.174533,-1.03828,-0.680965,-0.132668,-0.185082,-0.891754,-0.480674,-0.628002,0.158288
23,45,-1.0472,-0.698132,-0.174533,-0.174533,-1.03828,-0.680965,-0.132608,-0.185102,-0.891754,-0.480674,-0.628919,0.158592
23,45,-1.0472,-0.698132,-0.174533,-0.174533,-1.03828,-0.680965,-0.132608,-0.185102,-0.891754,-0.480674,-0.628919,0.158592
23,45,-1.0472,-0.698132,-0.174533,-0.174533,-1.03828,-0.680965,-0.132608,-0.185102,-0.891754,-0.480674,-0.628919,0.158592
23,45,-1.0472,-0.698132,-0.174533,-0.174533,-1.03828,-0.680965,-0.132608,-0.185102,-0.891754,-0.480674,-0.628919,0.158592
23,45,-1.0472,-0.698132,-0.174533,-0.174533,-1.03828,-0.680965,-0.132608,-0.185102,-0.891754,-0.480674,-0.628919,0.158592
23,45,-1.0472,-0.698132,-0.174533,-0.174533,-1.03828,-0.680965,-0.132608,-0.185102,-0.891754,-0.480674,-0.628919,0.158592
23,45,-1.0472,-0.698132,-0.174533,-0.174533,-1.03828,-0.680965,-0.132608,-0.185102,-0.891754,-0.480674,-0.628919,0.158592
23,45,-1.0472,-0.698132,-0.174533,-0.174533,-1.03828,-0.680965,-0.132547,-0.185122,-0.891754,-0.480674,-0.62983,0.158895
23,45,-1.0472,-0.698132,-0.174533,-0.174533,-1.03828,-0.680965,-0.132547,-0.185122,-0.891754,-0.480674,-0.62983,0.158895
23,45,-1.0472,-0.698132,-0.174533,-0.174533,-1.03828,-0.680965,-0.132547,-0.185122,-0.891754,-0.480674,-0.62983,0.158895
23,45,-1.0472,-0.698132,-0.174533,-0.174533,-1.03828,-0.680965,-0.132547,-0.185122,-0.891754,-0.480674,-0.62983,0.158895
23,45,-1.0472,-0.698132,-0.174533,-0.174533,-1.03828,-0.680965,-0.132547,-0.185122,-0.891754,-0.480674,-0.62983,0.158895
23,45,-1.0472,-0.698132,-0.174533,-0.174533,-1.03828,-0.680965,-0.132547,-0.185122,-0.891754,-0.480674,-0.62983,0.158895
23,45,-1.0472,-0.698132,-0.174533,-0.174533,-1.03828,-0.680965,-0.132547,-0.185122,-0.891754,-0.480674,-0.62983,0.158895
23,45,-1.0472,-0.698132,-0.174533,-0.174533,-1.03828,-0.680965,-0.132487,-0.185142,-0.891754,-0.480674,-0.630737,0.159196
23,45,-1.0472,-0.698132,-0.174533,-0.174533,-1.03828,-0.680965,-0.132488,-0.185201,-0.891754,-0.480674,-0.630717,0.160084
23,45,-1.0472,-0.698132,-0.174533,-0.174533,-1.03828,-0.680965,-0.132552,-0.185242,-0.891754,-0.480674,-0.629758,0.160695
23,45,-1.0472,-0.698132,-0.174533,-0.174533,-1.03828,-0.680965,-0.132552,-0.185242,-0.891754,-0.480674,-0.629758,0.160695
23,45,-1.0472,-0.698132,-0.174533,-0.174533,-1.03828,-0.680965,-0.132491,-0.185262,-0.891754,-0.480674,-0.630677,0.161001
23,45,-1.0472,-0.698132,-0.174533,-0.174533,-1.03828,-0.680965,-0.132491,-0.185262,-0.891754,-0.480674,-0.630677,0.161001
23,45,-1.0472,-0.698132,-0.174533,-0.174533,-1.03828,-0.680965,-0.132491,-0.185262,-0.891754,-0.480674,-0.630677,0.161001
23,45,-1.0472,-0.698132,-0.174533,-0.174533,-1.03828,-0.680965,-0.132491,-0.185262,-0.891754,-0.480674,-0.630677,0.161001
23,45,-1.0472,-0.698132,-0.174533,-0.174533,-1.03828,-0.680965,-0.132491,-0.185262,-0.891754,-0.480674,-0.630677,0.161001
23,45,-1.0472,-0.698132,-0.174533,-0.174533,-1.03828,-0.680965,-0.132491,-0.185262,-0.891754,-0.480674,-0.630677,0.161001
23,45,-1.0472,-0.698132,-0.174533,-0.174533,-1.03828,-0.680965,-0.132491,-0.185262,-0.891754,-0.480674,-0.630677,0.161001
23,45,-1.0472,-0.698132,-0.174533,-0.174533,-1.03828,-0.680965,-0.132431,-0.185283,-0.891754,-0.480674,-0.631587,0.161303
23,45,-1.0472,-0.698132,-0.174533,-0.174533,-1.03828,-0.680965,-0.132431,-0.185283,-0.891754,-0.480674,-0.631587,0.161303
23,45,-1.0472,-0.698132,-0.174533,-0.174533,-1.03828,-0.680965,-0.132431,-0.185283,-0.891754,-0.480674,-0.631587,0.161303
23,45,-1.0472,-0.698132,-0.174533,-0.174533,-1.03828,-0.680965,-0.132431,-0.185283,-0.891754,-0.480674,-0.631587,0.161303
23,45,-1.0472,-0.698132,-0.174533,-0.174533,-1.03828,-0.680965,-0.132431,-0.185283,-0.891754,-0.480674,-0.631587,0.161303
23,45,-1.0472,-0.698132,-0.174533,-0.174533,-1.03828,-0.680965,-0.132431,-0.185283,-0.891754,-0.480674,-0.631587,0.161303
23,45,-1.0472,-0.698132,-0.174533,-0.174533,-1.03828,-0.680965,-0.132431,-0.185283,-0.891754,-0.480674,-0.631587,0.161303
23,45,-1.0472,-0.698132,-0.174533,-0.174533,-1.03828,-0.680965,-0.132434,-0.185343,-0.891754,-0.480674,-0.631536,0.162214
23,45,-1.0472,-0.698132,-0.174533,-0.174533,-1.03828,-0.680965,-0.132434,-0.185343,-0.891754,-0.480674,-0.631536,0.162214
23,45,-1.0472,-0.698132,-0.174533,-0.174533,-1.03828,-0.680965,-0.132434,-0.185343,-0.891754,-0.480674,-0.631536,0.162214
23,45,-1.0472,-0.698132,-0.174533,-0.174533,-1.03828,-0.680965,-0.132434,-0.185343,-0.891754,-0.480674,-0.631536,0.162214
23,45,-1.0472,-0.698132,-0.174533,-0.174533,-1.03828,-0.680965,-0.132434,-0.185343,-0.891754,-0.480674,-0.631536,0.162214
23,45,-1.0472,-0.698132,-0.174533,-0.174533,-1.03828,-0.680965,-0.132434,-0.185343,-0.891754,-0.480674,-0.631536,0.162214
23,45,-1.0472,-0.698132,-0.174533,-0.174533,-1.03828,-0.680965,-0.132434,-0.185343,-0.891754,-0.480674,-0.631536,0.162214
23,45,-1.0472,-0.698132,-0.174533,-0.174533,-1.03828,-0.680965,-0.132434,-0.185343,-0.891754,-0.480674,-0.631536,0.162214
23,45,-1.0472,-0.698132,-0.174533,-0.174533,-1.03828,-0.680965,-0.132434,-0.185343,-0.891754,-0.480674,-0.631536,0.162214
23,45,-1.0472,-0.698132,-0.174533,-0.174533,-1.03828,-0.680965,-0.132434,-0.185343,-0.891754,-0.480674,-0.631536,0.162214
23,45,-1.0472,-0.698132,-0.174533,-0.174533,-1.03828,-0.680965,-0.132434,-0.185343,-0.891754,-0.480674,-0.631536,0.162214
23,45,-1.0472,-0.698132,-0.174533,-0.174533,-1.03828,-0.680965,-0.132434,-0.185343,-0.891754,-0.480674,-0.631536,0.162214
23,45,-1.0472,-0.698132,-0.174533,-0.174533,-1.03828,-0.680965,-0.132434,-0.185343,-0.891754,-0.480674,-0.631536,0.162214
23,45,-1.0472,-0.698132,-0.174533,-0.174533,-1.03828,-0.680965,-0.132434,-0.185343,-0.891754,-0.480674,-0.631536,0.162214
23,45,-1.0472,-0.698132,-0.174533,-0.174533,-1.03828,-0.680965,-0.132374,-0.185364,-0.891754,-0.480674,-0.632424,0.162509
23,45,-1.0472,-0.698132,-0.174533,-0.174533,-1.03828,-0.680965,-0.132374,-0.185364,-0.891754,-0.480674,-0.632424,0.162509
23,45,-1.0472,-0.698132,-0.174533,-0.174533,-1.03828,-0.680965,-0.132374,-0.185364,-0.891754,-0.480674,-0.632424,0.162509
23,45,-1.0472,-0.698132,-0.174533,-0.174533,-1.03828,-0.680965,-0.132374,-0.185364,-0.891754,-0.480674,-0.632424,0.162509
23,45,-1.0472,-0.698132,-0.174533,-0.174533,-1.03828,-0.680965,-0.132438,-0.185404,-0.891754,-0.480674,-0.631465,0.16312
23,45,-1.0472,-0.698132,-0.174533,-0.174533,-1.03828,-0.680965,-0.132438,-0.185404,-0.891754,-0.480674,-0.631465,0.16312
23,45,-1.0472,-0.698132,-0.174533,-0.174533,-1.03828,-0.680965,-0.132438,-0.185404,-0.891754,-0.480674,-0.631465,0.16312
23,45,-1.0472,-0.698132,-0.174533,-0.174533,-1.03828,-0.680965,-0.132438,-0.185404,-0.891754,-0.480674,-0.631465,0.16312
23,45,-1.0472,-0.698132,-0.174533,-0.174533,-1.03828,-0.680965,-0.132438,-0.185404,-0.891754,-0.480674,-0.631465,0.16312
23,45,-1.0472,-0.698132,-0.174533,-0.174533,-1.03828,-0.680965,-0.132438,-0.185404,-0.891754,-0.480674,-0.631465,0.16312
23,45,-1.0472,-0.698132,-0.174533,-0.174533,-1.03828,-0.680965,-0.132438,-0.185404,-0.891754,-0.480674,-0.631465,0.16312
23,45,-1.0472,-0.698132,-0.174533,-0.174533,-1.03828,-0.680965,-0.132438,-0.185404,-0.891754,-0.480674,-0.631465,0.16312
23,45,-1.0472,-0.698132,-0.174533,-0.174533,-1.03828,-0.680965,-0.132438,-0.185404,-0.891754,-0.480674,-0.631465,0.16312
23,45,-1.0472,-0.698132,-0.174533,-0.174533,-1.03828,-0.680965,-0.132438,-0.185404,-0.891754,-0.480674,-0.631465,0.16312
23,45,-1.0472,-0.698132,-0.174533,-0.174533,-1.03828,-0.680965,-0.132502,-0.185445,-0.891754,-0.480674,-0.630502,0.163733
23,45,-1.0472,-0.698132,-0.174533,-0.174533,-1.03828,-0.680965,-0.132502,-0.185445,-0.891754,-0.480674,-0.630502,0.163733
23,45,-1.0472,-0.698132,-0.174533,-0.174533,-1.03828,-0.680965,-0.132502,-0.185445,-0.891754,-0.480674,-0.630502,0.163733
23,45,-1.0472,-0.698132,-0.174533,-0.174533,-1.03828,-0.680965,-0.132502,-0.185445,-0.891754,-0.480674,-0.630502,0.163733
23,45,-1.0472,-0.698132,-0.174533,-0.174533,-1.03828,-0.680965,-0.132502,-0.185445,-0.891754,-0.480674,-0.630502,0.163733
23,45,-1.0472,-0.698132,-0.174533,-0.174533,-1.03828,-0.680965,-0.132502,-0.185445,-0.891754,-0.480674,-0.630502,0.163733
23,45,-1.0472,-0.698132,-0.174533,-0.174533,-1.03828,-0.680965,-0.132502,-0.185445,-0.891754,-0.480674,-0.630502,0.163733
23,45,-1.0472,-0.698132,-0.174533,-0.174533,-1.03828,-0.680965,-0.132502,-0.185445,-0.891754,-0.480674,-0.630502,0.163733
23,45,-1.0472,-0.698132,-0.174533,-0.174533,-1.03828,-0.680965,-0.132502,-0.185445,-0.891754,-0.480674,-0.630502,0.163733
23,45,-1.0472,-0.698132,-0.174533,-0.174533,-1.03828,-0.680965,-0.132502,-0.185445,-0.891754,-0.480674,-0.630502,0.163733
23,45,-1.0472,-0.698132,-0.174533,-0.174533,-1.03828,-0.680965,-0.132566,-0.185486,-0.891754,-0.480674,-0.62953,0.164352
23,45,-1.0472,-0.698132,-0.174533,-0.174533,-1.03828,-0.680965,-0.132566,-0.185486,-0.891754,-0.480674,-0.62953,0.164352
23,45,-1.0472,-0.698132,-0.174533,-0.174533,-1.03828,-0.680965,-0.132566,-0.185486,-0.891754,-0.480674,-0.62953,0.164352
23,45,-1.0472,-0.698132,-0.174533,-0.174533,-1.03828,-0.680965,-0.132566,-0.185486,-0.891754,-0.480674,-0.62953,0.164352
23,45,-1.0472,-0.698132,-0.174533,-0.174533,-1.03828,-0.680965,-0.132566,-0.185486,-0.891754,-0.480674,-0.62953,0.164352
23,45,-1.0472,-0.698132,-0.174533,-0.174533,-1.03828,-0.680965,-0.132566,-0.185486,-0.891754,-0.480674,-0.62953,0.164352
23,45,-1.0472,-0.698132,-0.174533,-0.174533,-1.03828,-0.680965,-0.132566,-0.185486,-0.891754,-0.480674,-0.62953,0.164352
23,45,-1.0472,-0.698132,-0.174533,-0.174533,-1.03828,-0.680965,-0.132566,-0.185486,-0.891754,-0.480674,-0.629529,0.164352
23,45,-1.0472,-0.698132,-0.174533,-0.174533,-1.03828,-0.680965,-0.132566,-0.185486,-0.891754,-0.480674,-0.629527,0.164351
23,45,-1.0472,-0.698132,-0.174533,-0.174533,-1.03828,-0.680965,-0.132566,-0.185486,-0.891754,-0.480674,-0.629525,0.16435
23,45,-1.0472,-0.698132,-0.174533,-0.174533,-1.03828,-0.680965,-0.13263,-0.185527,-0.891754,-0.480674,-0.628555,0.164966
23,45,-1.0472,-0.698132,-0.174533,-0.174533,-1.03828,-0.680965,-0.13263,-0.185527,-0.891754,-0.480674,-0.628553,0.164965
23,45,-1.0472,-0.698132,-0.174533,-0.174533,-1.03828,-0.680965,-0.13263,-0.185527,-0.891754,-0.480674,-0.628551,0.164965
23,45,-1.0472,-0.698132,-0.174533,-0.174533,-1.03828,-0.680965,-0.13263,-0.185527,-0.891754,-0.480674,-0.628549,0.164964
23,45,-1.0472,-0.698132,-0.174533,-0.174533,-1.03828,-0.680965,-0.13263,-0.185527,-0.891754,-0.480674,-0.628547,0.164964
23,45,-1.0472,-0.698132,-0.174533,-0.174533,-1.03828,-0.680965,-0.13257,-0.185547,-0.891754,-0.480674,-0.62943,0.165257
23,45,-1.0472,-0.698132,-0.174533,-0.174533,-1.03828,-0.680965,-0.13257,-0.185547,-0.891754,-0.480674,-0.62943,0.165257
23,45,-1.0472,-0.698132,-0.174533,-0.174533,-1.03828,-0.680965,-0.13257,-0.185547,-0.891754,-0.480674,-0.62943,0.165257
23,45,-1.0472,-0.698132,-0.174533,-0.174533,-1.03828,-0.680965,-0.13257,-0.185547,-0.891754,-0.480674,-0.62943,0.165257
23,45,-1.0472,-0.698132,-0.174533,-0.174533,-1.03828,-0.680965,-0.13257,-0.185547,-0.891754,-0.480674,-0.62943,0.165257
23,45,-1.0472,-0.698132,-0.174533,-0.174533,-1.03828,-0.680965,-0.13257,-0.185547,-0.891754,-0.480674,-0.62943,0.165257
23,45,-1.0472,-0.698132,-0.174533,-0.174533,-1.03828,-0.680965,-0.13257,-0.185547,-0.891754,-0.480674,-0.62943,0.165257
23,45,-1.0472,-0.698132,-0.174533,-0.174533,-1.03828,-0.680965,-0.13257,-0.185547,-0.891754,-0.480674,-0.62943,0.165257
23,45,-1.0472,-0.698132,-0.174533,-0.174533,-1.03828,-0.680965,-0.13257,-0.185547,-0.891754,-0.480674,-0.62943,0.165257
23,45,-1.0472,-0.698132,-0.174533,-0.174533,-1.03828,-0.680965,-0.13257,-0.185547,-0.891754,-0.480674,-0.62943,0.165257
23,45,-1.0472,-0.698132,-0.174533,-0.174533,-1.03828,-0.680965,-0.13257,-0.185547,-0.891754,-0.480674,-0.62943,0.165257
23,45,-1.0472,-0.698132,-0.174533,-0.174533,-1.03828,-0.680965,-0.132634,-0.185588,-0.891754,-0.480674,-0.628466,0.165871
23,45,-1.0472,-0.698132,-0.174533,-0.174533,-1.03828,-0.680965,-0.132634,-0.185588,-0.891754,-0.480674,-0.628466,0.165871
23,45,-1.0472,-0.698132,-0.174533,-0.174533,-1.03828,-0.680965,-0.132634,-0.185588,-0.891754,-0.480674,-0.628466,0.165871
23,45,-1.0472,-0.698132,-0.174533,-0.174533,-1.03828,-0.680965,-0.132634,-0.185588,-0.891754,-0.480674,-0.628466,0.165871
23,45,-1.0472,-0.698132,-0.174533,-0.174533,-1.03828,-0.680965,-0.132634,-0.185588,-0.891754,-0.480674,-0.628466,0.165871
23,45,-1.0472,-0.698132,-0.174533,-0.174533,-1.03828,-0.680965,-0.132634,-0.185588,-0.891754,-0.480674,-0.628466,0.165871
23,45,-1.0472,-0.698132,-0.174533,-0.174533,-1.03828,-0.680965,-0.132634,-0.185588,-0.891754,-0.480674,-0.628466,0.165871
23,45,-1.0472,-0.698132,-0.174533,-0.174533,-1.03828,-0.680965,-0.132573,-0.185608,-0.891754,-0.480674,-0.629369,0.166171
23,45,-1.0472,-0.698132,-0.174533,-0.174533,-1.03828,-0.680965,-0.132573,-0.185608,-0.891754,-0.480674,-0.629369,0.166171
23,45,-1.0472,-0.698132,-0.174533,-0.174533,-1.03828,-0.680965,-0.132573,-0.185608,-0.891754,-0.480674,-0.629369,0.166171
23,45,-1.0472,-0.698132,-0.174533,-0.174533,-1.03828,-0.680965,-0.132573,-0.185608,-0.891754,-0.480674,-0.629369,0.166171
23,45,-1.0472,-0.698132,-0.174533,-0.174533,-1.03828,-0.680965,-0.132573,-0.185608,-0.891754,-0.480674,-0.629369,0.166171
23,45,-1.0472,-0.698132,-0.174533,-0.174533,-1.03828,-0.680965,-0.132573,-0.185608,-0.891754,-0.480674,-0.629369,0.166171
23,45,-1.0472,-0.698132,-0.174533,-0.174533,-1.03828,-0.680965,-0.132573,-0.185608,-0.891754,-0.480674,-0.629369,0.166171
23,45,-1.0472,-0.698132,-0.174533,-0.174533,-1.03828,-0.680965,-0.132573,-0.185608,-0.891754,-0.480674,-0.629369,0.166171
23,45,-1.0472,-0.698132,-0.174533,-0.174533,-1.03828,-0.680965,-0.132573,-0.185608,-0.891754,-0.480674,-0.629369,0.166171
23,45,-1.0472,-0.698132,-0.174533,-0.174533,-1.03828,-0.680965,-0.132573,-0.185608,-0.891754,-0.480674,-0.629369,0.166171
23,45,-1.0472,-0.698132,-0.174533,-0.174533,-1.03828,-0.680965,-0.132513,-0.185628,-0.891754,-0.480674,-0.630276,0.166472
23,45,-1.0472,-0.698132,-0.174533,-0.174533,-1.03828,-0.680965,-0.132513,-0.185628,-0.891754,-0.480674,-0.630276,0.166472
23,45,-1.0472,-0.698132,-0.174533,-0.174533,-1.03828,-0.680965,-0.132513,-0.185628,-0.891754,-0.480674,-0.630276,0.166472
23,45,-1.0472,-0.698132,-0.174533,-0.174533,-1.03828,-0.680965,-0.132513,-0.185628,-0.891754,-0.480674,-0.630276,0.166472
23,45,-1.0472,-0.698132,-0.174533,-0.174533,-1.03828,-0.680965,-0.132513,-0.185628,-0.891754,-0.480674,-0.630276,0.166472
23,45,-1.0472,-0.698132,-0.174533,-0.174533,-1.03828,-0.680965,-0.132513,-0.185628,-0.891754,-0.480674,-0.630276,0.166472
23,45,-1.0472,-0.698132,-0.174533,-0.174533,-1.03828,-0.680965,-0.132577,-0.185669,-0.891754,-0.480674,-0.629327,0.167076
23,45,-1.0472,-0.698132,-0.174533,-0.174533,-1.03828,-0.680965,-0.132577,-0.185669,-0.891754,-0.480674,-0.629327,0.167076
23,45,-1.0472,-0.698132,-0.174533,-0.174533,-1.03828,-0.680965,-0.132577,-0.185669,-0.891754,-0.480674,-0.629327,0.167076
23,45,-1.0472,-0.698132,-0.174533,-0.174533,-1.03828,-0.680965,-0.132577,-0.185669,-0.891754,-0.480674,-0.629327,0.167076
23,45,-1.0472,-0.698132,-0.174533,-0.174533,-1.03828,-0.680965,-0.132577,-0.185669,-0.891754,-0.480674,-0.629327,0.167076
23,45,-1.0472,-0.698132,-0.174533,-0.174533,-1.03828,-0.680965,-0.132577,-0.185669,-0.891754,-0.480674,-0.629327,0.167076
23,45,-1.0472,-0.698132,-0.174533,-0.174533,-1.03828,-0.680965,-0.132577,-0.185669,-0.891754,-0.480674,-0.629327,0.167076
23,45,-1.0472,-0.698132,-0.174533,-0.174533,-1.03828,-0.680965,-0.132577,-0.185669,-0.891754,-0.480674,-0.629327,0.167076
23,45,-1.0472,-0.698132,-0.174533,-0.174533,-1.03828,-0.680965,-0.132577,-0.185669,-0.891754,-0.480674,-0.629327,0.167076
23,45,-1.0472,-0.698132,-0.174533,-0.174533,-1.03828,-0.680965,-0.132577,-0.185669,-0.891754,-0.480674,-0.629327,0.167076
23,45,-1.0472,-0.698132,-0.174533,-0.174533,-1.03828,-0.680965,-0.132577,-0.185669,-0.891754,-0.480674,-0.629327,0.167076
23,45,-1.0472,-0.698132,-0.174533,-0.174533,-1.03828,-0.680965,-0.132577,-0.185669,-0.891754,-0.480674,-0.629327,0.167076
23,45,-1.0472,-0.698132,-0.174533,-0.174533,-1.03828,-0.680965,-0.132577,-0.185669,-0.891754,-0.480674,-0.629327,0.167076
23,45,-1.0472,-0.698132,-0.174533,-0.174533,-1.03828,-0.680965,-0.132577,-0.185669,-0.891754,-0.480674,-0.629327,0.167076
23,45,-1.0472,-0.698132,-0.174533,-0.174533,-1.03828,-0.680965,-0.13258,-0.18573,-0.891754,-0.480674,-0.629247,0.167979
23,45,-1.0472,-0.698132,-0.174533,-0.174533,-1.03828,-0.680965,-0.13258,-0.18573,-0.891754,-0.480674,-0.629247,0.167979
23,45,-1.0472,-0.698132,-0.174533,-0.174533,-1.03828,-0.680965,-0.13258,-0.18573,-0.891754,-0.480674,-0.629247,0.167979
23,45,-1.0472,-0.698132,-0.174533,-0.174533,-1.03828,-0.680965,-0.13258,-0.18573,-0.891754,-0.480674,-0.629247,0.167979
23,45,-1.0472,-0.698132,-0.174533,-0.174533,-1.03828,-0.680965,-0.13258,-0.18573,-0.891754,-0.480674,-0.629247,0.167979
23,45,-1.0472,-0.698132,-0.174533,-0.174533,-1.03828,-0.680965,-0.13258,-0.18573,-0.891754,-0.480674,-0.629247,0.167979
23,45,-1.0472,-0.698132,-0.174533,-0.174533,-1.03828,-0.680965,-0.13258,-0.18573,-0.891754,-0.480674,-0.629247,0.167979
23,45,-1.0472,-0.698132,-0.174533,-0.174533,-1.03828,-0.680965,-0.13258,-0.18573,-0.891754,-0.480674,-0.629247,0.167979
23,45,-1.0472,-0.698132,-0.174533,-0.174533,-1.03828,-0.680965,-0.13258,-0.18573,-0.891754,-0.480674,-0.629247,0.167979
23,45,-1.0472,-0.698132,-0.174533,-0.174533,-1.03828,-0.680965,-0.13258,-0.18573,-0.891754,-0.480674,-0.629247,0.167979
23,45,-1.0472,-0.698132,-0.174533,-0.174533,-1.03828,-0.680965,-0.13258,-0.18573,-0.891754,-0.480674,-0.629247,0.167979
23,45,-1.0472,-0.698132,-0.174533,-0.174533,-1.03828,-0.680965,-0.13258,-0.18573,-0.891754,-0.480674,-0.629247,0.167979
23,45,-1.0472,-0.698132,-0.174533,-0.174533,-1.03828,-0.680965,-0.13258,-0.18573,-0.891754,-0.480674,-0.629247,0.167979
23,45,-1.0472,-0.698132,-0.174533,-0.174533,-1.03828,-0.680965,-0.13258,-0.18573,-0.891754,-0.480674,-0.629247,0.167979
23,45,-1.0472,-0.698132,-0.174533,-0.174533,-1.03828,-0.680965,-0.13258,-0.18573,-0.891754,-0.480674,-0.629247,0.167979
23,45,-1.0472,-0.698132,-0.174533,-0.174533,-1.03828,-0.680965,-0.13258,-0.18573,-0.891754,-0.480674,-0.629247,0.167979
23,45,-1.0472,-0.698132,-0.174533,-0.174533,-1.03828,-0.680965,-0.13258,-0.18573,-0.891754,-0.480674,-0.629247,0.167979
23,45,-1.0472,-0.698132,-0.174533,-0.174533,-1.03828,-0.680965,-0.13258,-0.18573,-0.891754,-0.480674,-0.629247,0.167979
23,45,-1.0472,-0.698132,-0.174533,-0.174533,-1.03828,-0.680965,-0.13258,-0.18573,-0.891754,-0.480674,-0.629247,0.167979
23,45,-1.0472,-0.698132,-0.174533,-0.174533,-1.03828,-0.680965,-0.132584,-0.185791,-0.891754,-0.480674,-0.629235,0.168901
23,45,-1.0472,-0.698132,-0.174533,-0.174533,-1.03828,-0.680965,-0.132584,-0.185791,-0.891754,-0.480674,-0.629235,0.168901
23,45,-1.0472,-0.698132,-0.174533,-0.174533,-1.03828,-0.680965,-0.132584,-0.185791,-0.891754,-0.480674,-0.629235,0.168901
23,45,-1.0472,-0.698132,-0.174533,-0.174533,-1.03828,-0.680965,-0.132584,-0.185791,-0.891754,-0.480674,-0.629235,0.168901
23,45,-1.0472,-0.698132,-0.174533,-0.174533,-1.03828,-0.680965,-0.132584,-0.185791,-0.891754,-0.480674,-0.629235,0.168901
23,45,-1.0472,-0.698132,-0.174533,-0.174533,-1.03828,-0.680965,-0.132584,-0.185791,-0.891754,-0.480674,-0.629235,0.168901
23,45,-1.0472,-0.698132,-0.174533,-0.174533,-1.03828,-0.680965,-0.132648,-0.185832,-0.891754,-0.480674,-0.628267,0.169518
23,45,-1.0472,-0.698132,-0.174533,-0.174533,-1.03828,-0.680965,-0.132648,-0.185832,-0.891754,-0.480674,-0.628267,0.169518
23,45,-1.0472,-0.698132,-0.174533,-0.174533,-1.03828,-0.680965,-0.132648,-0.185832,-0.891754,-0.480674,-0.628267,0.169518
23,45,-1.0472,-0.698132,-0.174533,-0.174533,-1.03828,-0.680965,-0.132648,-0.185832,-0.891754,-0.480674,-0.628267,0.169518
23,45,-1.0472,-0.698132,-0.174533,-0.174533,-1.03828,-0.680965,-0.132648,-0.185832,-0.891754,-0.480674,-0.628267,0.169518
23,45,-1.0472,-0.698132,-0.174533,-0.174533,-1.03828,-0.680965,-0.132648,-0.185832,-0.891754,-0.480674,-0.628267,0.169518
23,45,-1.0472,-0.698132,-0.174533,-0.174533,-1.03828,-0.680965,-0.132648,-0.185832,-0.891754,-0.480674,-0.628267,0.169518
23,45,-1.0472,-0.698132,-0.174533,-0.174533,-1.03828,-0.680965,-0.132648,-0.185832,-0.891754,-0.480674,-0.628267,0.169518
23,45,-1.0472,-0.698132,-0.174533,-0.174533,-1.03828,-0.680965,-0.132588,-0.185852,-0.891754,-0.480674,-0.629177,0.16982
23,45,-1.0472,-0.698132,-0.174533,-0.174533,-1.03828,-0.680965,-0.132588,-0.185852,-0.891754,-0.480674,-0.629177,0.16982
23,45,-1.0472,-0.698132,-0.174533,-0.174533,-1.03828,-0.680965,-0.132588,-0.185852,-0.891754,-0.480674,-0.629177,0.16982
23,45,-1.0472,-0.698132,-0.174533,-0.174533,-1.03828,-0.680965,-0.132588,-0.185852,-0.891754,-0.480674,-0.629177,0.16982
23,45,-1.0472,-0.698132,-0.174533,-0.174533,-1.03828,-0.680965,-0.132588,-0.185852,-0.891754,-0.480674,-0.629177,0.16982
23,45,-1.0472,-0.698132,-0.174533,-0.174533,-1.03828,-0.680965,-0.132588,-0.185852,-0.891754,-0.480674,-0.629177,0.16982
23,45,-1.0472,-0.698132,-0.174533,-0.174533,-1.03828,-0.680965,-0.132588,-0.185852,-0.891754,-0.480674,-0.629177,0.16982
23,45,-1.0472,-0.698132,-0.174533,-0.174533,-1.03828,-0.680965,-0.132588,-0.185852,-0.891754,-0.480674,-0.629177,0.16982
23,45,-1.0472,-0.698132,-0.174533,-0.174533,-1.03828,-0.680965,-0.132588,-0.185852,-0.891754,-0.480674,-0.629177,0.16982
23,45,-1.0472,-0.698132,-0.174533,-0.174533,-1.03828,-0.680965,-0.132588,-0.185852,-0.891754,-0.480674,-0.629177,0.16982
23,45,-1.0472,-0.698132,-0.174533,-0.174533,-1.03828,-0.680965,-0.132588,-0.185852,-0.891754,-0.480674,-0.629177,0.16982
23,45,-1.0472,-0.698132,-0.174533,-0.174533,-1.03828,-0.680965,-0.132588,-0.185852,-0.891754,-0.480674,-0.629177,0.16982
23,45,-1.0472,-0.698132,-0.174533,-0.174533,-1.03828,-0.680965,-0.132588,-0.185852,-0.891754,-0.480674,-0.629177,0.16982
23,45,-1.0472,-0.698132,-0.174533,-0.174533,-1.03828,-0.680965,-0.132652,-0.185892,-0.891754,-0.480674,-0.628214,0.170433
23,45,-1.0472,-0.698132,-0.174533,-0.174533,-1.03828,-0.680965,-0.132591,-0.185913,-0.891754,-0.480674,-0.62912,0.170734
23,45,-1.0472,-0.698132,-0.174533,-0.174533,-1.03828,-0.680965,-0.132591,-0.185913,-0.891754,-0.480674,-0.62912,0.170734
23,45,-1.0472,-0.698132,-0.174533,-0.174533,-1.03828,-0.680965,-0.132591,-0.185913,-0.891754,-0.480674,-0.62912,0.170734
23,45,-1.0472,-0.698132,-0.174533,-0.174533,-1.03828,-0.680965,-0.132591,-0.185913,-0.891754,-0.480674,-0.62912,0.170734
23,45,-1.0472,-0.698132,-0.174533,-0.174533,-1.03828,-0.680965,-0.132591,-0.185913,-0.891754,-0.480674,-0.62912,0.170734
23,45,-1.0472,-0.698132,-0.174533,-0.174533,-1.03828,-0.680965,-0.132591,-0.185913,-0.891754,-0.480674,-0.62912,0.170734
23,45,-1.0472,-0.698132,-0.174533,-0.174533,-1.03828,-0.680965,-0.132591,-0.185913,-0.891754,-0.480674,-0.62912,0.170734
23,45,-1.0472,-0.698132,-0.174533,-0.174533,-1.03828,-0.680965,-0.132591,-0.185913,-0.891754,-0.480674,-0.62912,0.170734
23,45,-1.0472,-0.698132,-0.174533,-0.174533,-1.03828,-0.680965,-0.132591,-0.185913,-0.891754,-0.480674,-0.62912,0.170734
23,45,-1.0472,-0.698132,-0.174533,-0.174533,-1.03828,-0.680965,-0.132591,-0.185913,-0.891754,-0.480674,-0.62912,0.170734
23,45,-1.0472,-0.698132,-0.174533,-0.174533,-1.03828,-0.680965,-0.132591,-0.185913,-0.891754,-0.480674,-0.62912,0.170734
23,45,-1.0472,-0.698132,-0.174533,-0.174533,-1.03828,-0.680965,-0.132531,-0.185933,-0.891754,-0.480674,-0.630035,0.171038
23,45,-1.0472,-0.698132,-0.174533,-0.174533,-1.03828,-0.680965,-0.132531,-0.185933,-0.891754,-0.480674,-0.630035,0.171038
23,45,-1.0472,-0.698132,-0.174533,-0.174533,-1.03828,-0.680965,-0.132531,-0.185933,-0.891754,-0.480674,-0.630035,0.171038
23,45,-1.0472,-0.698132,-0.174533,-0.174533,-1.03828,-0.680965,-0.132595,-0.185974,-0.891754,-0.480674,-0.629073,0.171649
23,45,-1.0472,-0.698132,-0.174533,-0.174533,-1.03828,-0.680965,-0.132595,-0.185974,-0.891754,-0.480674,-0.629073,0.171649
23,45,-1.0472,-0.698132,-0.174533,-0.174533,-1.03828,-0.680965,-0.132595,-0.185974,-0.891754,-0.480674,-0.629073,0.171649
23,45,-1.0472,-0.698132,-0.174533,-0.174533,-1.03828,-0.680965,-0.132595,-0.185974,-0.891754,-0.480674,-0.629073,0.171649
23,45,-1.0472,-0.698132,-0.174533,-0.174533,-1.03828,-0.680965,-0.132595,-0.185974,-0.891754,-0.480674,-0.629073,0.171649
23,45,-1.0472,-0.698132,-0.174533,-0.174533,-1.03828,-0.680965,-0.132595,-0.185974,-0.891754,-0.480674,-0.629073,0.171649
23,45,-1.0472,-0.698132,-0.174533,-0.174533,-1.03828,-0.680965,-0.132595,-0.185974,-0.891754,-0.480674,-0.629073,0.171649
23,45,-1.0472,-0.698132,-0.174533,-0.174533,-1.03828,-0.680965,-0.132595,-0.185974,-0.891754,-0.480674,-0.629073,0.171649
23,45,-1.0472,-0.698132,-0.174533,-0.174533,-1.03828,-0.680965,-0.132595,-0.185974,-0.891754,-0.480674,-0.629073,0.171649
23,45,-1.0472,-0.698132,-0.174533,-0.174533,-1.03828,-0.680965,-0.132595,-0.185974,-0.891754,-0.480674,-0.629073,0.171649
23,45,-1.0472,-0.698132,-0.174533,-0.174533,-1.03828,-0.680965,-0.132595,-0.185974,-0.891754,-0.480674,-0.629073,0.171649
23,45,-1.0472,-0.698132,-0.174533,-0.174533,-1.03828,-0.680965,-0.132595,-0.185974,-0.891754,-0.480674,-0.629073,0.171649
23,45,-1.0472,-0.698132,-0.174533,-0.174533,-1.03828,-0.680965,-0.132595,-0.185974,-0.891754,-0.480674,-0.629073,0.171649
23,45,-1.0472,-0.698132,-0.174533,-0.174533,-1.03828,-0.680965,-0.132534,-0.185994,-0.891754,-0.480674,-0.629985,0.171952
23,45,-1.0472,-0.698132,-0.174533,-0.174533,-1.03828,-0.680965,-0.132534,-0.185994,-0.891754,-0.480674,-0.629985,0.171952
23,45,-1.0472,-0.698132,-0.174533,-0.174533,-1.03828,-0.680965,-0.132534,-0.185994,-0.891754,-0.480674,-0.629985,0.171952
23,45,-1.0472,-0.698132,-0.174533,-0.174533,-1.03828,-0.680965,-0.132534,-0.185994,-0.891754,-0.480674,-0.629985,0.171952
23,45,-1.0472,-0.698132,-0.174533,-0.174533,-1.03828,-0.680965,-0.132534,-0.185994,-0.891754,-0.480674,-0.629985,0.171952
23,45,-1.0472,-0.698132,-0.174533,-0.174533,-1.03828,-0.680965,-0.132534,-0.185994,-0.891754,-0.480674,-0.629985,0.171952
23,45,-1.0472,-0.698132,-0.174533,-0.174533,-1.03828,-0.680965,-0.132534,-0.185994,-0.891754,-0.480674,-0.629985,0.171952
23,45,-1.0472,-0.698132,-0.174533,-0.174533,-1.03828,-0.680965,-0.132534,-0.185994,-0.891754,-0.480674,-0.629985,0.171952
23,45,-1.0472,-0.698132,-0.174533,-0.174533,-1.03828,-0.680965,-0.132534,-0.185994,-0.891754,-0.480674,-0.629985,0.171952
23,45,-1.0472,-0.698132,-0.174533,-0.174533,-1.03828,-0.680965,-0.132474,-0.186014,-0.891754,-0.480674,-0.630898,0.172255
23,45,-1.0472,-0.698132,-0.174533,-0.174533,-1.03828,-0.680965,-0.132474,-0.186014,-0.891754,-0.480674,-0.630898,0.172255
23,45,-1.0472,-0.698132,-0.174533,-0.174533,-1.03828,-0.680965,-0.132474,-0.186014,-0.891754,-0.480674,-0.630898,0.172255
23,45,-1.0472,-0.698132,-0.174533,-0.174533,-1.03828,-0.680965,-0.132474,-0.186014,-0.891754,-0.480674,-0.630898,0.172255
23,45,-1.0472,-0.698132,-0.174533,-0.174533,-1.03828,-0.680965,-0.132474,-0.186014,-0.891754,-0.480674,-0.630898,0.172255
23,45,-1.0472,-0.698132,-0.174533,-0.174533,-1.03828,-0.680965,-0.132538,-0.186055,-0.891754,-0.480674,-0.62994,0.172864
23,45,-1.0472,-0.698132,-0.174533,-0.174533,-1.03828,-0.680965,-0.132538,-0.186055,-0.891754,-0.480674,-0.62994,0.172864
23,45,-1.0472,-0.698132,-0.174533,-0.174533,-1.03828,-0.680965,-0.132538,-0.186055,-0.891754,-0.480674,-0.62994,0.172864
23,45,-1.0472,-0.698132,-0.174533,-0.174533,-1.03828,-0.680965,-0.132538,-0.186055,-0.891754,-0.480674,-0.62994,0.172864
23,45,-1.0472,-0.698132,-0.174533,-0.174533,-1.03828,-0.680965,-0.132477,-0.186075,-0.891754,-0.480674,-0.630854,0.173167
23,45,-1.0472,-0.698132,-0.174533,-0.174533,-1.03828,-0.680965,-0.132477,-0.186075,-0.891754,-0.480674,-0.630854,0.173167
23,45,-1.0472,-0.698132,-0.174533,-0.174533,-1.03828,-0.680965,-0.132477,-0.186075,-0.891754,-0.480674,-0.630854,0.173167
23,45,-1.0472,-0.698132,-0.174533,-0.174533,-1.03828,-0.680965,-0.132477,-0.186075,-0.891754,-0.480674,-0.630854,0.173167
23,45,-1.0472,-0.698132,-0.174533,-0.174533,-1.03828,-0.680965,-0.132477,-0.186075,-0.891754,-0.480674,-0.630854,0.173167
23,45,-1.0472,-0.698132,-0.174533,-0.174533,-1.03828,-0.680965,-0.132477,-0.186075,-0.891754,-0.480674,-0.630854,0.173167
23,45,-1.0472,-0.698132,-0.174533,-0.174533,-1.03828,-0.680965,-0.132477,-0.186075,-0.891754,-0.480674,-0.630854,0.173167
23,45,-1.0472,-0.698132,-0.174533,-0.174533,-1.03828,-0.680965,-0.132477,-0.186075,-0.891754,-0.480674,-0.630854,0.173167
23,45,-1.0472,-0.698132,-0.174533,-0.174533,-1.03828,-0.680965,-0.132416,-0.186095,-0.891754,-0.480674,-0.631766,0.17347
23,45,-1.0472,-0.698132,-0.174533,-0.174533,-1.03828,-0.680965,-0.132416,-0.186095,-0.891754,-0.480674,-0.631766,0.17347
23,45,-1.0472,-0.698132,-0.174533,-0.174533,-1.03828,-0.680965,-0.132481,-0.186136,-0.891754,-0.480674,-0.630808,0.17408
23,45,-1.0472,-0.698132,-0.174533,-0.174533,-1.03828,-0.680965,-0.132481,-0.186136,-0.891754,-0.480674,-0.630808,0.17408
23,45,-1.0472,-0.698132,-0.174533,-0.174533,-1.03828,-0.680965,-0.132481,-0.186136,-0.891754,-0.480674,-0.630808,0.17408
23,45,-1.0472,-0.698132,-0.174533,-0.174533,-1.03828,-0.680965,-0.132481,-0.186136,-0.891754,-0.480674,-0.630808,0.17408
23,45,-1.0472,-0.698132,-0.174533,-0.174533,-1.03828,-0.680965,-0.132481,-0.186136,-0.891754,-0.480674,-0.630808,0.17408
23,45,-1.0472,-0.698132,-0.174533,-0.174533,-1.03828,-0.680965,-0.132481,-0.186136,-0.891754,-0.480674,-0.630808,0.17408
23,45,-1.0472,-0.698132,-0.174533,-0.174533,-1.03828,-0.680965,-0.132481,-0.186136,-0.891754,-0.480674,-0.630808,0.17408
23,45,-1.0472,-0.698132,-0.174533,-0.174533,-1.03828,-0.680965,-0.132481,-0.186136,-0.891754,-0.480674,-0.630808,0.17408
23,45,-1.0472,-0.698132,-0.174533,-0.174533,-1.03828,-0.680965,-0.13242,-0.186156,-0.891754,-0.480674,-0.631727,0.174385
23,45,-1.0472,-0.698132,-0.174533,-0.174533,-1.03828,-0.680965,-0.13242,-0.186156,-0.891754,-0.480674,-0.631727,0.174385
23,45,-1.0472,-0.698132,-0.174533,-0.174533,-1.03828,-0.680965,-0.13242,-0.186156,-0.891754,-0.480674,-0.631727,0.174385
23,45,-1.0472,-0.698132,-0.174533,-0.174533,-1.03828,-0.680965,-0.13242,-0.186156,-0.891754,-0.480674,-0.631727,0.174385
23,45,-1.0472,-0.698132,-0.174533,-0.174533,-1.03828,-0.680965,-0.13242,-0.186156,-0.891754,-0.480674,-0.631727,0.174385
23,45,-1.0472,-0.698132,-0.174533,-0.174533,-1.03828,-0.680965,-0.132484,-0.186197,-0.891754,-0.480674,-0.630761,0.175
23,45,-1.0472,-0.698132,-0.174533,-0.174533,-1.03828,-0.680965,-0.132484,-0.186197,-0.891754,-0.480674,-0.630761,0.175
23,45,-1.0472,-0.698132,-0.174533,-0.174533,-1.03828,-0.680965,-0.132424,-0.186217,-0.891754,-0.480674,-0.631672,0.175302
23,45,-1.0472,-0.698132,-0.174533,-0.174533,-1.03828,-0.680965,-0.132424,-0.186217,-0.891754,-0.480674,-0.631672,0.175302
23,45,-1.0472,-0.698132,-0.174533,-0.174533,-1.03828,-0.680965,-0.132424,-0.186217,-0.891754,-0.480674,-0.631672,0.175302
23,45,-1.0472,-0.698132,-0.174533,-0.174533,-1.03828,-0.680965,-0.132424,-0.186217,-0.891754,-0.480674,-0.631672,0.175302
23,45,-1.0472,-0.698132,-0.174533,-0.174533,-1.03828,-0.680965,-0.132424,-0.186217,-0.891754,-0.480674,-0.631672,0.175302
23,45,-1.0472,-0.698132,-0.174533,-0.174533,-1.03828,-0.680965,-0.132424,-0.186217,-0.891754,-0.480674,-0.631672,0.175302
23,45,-1.0472,-0.698132,-0.174533,-0.174533,-1.03828,-0.680965,-0.132424,-0.186217,-0.891754,-0.480674,-0.631672,0.175302
23,45,-1.0472,-0.698132,-0.174533,-0.174533,-1.03828,-0.680965,-0.132424,-0.186217,-0.891754,-0.480674,-0.631672,0.175302
23,45,-1.0472,-0.698132,-0.174533,-0.174533,-1.03828,-0.680965,-0.132427,-0.186278,-0.891754,-0.480674,-0.63162,0.17622
23,45,-1.0472,-0.698132,-0.174533,-0.174533,-1.03828,-0.680965,-0.132427,-0.186278,-0.891754,-0.480674,-0.63162,0.17622
23,45,-1.0472,-0.698132,-0.174533,-0.174533,-1.03828,-0.680965,-0.132427,-0.186278,-0.891754,-0.480674,-0.63162,0.17622
23,45,-1.0472,-0.698132,-0.174533,-0.174533,-1.03828,-0.680965,-0.132427,-0.186278,-0.891754,-0.480674,-0.63162,0.17622
23,45,-1.0472,-0.698132,-0.174533,-0.174533,-1.03828,-0.680965,-0.132427,-0.186278,-0.891754,-0.480674,-0.63162,0.17622
23,45,-1.0472,-0.698132,-0.174533,-0.174533,-1.03828,-0.680965,-0.132427,-0.186278,-0.891754,-0.480674,-0.63162,0.17622
23,45,-1.0472,-0.698132,-0.174533,-0.174533,-1.03828,-0.680965,-0.132427,-0.186278,-0.891754,-0.480674,-0.63162,0.17622
23,45,-1.0472,-0.698132,-0.174533,-0.174533,-1.03828,-0.680965,-0.132427,-0.186278,-0.891754,-0.480674,-0.63162,0.17622
23,45,-1.0472,-0.698132,-0.174533,-0.174533,-1.03828,-0.680965,-0.132427,-0.186278,-0.891754,-0.480674,-0.63162,0.17622
23,45,-1.0472,-0.698132,-0.174533,-0.174533,-1.03828,-0.680965,-0.132427,-0.186278,-0.891754,-0.480674,-0.63162,0.17622
23,45,-1.0472,-0.698132,-0.174533,-0.174533,-1.03828,-0.680965,-0.132427,-0.186278,-0.891754,-0.480674,-0.63162,0.17622
23,45,-1.0472,-0.698132,-0.174533,-0.174533,-1.03828,-0.680965,-0.132367,-0.186298,-0.891754,-0.480674,-0.632523,0.176519
23,45,-1.0472,-0.698132,-0.174533,-0.174533,-1.03828,-0.680965,-0.132367,-0.186298,-0.891754,-0.480674,-0.632523,0.176519
23,45,-1.0472,-0.698132,-0.174533,-0.174533,-1.03828,-0.680965,-0.132367,-0.186298,-0.891754,-0.480674,-0.632523,0.176519
23,45,-1.0472,-0.698132,-0.174533,-0.174533,-1.03828,-0.680965,-0.132367,-0.186298,-0.891754,-0.480674,-0.632523,0.176519
23,45,-1.0472,-0.698132,-0.174533,-0.174533,-1.03828,-0.680965,-0.132367,-0.186298,-0.891754,-0.480674,-0.632523,0.176519
23,45,-1.0472,-0.698132,-0.174533,-0.174533,-1.03828,-0.680965,-0.132367,-0.186298,-0.891754,-0.480674,-0.632523,0.176519
23,45,-1.0472,-0.698132,-0.174533,-0.174533,-1.03828,-0.680965,-0.132367,-0.186298,-0.891754,-0.480674,-0.632523,0.176519
23,45,-1.0472,-0.698132,-0.174533,-0.174533,-1.03828,-0.680965,-0.132431,-0.186338,-0.891754,-0.480674,-0.631553,0.177136
23,45,-1.0472,-0.698132,-0.174533,-0.174533,-1.03828,-0.680965,-0.132431,-0.186338,-0.891754,-0.480674,-0.631553,0.177136
23,45,-1.0472,-0.698132,-0.174533,-0.174533,-1.03828,-0.680965,-0.132431,-0.186338,-0.891754,-0.480674,-0.631553,0.177136
23,45,-1.0472,-0.698132,-0.174533,-0.174533,-1.03828,-0.680965,-0.13237,-0.186359,-0.891754,-0.480674,-0.632462,0.177437
23,45,-1.0472,-0.698132,-0.174533,-0.174533,-1.03828,-0.680965,-0.13237,-0.186359,-0.891754,-0.480674,-0.632462,0.177437
23,45,-1.0472,-0.698132,-0.174533,-0.174533,-1.03828,-0.680965,-0.13237,-0.186359,-0.891754,-0.480674,-0.632462,0.177437
23,45,-1.0472,-0.698132,-0.174533,-0.174533,-1.03828,-0.680965,-0.13237,-0.186359,-0.891754,-0.480674,-0.632462,0.177437
23,45,-1.0472,-0.698132,-0.174533,-0.174533,-1.03828,-0.680965,-0.13237,-0.186359,-0.891754,-0.480674,-0.632462,0.177437
23,45,-1.0472,-0.698132,-0.174533,-0.174533,-1.03828,-0.680965,-0.13237,-0.186359,-0.891754,-0.480674,-0.632462,0.177437
23,45,-1.0472,-0.698132,-0.174533,-0.174533,-1.03828,-0.680965,-0.13237,-0.186359,-0.891754,-0.480674,-0.632462,0.177437
23,45,-1.0472,-0.698132,-0.174533,-0.174533,-1.03828,-0.680965,-0.132434,-0.186399,-0.891754,-0.480674,-0.631496,0.178052
23,45,-1.0472,-0.698132,-0.174533,-0.174533,-1.03828,-0.680965,-0.132374,-0.18642,-0.891754,-0.480674,-0.632405,0.178353
23,45,-1.0472,-0.698132,-0.174533,-0.174533,-1.03828,-0.680965,-0.132374,-0.18642,-0.891754,-0.480674,-0.632405,0.178353
23,45,-1.0472,-0.698132,-0.174533,-0.174533,-1.03828,-0.680965,-0.132374,-0.18642,-0.891754,-0.480674,-0.632405,0.178353
23,45,-1.0472,-0.698132,-0.174533,-0.174533,-1.03828,-0.680965,-0.132374,-0.18642,-0.891754,-0.480674,-0.632405,0.178353
23,45,-1.0472,-0.698132,-0.174533,-0.174533,-1.03828,-0.680965,-0.132374,-0.18642,-0.891754,-0.480674,-0.632405,0.178353
23,45,-1.0472,-0.698132,-0.174533,-0.174533,-1.03828,-0.680965,-0.132374,-0.18642,-0.891754,-0.480674,-0.632405,0.178353
23,45,-1.0472,-0.698132,-0.174533,-0.174533,-1.03828,-0.680965,-0.132313,-0.18644,-0.891754,-0.480674,-0.633316,0.178655
23,45,-1.0472,-0.698132,-0.174533,-0.174533,-1.03828,-0.680965,-0.132313,-0.18644,-0.891754,-0.480674,-0.633316,0.178655
23,45,-1.0472,-0.698132,-0.174533,-0.174533,-1.03828,-0.680965,-0.132313,-0.18644,-0.891754,-0.480674,-0.633316,0.178655
23,45,-1.0472,-0.698132,-0.174533,-0.174533,-1.03828,-0.680965,-0.132313,-0.18644,-0.891754,-0.480674,-0.633316,0.178655
23,45,-1.0472,-0.698132,-0.174533,-0.174533,-1.03828,-0.680965,-0.132313,-0.18644,-0.891754,-0.480674,-0.633316,0.178655
23,45,-1.0472,-0.698132,-0.174533,-0.174533,-1.03828,-0.680965,-0.132313,-0.18644,-0.891754,-0.480674,-0.633316,0.178655
23,45,-1.0472,-0.698132,-0.174533,-0.174533,-1.03828,-0.680965,-0.132313,-0.18644,-0.891754,-0.480674,-0.633316,0.178655
23,45,-1.0472,-0.698132,-0.174533,-0.174533,-1.03828,-0.680965,-0.132313,-0.18644,-0.891754,-0.480674,-0.633316,0.178655
23,45,-1.0472,-0.698132,-0.174533,-0.174533,-1.03828,-0.680965,-0.132313,-0.18644,-0.891754,-0.480674,-0.633316,0.178655
23,45,-1.0472,-0.698132,-0.174533,-0.174533,-1.03828,-0.680965,-0.132313,-0.18644,-0.891754,-0.480674,-0.633316,0.178655
23,45,-1.0472,-0.698132,-0.174533,-0.174533,-1.03828,-0.680965,-0.132313,-0.18644,-0.891754,-0.480674,-0.633316,0.178655
23,45,-1.0472,-0.698132,-0.174533,-0.174533,-1.03828,-0.680965,-0.132252,-0.18646,-0.891754,-0.480674,-0.634226,0.178957
23,45,-1.0472,-0.698132,-0.174533,-0.174533,-1.03828,-0.680965,-0.132317,-0.186501,-0.891754,-0.480674,-0.633268,0.179566
23,45,-1.0472,-0.698132,-0.174533,-0.174533,-1.03828,-0.680965,-0.132317,-0.186501,-0.891754,-0.480674,-0.633268,0.179566
23,45,-1.0472,-0.698132,-0.174533,-0.174533,-1.03828,-0.680965,-0.132317,-0.186501,-0.891754,-0.480674,-0.633268,0.179566
23,45,-1.0472,-0.698132,-0.174533,-0.174533,-1.03828,-0.680965,-0.132317,-0.186501,-0.891754,-0.480674,-0.633268,0.179566
23,45,-1.0472,-0.698132,-0.174533,-0.174533,-1.03828,-0.680965,-0.132317,-0.186501,-0.891754,-0.480674,-0.633268,0.179566
23,45,-1.0472,-0.698132,-0.174533,-0.174533,-1.03828,-0.680965,-0.132317,-0.186501,-0.891754,-0.480674,-0.633268,0.179566
23,45,-1.0472,-0.698132,-0.174533,-0.174533,-1.03828,-0.680965,-0.132317,-0.186501,-0.891754,-0.480674,-0.633268,0.179566
23,45,-1.0472,-0.698132,-0.174533,-0.174533,-1.03828,-0.680965,-0.132317,-0.186501,-0.891754,-0.480674,-0.633268,0.179566
23,45,-1.0472,-0.698132,-0.174533,-0.174533,-1.03828,-0.680965,-0.132317,-0.186501,-0.891754,-0.480674,-0.633268,0.179566
23,45,-1.0472,-0.698132,-0.174533,-0.174533,-1.03828,-0.680965,-0.132256,-0.186521,-0.891754,-0.480674,-0.634178,0.179868
23,45,-1.0472,-0.698132,-0.174533,-0.174533,-1.03828,-0.680965,-0.132256,-0.186521,-0.891754,-0.480674,-0.634178,0.179868
23,45,-1.0472,-0.698132,-0.174533,-0.174533,-1.03828,-0.680965,-0.132256,-0.186521,-0.891754,-0.480674,-0.634178,0.179868
23,45,-1.0472,-0.698132,-0.174533,-0.174533,-1.03828,-0.680965,-0.132256,-0.186521,-0.891754,-0.480674,-0.634178,0.179868
23,45,-1.0472,-0.698132,-0.174533,-0.174533,-1.03828,-0.680965,-0.132256,-0.186521,-0.891754,-0.480674,-0.634178,0.179868
23,45,-1.0472,-0.698132,-0.174533,-0.174533,-1.03828,-0.680965,-0.132256,-0.186521,-0.891754,-0.480674,-0.634178,0.179868
23,45,-1.0472,-0.698132,-0.174533,-0.174533,-1.03828,-0.680965,-0.132256,-0.186521,-0.891754,-0.480674,-0.634178,0.179868
23,45,-1.0472,-0.698132,-0.174533,-0.174533,-1.03828,-0.680965,-0.13232,-0.186561,-0.891754,-0.480674,-0.633219,0.180478
23,45,-1.0472,-0.698132,-0.174533,-0.174533,-1.03828,-0.680965,-0.13232,-0.186561,-0.891754,-0.480674,-0.633219,0.180478
23,45,-1.0472,-0.698132,-0.174533,-0.174533,-1.03828,-0.680965,-0.13232,-0.186561,-0.891754,-0.480674,-0.633219,0.180478
23,45,-1.0472,-0.698132,-0.174533,-0.174533,-1.03828,-0.680965,-0.13226,-0.186582,-0.891754,-0.480674,-0.634123,0.180777
23,45,-1.0472,-0.698132,-0.174533,-0.174533,-1.03828,-0.680965,-0.13226,-0.186582,-0.891754,-0.480674,-0.634123,0.180777
23,45,-1.0472,-0.698132,-0.174533,-0.174533,-1.03828,-0.680965,-0.13226,-0.186582,-0.891754,-0.480674,-0.634123,0.180777
23,45,-1.0472,-0.698132,-0.174533,-0.174533,-1.03828,-0.680965,-0.13226,-0.186582,-0.891754,-0.480674,-0.634123,0.180777
23,45,-1.0472,-0.698132,-0.174533,-0.174533,-1.03828,-0.680965,-0.13226,-0.186582,-0.891754,-0.480674,-0.634123,0.180777
23,45,-1.0472,-0.698132,-0.174533,-0.174533,-1.03828,-0.680965,-0.13226,-0.186582,-0.891754,-0.480674,-0.634123,0.180777
23,45,-1.0472,-0.698132,-0.174533,-0.174533,-1.03828,-0.680965,-0.13226,-0.186582,-0.891754,-0.480674,-0.634123,0.180777
23,45,-1.0472,-0.698132,-0.174533,-0.174533,-1.03828,-0.680965,-0.13226,-0.186582,-0.891754,-0.480674,-0.634123,0.180777
23,45,-1.0472,-0.698132,-0.174533,-0.174533,-1.03828,-0.680965,-0.132199,-0.186602,-0.891754,-0.480674,-0.635031,0.181078
23,45,-1.0472,-0.698132,-0.174533,-0.174533,-1.03828,-0.680965,-0.132263,-0.186643,-0.891754,-0.480674,-0.634064,0.181693
23,45,-1.0472,-0.698132,-0.174533,-0.174533,-1.03828,-0.680965,-0.132263,-0.186643,-0.891754,-0.480674,-0.634064,0.181693
23,45,-1.0472,-0.698132,-0.174533,-0.174533,-1.03828,-0.680965,-0.132263,-0.186643,-0.891754,-0.480674,-0.634064,0.181693
23,45,-1.0472,-0.698132,-0.174533,-0.174533,-1.03828,-0.680965,-0.132263,-0.186643,-0.891754,-0.480674,-0.634064,0.181693
23,45,-1.0472,-0.698132,-0.174533,-0.174533,-1.03828,-0.680965,-0.132263,-0.186643,-0.891754,-0.480674,-0.634064,0.181693
23,45,-1.0472,-0.698132,-0.174533,-0.174533,-1.03828,-0.680965,-0.132263,-0.186643,-0.891754,-0.480674,-0.634064,0.181693
23,45,-1.0472,-0.698132,-0.174533,-0.174533,-1.03828,-0.680965,-0.132263,-0.186643,-0.891754,-0.480674,-0.634064,0.181693
23,45,-1.0472,-0.698132,-0.174533,-0.174533,-1.03828,-0.680965,-0.132203,-0.186663,-0.891754,-0.480674,-0.634979,0.181997
23,45,-1.0472,-0.698132,-0.174533,-0.174533,-1.03828,-0.680965,-0.132203,-0.186663,-0.891754,-0.480674,-0.634979,0.181997
23,45,-1.0472,-0.698132,-0.174533,-0.174533,-1.03828,-0.680965,-0.132267,-0.186703,-0.891754,-0.480674,-0.634015,0.18261
23,45,-1.0472,-0.698132,-0.174533,-0.174533,-1.03828,-0.680965,-0.132267,-0.186703,-0.891754,-0.480674,-0.634015,0.18261
23,45,-1.0472,-0.698132,-0.174533,-0.174533,-1.03828,-0.680965,-0.132267,-0.186703,-0.891754,-0.480674,-0.634015,0.18261
23,45,-1.0472,-0.698132,-0.174533,-0.174533,-1.03828,-0.680965,-0.132267,-0.186703,-0.891754,-0.480674,-0.634015,0.18261
23,45,-1.0472,-0.698132,-0.174533,-0.174533,-1.03828,-0.680965,-0.132267,-0.186703,-0.891754,-0.480674,-0.634015,0.18261
23,45,-1.0472,-0.698132,-0.174533,-0.174533,-1.03828,-0.680965,-0.132206,-0.186724,-0.891754,-0.480674,-0.63493,0.182913
23,45,-1.0472,-0.698132,-0.174533,-0.174533,-1.03828,-0.680965,-0.132206,-0.186724,-0.891754,-0.480674,-0.63493,0.182913
23,45,-1.0472,-0.698132,-0.174533,-0.174533,-1.03828,-0.680965,-0.132206,-0.186724,-0.891754,-0.480674,-0.63493,0.182913
23,45,-1.0472,-0.698132,-0.174533,-0.174533,-1.03828,-0.680965,-0.132206,-0.186724,-0.891754,-0.480674,-0.63493,0.182913
23,45,-1.0472,-0.698132,-0.174533,-0.174533,-1.03828,-0.680965,-0.132206,-0.186724,-0.891754,-0.480674,-0.63493,0.182913
23,45,-1.0472,-0.698132,-0.174533,-0.174533,-1.03828,-0.680965,-0.132145,-0.186744,-0.891754,-0.480674,-0.635853,0.183219
23,45,-1.0472,-0.698132,-0.174533,-0.174533,-1.03828,-0.680965,-0.132145,-0.186744,-0.891754,-0.480674,-0.635853,0.183219
23,45,-1.0472,-0.698132,-0.174533,-0.174533,-1.03828,-0.680965,-0.13221,-0.186784,-0.891754,-0.480674,-0.634884,0.183835
23,45,-1.0472,-0.698132,-0.174533,-0.174533,-1.03828,-0.680965,-0.13221,-0.186784,-0.891754,-0.480674,-0.634884,0.183835
23,45,-1.0472,-0.698132,-0.174533,-0.174533,-1.03828,-0.680965,-0.13221,-0.186784,-0.891754,-0.480674,-0.634884,0.183835
23,45,-1.0472,-0.698132,-0.174533,-0.174533,-1.03828,-0.680965,-0.132149,-0.186805,-0.891754,-0.480674,-0.635801,0.184139
23,45,-1.0472,-0.698132,-0.174533,-0.174533,-1.03828,-0.680965,-0.132149,-0.186805,-0.891754,-0.480674,-0.635801,0.184139
23,45,-1.0472,-0.698132,-0.174533,-0.174533,-1.03828,-0.680965,-0.132149,-0.186805,-0.891754,-0.480674,-0.635801,0.184139
23,45,-1.0472,-0.698132,-0.174533,-0.174533,-1.03828,-0.680965,-0.132149,-0.186805,-0.891754,-0.480674,-0.635801,0.184139
23,45,-1.0472,-0.698132,-0.174533,-0.174533,-1.03828,-0.680965,-0.132088,-0.186825,-0.891754,-0.480674,-0.636727,0.184446
23,45,-1.0472,-0.698132,-0.174533,-0.174533,-1.03828,-0.680965,-0.132088,-0.186825,-0.891754,-0.480674,-0.636727,0.184446
23,45,-1.0472,-0.698132,-0.174533,-0.174533,-1.03828,-0.680965,-0.132088,-0.186825,-0.891754,-0.480674,-0.636727,0.184446
23,45,-1.0472,-0.698132,-0.174533,-0.174533,-1.03828,-0.680965,-0.132088,-0.186825,-0.891754,-0.480674,-0.636727,0.184446
23,45,-1.0472,-0.698132,-0.174533,-0.174533,-1.03828,-0.680965,-0.132153,-0.186866,-0.891754,-0.480674,-0.635758,0.185063
23,45,-1.0472,-0.698132,-0.174533,-0.174533,-1.03828,-0.680965,-0.132092,-0.186886,-0.891754,-0.480674,-0.636679,0.185368
23,45,-1.0472,-0.698132,-0.174533,-0.174533,-1.03828,-0.680965,-0.132092,-0.186886,-0.891754,-0.480674,-0.636679,0.185368
23,45,-1.0472,-0.698132,-0.174533,-0.174533,-1.03828,-0.680965,-0.132092,-0.186886,-0.891754,-0.480674,-0.636679,0.185368
23,45,-1.0472,-0.698132,-0.174533,-0.174533,-1.03828,-0.680965,-0.132092,-0.186886,-0.891754,-0.480674,-0.636679,0.185368
23,45,-1.0472,-0.698132,-0.174533,-0.174533,-1.03828,-0.680965,-0.132031,-0.186906,-0.891754,-0.480674,-0.637597,0.185673
23,45,-1.0472,-0.698132,-0.174533,-0.174533,-1.03828,-0.680965,-0.132031,-0.186906,-0.891754,-0.480674,-0.637597,0.185673
23,45,-1.0472,-0.698132,-0.174533,-0.174533,-1.03828,-0.680965,-0.132031,-0.186906,-0.891754,-0.480674,-0.637597,0.185673
23,45,-1.0472,-0.698132,-0.174533,-0.174533,-1.03828,-0.680965,-0.132031,-0.186906,-0.891754,-0.480674,-0.637597,0.185673
23,45,-1.0472,-0.698132,-0.174533,-0.174533,-1.03828,-0.680965,-0.132031,-0.186906,-0.891754,-0.480674,-0.637597,0.185673
23,45,-1.0472,-0.698132,-0.174533,-0.174533,-1.03828,-0.680965,-0.131971,-0.186926,-0.891754,-0.480674,-0.638515,0.185977
23,45,-1.0472,-0.698132,-0.174533,-0.174533,-1.03828,-0.680965,-0.131971,-0.186926,-0.891754,-0.480674,-0.638515,0.185977
23,45,-1.0472,-0.698132,-0.174533,-0.174533,-1.03828,-0.680965,-0.131971,-0.186926,-0.891754,-0.480674,-0.638515,0.185977
23,45,-1.0472,-0.698132,-0.174533,-0.174533,-1.03828,-0.680965,-0.131971,-0.186926,-0.891754,-0.480674,-0.638515,0.185977
23,45,-1.0472,-0.698132,-0.174533,-0.174533,-1.03828,-0.680965,-0.13191,-0.186946,-0.891754,-0.480674,-0.639423,0.186278
23,45,-1.0472,-0.698132,-0.174533,-0.174533,-1.03828,-0.680965,-0.13191,-0.186946,-0.891754,-0.480674,-0.639423,0.186278
23,45,-1.0472,-0.698132,-0.174533,-0.174533,-1.03828,-0.680965,-0.13191,-0.186946,-0.891754,-0.480674,-0.639423,0.186278
23,45,-1.0472,-0.698132,-0.174533,-0.174533,-1.03828,-0.680965,-0.13191,-0.186946,-0.891754,-0.480674,-0.639423,0.186278
23,45,-1.0472,-0.698132,-0.174533,-0.174533,-1.03828,-0.680965,-0.13191,-0.186946,-0.891754,-0.480674,-0.639423,0.186278
23,45,-1.0472,-0.698132,-0.174533,-0.174533,-1.03828,-0.680965,-0.131849,-0.186966,-0.891754,-0.480674,-0.640334,0.18658
23,45,-1.0472,-0.698132,-0.174533,-0.174533,-1.03828,-0.680965,-0.131849,-0.186966,-0.891754,-0.480674,-0.640334,0.18658
23,45,-1.0472,-0.698132,-0.174533,-0.174533,-1.03828,-0.680965,-0.131849,-0.186966,-0.891754,-0.480674,-0.640334,0.18658
23,45,-1.0472,-0.698132,-0.174533,-0.174533,-1.03828,-0.680965,-0.131849,-0.186966,-0.891754,-0.480674,-0.640334,0.18658
23,45,-1.0472,-0.698132,-0.174533,-0.174533,-1.03828,-0.680965,-0.131853,-0.187027,-0.891754,-0.480674,-0.64029,0.187485
23,45,-1.0472,-0.698132,-0.174533,-0.174533,-1.03828,-0.680965,-0.131853,-0.187027,-0.891754,-0.480674,-0.64029,0.187485
23,45,-1.0472,-0.698132,-0.174533,-0.174533,-1.03828,-0.680965,-0.131853,-0.187027,-0.891754,-0.480674,-0.64029,0.187485
23,45,-1.0472,-0.698132,-0.174533,-0.174533,-1.03828,-0.680965,-0.131853,-0.187027,-0.891754,-0.480674,-0.64029,0.187485
23,45,-1.0472,-0.698132,-0.174533,-0.174533,-1.03828,-0.680965,-0.131792,-0.187047,-0.891754,-0.480674,-0.641205,0.187788
23,45,-1.0472,-0.698132,-0.174533,-0.174533,-1.03828,-0.680965,-0.131792,-0.187047,-0.891754,-0.480674,-0.641205,0.187788
23,45,-1.0472,-0.698132,-0.174533,-0.174533,-1.03828,-0.680965,-0.131792,-0.187047,-0.891754,-0.480674,-0.641205,0.187788
23,45,-1.0472,-0.698132,-0.174533,-0.174533,-1.03828,-0.680965,-0.131792,-0.187047,-0.891754,-0.480674,-0.641205,0.187788
23,45,-1.0472,-0.698132,-0.174533,-0.174533,-1.03828,-0.680965,-0.131732,-0.187067,-0.891754,-0.480674,-0.642114,0.188089
23,45,-1.0472,-0.698132,-0.174533,-0.174533,-1.03828,-0.680965,-0.131732,-0.187067,-0.891754,-0.480674,-0.642114,0.188089
23,45,-1.0472,-0.698132,-0.174533,-0.174533,-1.03828,-0.680965,-0.131732,-0.187067,-0.891754,-0.480674,-0.642114,0.188089
23,45,-1.0472,-0.698132,-0.174533,-0.174533,-1.03828,-0.680965,-0.131732,-0.187067,-0.891754,-0.480674,-0.642114,0.188089
23,45,-1.0472,-0.698132,-0.174533,-0.174533,-1.03828,-0.680965,-0.131732,-0.187067,-0.891754,-0.480674,-0.642114,0.188089
23,45,-1.0472,-0.698132,-0.174533,-0.174533,-1.03828,-0.680965,-0.131671,-0.187087,-0.891754,-0.480674,-0.64302,0.18839
23,45,-1.0472,-0.698132,-0.174533,-0.174533,-1.03828,-0.680965,-0.131671,-0.187087,-0.891754,-0.480674,-0.64302,0.18839
23,45,-1.0472,-0.698132,-0.174533,-0.174533,-1.03828,-0.680965,-0.131671,-0.187087,-0.891754,-0.480674,-0.64302,0.18839
23,45,-1.0472,-0.698132,-0.174533,-0.174533,-1.03828,-0.680965,-0.131735,-0.187128,-0.891754,-0.480674,-0.642061,0.188999
23,45,-1.0472,-0.698132,-0.174533,-0.174533,-1.03828,-0.680965,-0.131735,-0.187128,-0.891754,-0.480674,-0.642061,0.188999
23,45,-1.0472,-0.698132,-0.174533,-0.174533,-1.03828,-0.680965,-0.131735,-0.187128,-0.891754,-0.480674,-0.642061,0.188999
23,45,-1.0472,-0.698132,-0.174533,-0.174533,-1.03828,-0.680965,-0.131735,-0.187128,-0.891754,-0.480674,-0.642061,0.188999
23,45,-1.0472,-0.698132,-0.174533,-0.174533,-1.03828,-0.680965,-0.131675,-0.187148,-0.891754,-0.480674,-0.642957,0.189296
23,45,-1.0472,-0.698132,-0.174533,-0.174533,-1.03828,-0.680965,-0.131675,-0.187148,-0.891754,-0.480674,-0.642957,0.189296
23,45,-1.0472,-0.698132,-0.174533,-0.174533,-1.03828,-0.680965,-0.131675,-0.187148,-0.891754,-0.480674,-0.642957,0.189296
23,45,-1.0472,-0.698132,-0.174533,-0.174533,-1.03828,-0.680965,-0.131675,-0.187148,-0.891754,-0.480674,-0.642957,0.189296
23,45,-1.0472,-0.698132,-0.174533,-0.174533,-1.03828,-0.680965,-0.131675,-0.187148,-0.891754,-0.480674,-0.642957,0.189296
23,45,-1.0472,-0.698132,-0.174533,-0.174533,-1.03828,-0.680965,-0.131675,-0.187148,-0.891754,-0.480674,-0.642957,0.189296
23,45,-1.0472,-0.698132,-0.174533,-0.174533,-1.03828,-0.680965,-0.131614,-0.187168,-0.891754,-0.480674,-0.64385,0.189592
23,45,-1.0472,-0.698132,-0.174533,-0.174533,-1.03828,-0.680965,-0.131614,-0.187168,-0.891754,-0.480674,-0.64385,0.189592
23,45,-1.0472,-0.698132,-0.174533,-0.174533,-1.03828,-0.680965,-0.131614,-0.187168,-0.891754,-0.480674,-0.64385,0.189592
23,45,-1.0472,-0.698132,-0.174533,-0.174533,-1.03828,-0.680965,-0.131614,-0.187168,-0.891754,-0.480674,-0.64385,0.189592
23,45,-1.0472,-0.698132,-0.174533,-0.174533,-1.03828,-0.680965,-0.131614,-0.187168,-0.891754,-0.480674,-0.64385,0.189592
23,45,-1.0472,-0.698132,-0.174533,-0.174533,-1.03828,-0.680965,-0.131678,-0.187209,-0.891754,-0.480674,-0.642889,0.190203
23,45,-1.0472,-0.698132,-0.174533,-0.174533,-1.03828,-0.680965,-0.131678,-0.187209,-0.891754,-0.480674,-0.642889,0.190203
23,45,-1.0472,-0.698132,-0.174533,-0.174533,-1.03828,-0.680965,-0.131678,-0.187209,-0.891754,-0.480674,-0.642889,0.190203
23,45,-1.0472,-0.698132,-0.174533,-0.174533,-1.03828,-0.680965,-0.131678,-0.187209,-0.891754,-0.480674,-0.642889,0.190203
23,45,-1.0472,-0.698132,-0.174533,-0.174533,-1.03828,-0.680965,-0.131678,-0.187209,-0.891754,-0.480674,-0.642889,0.190203
23,45,-1.0472,-0.698132,-0.174533,-0.174533,-1.03828,-0.680965,-0.131678,-0.187209,-0.891754,-0.480674,-0.642889,0.190203
23,45,-1.0472,-0.698132,-0.174533,-0.174533,-1.03828,-0.680965,-0.131678,-0.187209,-0.891754,-0.480674,-0.642889,0.190203
23,45,-1.0472,-0.698132,-0.174533,-0.174533,-1.03828,-0.680965,-0.131678,-0.187209,-0.891754,-0.480674,-0.642889,0.190203
23,45,-1.0472,-0.698132,-0.174533,-0.174533,-1.03828,-0.680965,-0.131678,-0.187209,-0.891754,-0.480674,-0.642889,0.190203
23,45,-1.0472,-0.698132,-0.174533,-0.174533,-1.03828,-0.680965,-0.131678,-0.187209,-0.891754,-0.480674,-0.642889,0.190203
23,45,-1.0472,-0.698132,-0.174533,-0.174533,-1.03828,-0.680965,-0.131678,-0.187209,-0.891754,-0.480674,-0.642889,0.190203
23,45,-1.0472,-0.698132,-0.174533,-0.174533,-1.03828,-0.680965,-0.131678,-0.187209,-0.891754,-0.480674,-0.642889,0.190203
23,45,-1.0472,-0.698132,-0.174533,-0.174533,-1.03828,-0.680965,-0.131617,-0.187229,-0.891754,-0.480674,-0.643761,0.190492
23,45,-1.0472,-0.698132,-0.174533,-0.174533,-1.03828,-0.680965,-0.131617,-0.187229,-0.891754,-0.480674,-0.643761,0.190492
23,45,-1.0472,-0.698132,-0.174533,-0.174533,-1.03828,-0.680965,-0.131682,-0.18727,-0.891754,-0.480674,-0.6428,0.191103
23,45,-1.0472,-0.698132,-0.174533,-0.174533,-1.03828,-0.680965,-0.131682,-0.18727,-0.891754,-0.480674,-0.6428,0.191103
23,45,-1.0472,-0.698132,-0.174533,-0.174533,-1.03828,-0.680965,-0.131682,-0.18727,-0.891754,-0.480674,-0.6428,0.191103
23,45,-1.0472,-0.698132,-0.174533,-0.174533,-1.03828,-0.680965,-0.131682,-0.18727,-0.891754,-0.480674,-0.6428,0.191103
23,45,-1.0472,-0.698132,-0.174533,-0.174533,-1.03828,-0.680965,-0.131682,-0.18727,-0.891754,-0.480674,-0.6428,0.191103
23,45,-1.0472,-0.698132,-0.174533,-0.174533,-1.03828,-0.680965,-0.131682,-0.18727,-0.891754,-0.480674,-0.6428,0.191103
23,45,-1.0472,-0.698132,-0.174533,-0.174533,-1.03828,-0.680965,-0.131746,-0.187311,-0.891754,-0.480674,-0.641824,0.191723
23,45,-1.0472,-0.698132,-0.174533,-0.174533,-1.03828,-0.680965,-0.131746,-0.187311,-0.891754,-0.480674,-0.641824,0.191723
23,45,-1.0472,-0.698132,-0.174533,-0.174533,-1.03828,-0.680965,-0.131685,-0.187331,-0.891754,-0.480674,-0.642725,0.192022
23,45,-1.0472,-0.698132,-0.174533,-0.174533,-1.03828,-0.680965,-0.131685,-0.187331,-0.891754,-0.480674,-0.642725,0.192022
23,45,-1.0472,-0.698132,-0.174533,-0.174533,-1.03828,-0.680965,-0.131685,-0.187331,-0.891754,-0.480674,-0.642725,0.192022
23,45,-1.0472,-0.698132,-0.174533,-0.174533,-1.03828,-0.680965,-0.131685,-0.187331,-0.891754,-0.480674,-0.642725,0.192022
23,45,-1.0472,-0.698132,-0.174533,-0.174533,-1.03828,-0.680965,-0.131685,-0.187331,-0.891754,-0.480674,-0.642725,0.192022
23,45,-1.0472,-0.698132,-0.174533,-0.174533,-1.03828,-0.680965,-0.131685,-0.187331,-0.891754,-0.480674,-0.642725,0.192022
23,45,-1.0472,-0.698132,-0.174533,-0.174533,-1.03828,-0.680965,-0.131749,-0.187372,-0.891754,-0.480674,-0.641754,0.192639
23,45,-1.0472,-0.698132,-0.174533,-0.174533,-1.03828,-0.680965,-0.131749,-0.187372,-0.891754,-0.480674,-0.641754,0.192639
23,45,-1.0472,-0.698132,-0.174533,-0.174533,-1.03828,-0.680965,-0.131749,-0.187372,-0.891754,-0.480674,-0.641754,0.192639
23,45,-1.0472,-0.698132,-0.174533,-0.174533,-1.03828,-0.680965,-0.131749,-0.187372,-0.891754,-0.480674,-0.641754,0.192639
23,45,-1.0472,-0.698132,-0.174533,-0.174533,-1.03828,-0.680965,-0.131689,-0.187392,-0.891754,-0.480674,-0.642659,0.192939
23,45,-1.0472,-0.698132,-0.174533,-0.174533,-1.03828,-0.680965,-0.131689,-0.187392,-0.891754,-0.480674,-0.642659,0.192939
23,45,-1.0472,-0.698132,-0.174533,-0.174533,-1.03828,-0.680965,-0.131753,-0.187433,-0.891754,-0.480674,-0.641679,0.193562
23,45,-1.0472,-0.698132,-0.174533,-0.174533,-1.03828,-0.680965,-0.131753,-0.187433,-0.891754,-0.480674,-0.641679,0.193562
23,45,-1.0472,-0.698132,-0.174533,-0.174533,-1.03828,-0.680965,-0.131753,-0.187433,-0.891754,-0.480674,-0.641679,0.193562
23,45,-1.0472,-0.698132,-0.174533,-0.174533,-1.03828,-0.680965,-0.131753,-0.187433,-0.891754,-0.480674,-0.641679,0.193562
23,45,-1.0472,-0.698132,-0.174533,-0.174533,-1.03828,-0.680965,-0.131753,-0.187433,-0.891754,-0.480674,-0.641679,0.193562
23,45,-1.0472,-0.698132,-0.174533,-0.174533,-1.03828,-0.680965,-0.131692,-0.187453,-0.891754,-0.480674,-0.642589,0.193863
23,45,-1.0472,-0.698132,-0.174533,-0.174533,-1.03828,-0.680965,-0.131692,-0.187453,-0.891754,-0.480674,-0.642589,0.193863
23,45,-1.0472,-0.698132,-0.174533,-0.174533,-1.03828,-0.680965,-0.131692,-0.187453,-0.891754,-0.480674,-0.642589,0.193863
23,45,-1.0472,-0.698132,-0.174533,-0.174533,-1.03828,-0.680965,-0.131692,-0.187453,-0.891754,-0.480674,-0.642589,0.193863
23,45,-1.0472,-0.698132,-0.174533,-0.174533,-1.03828,-0.680965,-0.131757,-0.187494,-0.891754,-0.480674,-0.641612,0.194484
23,45,-1.0472,-0.698132,-0.174533,-0.174533,-1.03828,-0.680965,-0.131757,-0.187494,-0.891754,-0.480674,-0.641612,0.194484
23,45,-1.0472,-0.698132,-0.174533,-0.174533,-1.03828,-0.680965,-0.131757,-0.187494,-0.891754,-0.480674,-0.641612,0.194484
23,45,-1.0472,-0.698132,-0.174533,-0.174533,-1.03828,-0.680965,-0.131757,-0.187494,-0.891754,-0.480674,-0.641612,0.194484
23,45,-1.0472,-0.698132,-0.174533,-0.174533,-1.03828,-0.680965,-0.131757,-0.187494,-0.891754,-0.480674,-0.641612,0.194484
23,45,-1.0472,-0.698132,-0.174533,-0.174533,-1.03828,-0.680965,-0.131757,-0.187494,-0.891754,-0.480674,-0.641612,0.194484
23,45,-1.0472,-0.698132,-0.174533,-0.174533,-1.03828,-0.680965,-0.131696,-0.187514,-0.891754,-0.480674,-0.642531,0.194789
23,45,-1.0472,-0.698132,-0.174533,-0.174533,-1.03828,-0.680965,-0.131696,-0.187514,-0.891754,-0.480674,-0.642531,0.194789
23,45,-1.0472,-0.698132,-0.174533,-0.174533,-1.03828,-0.680965,-0.131696,-0.187514,-0.891754,-0.480674,-0.642531,0.194789
23,45,-1.0472,-0.698132,-0.174533,-0.174533,-1.03828,-0.680965,-0.131696,-0.187514,-0.891754,-0.480674,-0.642531,0.194789
23,45,-1.0472,-0.698132,-0.174533,-0.174533,-1.03828,-0.680965,-0.131696,-0.187514,-0.891754,-0.480674,-0.642531,0.194789
23,45,-1.0472,-0.698132,-0.174533,-0.174533,-1.03828,-0.680965,-0.131696,-0.187514,-0.891754,-0.480674,-0.642531,0.194789
23,45,-1.0472,-0.698132,-0.174533,-0.174533,-1.03828,-0.680965,-0.131696,-0.187514,-0.891754,-0.480674,-0.642531,0.194789
23,45,-1.0472,-0.698132,-0.174533,-0.174533,-1.03828,-0.680965,-0.13176,-0.187554,-0.891754,-0.480674,-0.641585,0.195391
23,45,-1.0472,-0.698132,-0.174533,-0.174533,-1.03828,-0.680965,-0.13176,-0.187554,-0.891754,-0.480674,-0.641585,0.195391
23,45,-1.0472,-0.698132,-0.174533,-0.174533,-1.03828,-0.680965,-0.131699,-0.187575,-0.891754,-0.480674,-0.642498,0.195693
23,45,-1.0472,-0.698132,-0.174533,-0.174533,-1.03828,-0.680965,-0.131699,-0.187575,-0.891754,-0.480674,-0.642498,0.195693
23,45,-1.0472,-0.698132,-0.174533,-0.174533,-1.03828,-0.680965,-0.131699,-0.187575,-0.891754,-0.480674,-0.642498,0.195693
23,45,-1.0472,-0.698132,-0.174533,-0.174533,-1.03828,-0.680965,-0.131699,-0.187575,-0.891754,-0.480674,-0.642498,0.195693
23,45,-1.0472,-0.698132,-0.174533,-0.174533,-1.03828,-0.680965,-0.131699,-0.187575,-0.891754,-0.480674,-0.642498,0.195693
23,45,-1.0472,-0.698132,-0.174533,-0.174533,-1.03828,-0.680965,-0.131699,-0.187575,-0.891754,-0.480674,-0.642498,0.195693
23,45,-1.0472,-0.698132,-0.174533,-0.174533,-1.03828,-0.680965,-0.131639,-0.187595,-0.891754,-0.480674,-0.643416,0.195997
23,45,-1.0472,-0.698132,-0.174533,-0.174533,-1.03828,-0.680965,-0.131639,-0.187595,-0.891754,-0.480674,-0.643416,0.195997
23,45,-1.0472,-0.698132,-0.174533,-0.174533,-1.03828,-0.680965,-0.131703,-0.187636,-0.891754,-0.480674,-0.642456,0.196608
23,45,-1.0472,-0.698132,-0.174533,-0.174533,-1.03828,-0.680965,-0.131703,-0.187636,-0.891754,-0.480674,-0.642456,0.196608
23,45,-1.0472,-0.698132,-0.174533,-0.174533,-1.03828,-0.680965,-0.131642,-0.187656,-0.891754,-0.480674,-0.643375,0.196912
23,45,-1.0472,-0.698132,-0.174533,-0.174533,-1.03828,-0.680965,-0.131642,-0.187656,-0.891754,-0.480674,-0.643375,0.196912
23,45,-1.0472,-0.698132,-0.174533,-0.174533,-1.03828,-0.680965,-0.131642,-0.187656,-0.891754,-0.480674,-0.643375,0.196912
23,45,-1.0472,-0.698132,-0.174533,-0.174533,-1.03828,-0.680965,-0.131642,-0.187656,-0.891754,-0.480674,-0.643375,0.196912
23,45,-1.0472,-0.698132,-0.174533,-0.174533,-1.03828,-0.680965,-0.131642,-0.187656,-0.891754,-0.480674,-0.643375,0.196912
23,45,-1.0472,-0.698132,-0.174533,-0.174533,-1.03828,-0.680965,-0.131642,-0.187656,-0.891754,-0.480674,-0.643375,0.196912
23,45,-1.0472,-0.698132,-0.174533,-0.174533,-1.03828,-0.680965,-0.131642,-0.187656,-0.891754,-0.480674,-0.643375,0.196912
23,45,-1.0472,-0.698132,-0.174533,-0.174533,-1.03828,-0.680965,-0.131642,-0.187656,-0.891754,-0.480674,-0.643375,0.196912
23,45,-1.0472,-0.698132,-0.174533,-0.174533,-1.03828,-0.680965,-0.131582,-0.187676,-0.891754,-0.480674,-0.644293,0.197216
23,45,-1.0472,-0.698132,-0.174533,-0.174533,-1.03828,-0.680965,-0.131582,-0.187676,-0.891754,-0.480674,-0.644293,0.197216
23,45,-1.0472,-0.698132,-0.174533,-0.174533,-1.03828,-0.680965,-0.131582,-0.187676,-0.891754,-0.480674,-0.644293,0.197216
23,45,-1.0472,-0.698132,-0.174533,-0.174533,-1.03828,-0.680965,-0.131582,-0.187676,-0.891754,-0.480674,-0.644293,0.197216
23,45,-1.0472,-0.698132,-0.174533,-0.174533,-1.03828,-0.680965,-0.131582,-0.187676,-0.891754,-0.480674,-0.644293,0.197216
23,45,-1.0472,-0.698132,-0.174533,-0.174533,-1.03828,-0.680965,-0.131582,-0.187676,-0.891754,-0.480674,-0.644293,0.197216
23,45,-1.0472,-0.698132,-0.174533,-0.174533,-1.03828,-0.680965,-0.131521,-0.187696,-0.891754,-0.480674,-0.645212,0.19752
23,45,-1.0472,-0.698132,-0.174533,-0.174533,-1.03828,-0.680965,-0.131521,-0.187696,-0.891754,-0.480674,-0.645212,0.19752
23,45,-1.0472,-0.698132,-0.174533,-0.174533,-1.03828,-0.680965,-0.131521,-0.187696,-0.891754,-0.480674,-0.645212,0.19752
23,45,-1.0472,-0.698132,-0.174533,-0.174533,-1.03828,-0.680965,-0.131521,-0.187696,-0.891754,-0.480674,-0.645212,0.19752
23,45,-1.0472,-0.698132,-0.174533,-0.174533,-1.03828,-0.680965,-0.131585,-0.187737,-0.891754,-0.480674,-0.644267,0.198121
23,45,-1.0472,-0.698132,-0.174533,-0.174533,-1.03828,-0.680965,-0.131525,-0.187757,-0.891754,-0.480674,-0.645184,0.198424
23,45,-1.0472,-0.698132,-0.174533,-0.174533,-1.03828,-0.680965,-0.131525,-0.187757,-0.891754,-0.480674,-0.645184,0.198424
23,45,-1.0472,-0.698132,-0.174533,-0.174533,-1.03828,-0.680965,-0.131525,-0.187757,-0.891754,-0.480674,-0.645184,0.198424
23,45,-1.0472,-0.698132,-0.174533,-0.174533,-1.03828,-0.680965,-0.131525,-0.187757,-0.891754,-0.480674,-0.645184,0.198424
23,45,-1.0472,-0.698132,-0.174533,-0.174533,-1.03828,-0.680965,-0.131525,-0.187757,-0.891754,-0.480674,-0.645184,0.198424
23,45,-1.0472,-0.698132,-0.174533,-0.174533,-1.03828,-0.680965,-0.131525,-0.187757,-0.891754,-0.480674,-0.645184,0.198424
23,45,-1.0472,-0.698132,-0.174533,-0.174533,-1.03828,-0.680965,-0.131464,-0.187777,-0.891754,-0.480674,-0.646085,0.198723
23,45,-1.0472,-0.698132,-0.174533,-0.174533,-1.03828,-0.680965,-0.131464,-0.187777,-0.891754,-0.480674,-0.646085,0.198723
23,45,-1.0472,-0.698132,-0.174533,-0.174533,-1.03828,-0.680965,-0.131464,-0.187777,-0.891754,-0.480674,-0.646085,0.198723
23,45,-1.0472,-0.698132,-0.174533,-0.174533,-1.03828,-0.680965,-0.131464,-0.187777,-0.891754,-0.480674,-0.646085,0.198723
23,45,-1.0472,-0.698132,-0.174533,-0.174533,-1.03828,-0.680965,-0.131464,-0.187777,-0.891754,-0.480674,-0.646085,0.198723
23,45,-1.0472,-0.698132,-0.174533,-0.174533,-1.03828,-0.680965,-0.131464,-0.187777,-0.891754,-0.480674,-0.646085,0.198723
23,45,-1.0472,-0.698132,-0.174533,-0.174533,-1.03828,-0.680965,-0.131464,-0.187777,-0.891754,-0.480674,-0.646085,0.198723
23,45,-1.0472,-0.698132,-0.174533,-0.174533,-1.03828,-0.680965,-0.131464,-0.187777,-0.891754,-0.480674,-0.646085,0.198723
23,45,-1.0472,-0.698132,-0.174533,-0.174533,-1.03828,-0.680965,-0.131403,-0.187797,-0.891754,-0.480674,-0.646994,0.199024
23,45,-1.0472,-0.698132,-0.174533,-0.174533,-1.03828,-0.680965,-0.131403,-0.187797,-0.891754,-0.480674,-0.646994,0.199024
23,45,-1.0472,-0.698132,-0.174533,-0.174533,-1.03828,-0.680965,-0.131403,-0.187797,-0.891754,-0.480674,-0.646994,0.199024
23,45,-1.0472,-0.698132,-0.174533,-0.174533,-1.03828,-0.680965,-0.131403,-0.187797,-0.891754,-0.480674,-0.646994,0.199024
23,45,-1.0472,-0.698132,-0.174533,-0.174533,-1.03828,-0.680965,-0.131403,-0.187797,-0.891754,-0.480674,-0.646994,0.199024
23,45,-1.0472,-0.698132,-0.174533,-0.174533,-1.03828,-0.680965,-0.131403,-0.187797,-0.891754,-0.480674,-0.646994,0.199024
23,45,-1.0472,-0.698132,-0.174533,-0.174533,-1.03828,-0.680965,-0.131342,-0.187817,-0.891754,-0.480674,-0.647906,0.199326
23,45,-1.0472,-0.698132,-0.174533,-0.174533,-1.03828,-0.680965,-0.131342,-0.187817,-0.891754,-0.480674,-0.647906,0.199326
23,45,-1.0472,-0.698132,-0.174533,-0.174533,-1.03828,-0.680965,-0.131342,-0.187817,-0.891754,-0.480674,-0.647906,0.199326
23,45,-1.0472,-0.698132,-0.174533,-0.174533,-1.03828,-0.680965,-0.131342,-0.187817,-0.891754,-0.480674,-0.647906,0.199326
23,45,-1.0472,-0.698132,-0.174533,-0.174533,-1.03828,-0.680965,-0.131282,-0.187837,-0.891754,-0.480674,-0.648817,0.199628
23,45,-1.0472,-0.698132,-0.174533,-0.174533,-1.03828,-0.680965,-0.131282,-0.187837,-0.891754,-0.480674,-0.648817,0.199628
23,45,-1.0472,-0.698132,-0.174533,-0.174533,-1.03828,-0.680965,-0.131282,-0.187837,-0.891754,-0.480674,-0.648817,0.199628
23,45,-1.0472,-0.698132,-0.174533,-0.174533,-1.03828,-0.680965,-0.131346,-0.187878,-0.891754,-0.480674,-0.647867,0.200231
23,45,-1.0472,-0.698132,-0.174533,-0.174533,-1.03828,-0.680965,-0.131285,-0.187898,-0.891754,-0.480674,-0.648788,0.200536
23,45,-1.0472,-0.698132,-0.174533,-0.174533,-1.03828,-0.680965,-0.131285,-0.187898,-0.891754,-0.480674,-0.648788,0.200536
23,45,-1.0472,-0.698132,-0.174533,-0.174533,-1.03828,-0.680965,-0.131285,-0.187898,-0.891754,-0.480674,-0.648788,0.200536
23,45,-1.0472,-0.698132,-0.174533,-0.174533,-1.03828,-0.680965,-0.131285,-0.187898,-0.891754,-0.480674,-0.648788,0.200536
23,45,-1.0472,-0.698132,-0.174533,-0.174533,-1.03828,-0.680965,-0.131285,-0.187898,-0.891754,-0.480674,-0.648788,0.200536
23,45,-1.0472,-0.698132,-0.174533,-0.174533,-1.03828,-0.680965,-0.131285,-0.187898,-0.891754,-0.480674,-0.648788,0.200536
23,45,-1.0472,-0.698132,-0.174533,-0.174533,-1.03828,-0.680965,-0.131225,-0.187918,-0.891754,-0.480674,-0.649708,0.200841
23,45,-1.0472,-0.698132,-0.174533,-0.174533,-1.03828,-0.680965,-0.131225,-0.187918,-0.891754,-0.480674,-0.649708,0.200841
23,45,-1.0472,-0.698132,-0.174533,-0.174533,-1.03828,-0.680965,-0.131225,-0.187918,-0.891754,-0.480674,-0.649708,0.200841
23,45,-1.0472,-0.698132,-0.174533,-0.174533,-1.03828,-0.680965,-0.131225,-0.187918,-0.891754,-0.480674,-0.649708,0.200841
23,45,-1.0472,-0.698132,-0.174533,-0.174533,-1.03828,-0.680965,-0.131225,-0.187918,-0.891754,-0.480674,-0.649708,0.200841
23,45,-1.0472,-0.698132,-0.174533,-0.174533,-1.03828,-0.680965,-0.131225,-0.187918,-0.891754,-0.480674,-0.649708,0.200841
23,45,-1.0472,-0.698132,-0.174533,-0.174533,-1.03828,-0.680965,-0.131225,-0.187918,-0.891754,-0.480674,-0.649708,0.200841
23,45,-1.0472,-0.698132,-0.174533,-0.174533,-1.03828,-0.680965,-0.131164,-0.187938,-0.891754,-0.480674,-0.65061,0.20114
23,45,-1.0472,-0.698132,-0.174533,-0.174533,-1.03828,-0.680965,-0.131164,-0.187938,-0.891754,-0.480674,-0.65061,0.20114
23,45,-1.0472,-0.698132,-0.174533,-0.174533,-1.03828,-0.680965,-0.131164,-0.187938,-0.891754,-0.480674,-0.65061,0.20114
23,45,-1.0472,-0.698132,-0.174533,-0.174533,-1.03828,-0.680965,-0.131164,-0.187938,-0.891754,-0.480674,-0.65061,0.20114
23,45,-1.0472,-0.698132,-0.174533,-0.174533,-1.03828,-0.680965,-0.131164,-0.187938,-0.891754,-0.480674,-0.65061,0.20114
23,45,-1.0472,-0.698132,-0.174533,-0.174533,-1.03828,-0.680965,-0.131164,-0.187938,-0.891754,-0.480674,-0.65061,0.20114
23,45,-1.0472,-0.698132,-0.174533,-0.174533,-1.03828,-0.680965,-0.131164,-0.187938,-0.891754,-0.480674,-0.65061,0.20114
23,45,-1.0472,-0.698132,-0.174533,-0.174533,-1.03828,-0.680965,-0.131103,-0.187958,-0.891754,-0.480674,-0.651512,0.201438
23,45,-1.0472,-0.698132,-0.174533,-0.174533,-1.03828,-0.680965,-0.131103,-0.187958,-0.891754,-0.480674,-0.651512,0.201438
23,45,-1.0472,-0.698132,-0.174533,-0.174533,-1.03828,-0.680965,-0.131103,-0.187958,-0.891754,-0.480674,-0.651512,0.201438
23,45,-1.0472,-0.698132,-0.174533,-0.174533,-1.03828,-0.680965,-0.131103,-0.187958,-0.891754,-0.480674,-0.651512,0.201438
23,45,-1.0472,-0.698132,-0.174533,-0.174533,-1.03828,-0.680965,-0.131103,-0.187958,-0.891754,-0.480674,-0.651512,0.201438
23,45,-1.0472,-0.698132,-0.174533,-0.174533,-1.03828,-0.680965,-0.131103,-0.187958,-0.891754,-0.480674,-0.651512,0.201438
23,45,-1.0472,-0.698132,-0.174533,-0.174533,-1.03828,-0.680965,-0.131103,-0.187958,-0.891754,-0.480674,-0.651512,0.201438
23,45,-1.0472,-0.698132,-0.174533,-0.174533,-1.03828,-0.680965,-0.131103,-0.187958,-0.891754,-0.480674,-0.651512,0.201438
23,45,-1.0472,-0.698132,-0.174533,-0.174533,-1.03828,-0.680965,-0.131167,-0.187999,-0.891754,-0.480674,-0.650585,0.202027
23,45,-1.0472,-0.698132,-0.174533,-0.174533,-1.03828,-0.680965,-0.131167,-0.187999,-0.891754,-0.480674,-0.650585,0.202027
23,45,-1.0472,-0.698132,-0.174533,-0.174533,-1.03828,-0.680965,-0.131107,-0.188019,-0.891754,-0.480674,-0.651474,0.202322
23,45,-1.0472,-0.698132,-0.174533,-0.174533,-1.03828,-0.680965,-0.131107,-0.188019,-0.891754,-0.480674,-0.651474,0.202322
23,45,-1.0472,-0.698132,-0.174533,-0.174533,-1.03828,-0.680965,-0.131107,-0.188019,-0.891754,-0.480674,-0.651474,0.202322
23,45,-1.0472,-0.698132,-0.174533,-0.174533,-1.03828,-0.680965,-0.131107,-0.188019,-0.891754,-0.480674,-0.651474,0.202322
23,45,-1.0472,-0.698132,-0.174533,-0.174533,-1.03828,-0.680965,-0.131107,-0.188019,-0.891754,-0.480674,-0.651474,0.202322
23,45,-1.0472,-0.698132,-0.174533,-0.174533,-1.03828,-0.680965,-0.131107,-0.188019,-0.891754,-0.480674,-0.651474,0.202322
23,45,-1.0472,-0.698132,-0.174533,-0.174533,-1.03828,-0.680965,-0.131107,-0.188019,-0.891754,-0.480674,-0.651474,0.202322
23,45,-1.0472,-0.698132,-0.174533,-0.174533,-1.03828,-0.680965,-0.131107,-0.188019,-0.891754,-0.480674,-0.651474,0.202322
23,45,-1.0472,-0.698132,-0.174533,-0.174533,-1.03828,-0.680965,-0.131107,-0.188019,-0.891754,-0.480674,-0.651474,0.202322
23,45,-1.0472,-0.698132,-0.174533,-0.174533,-1.03828,-0.680965,-0.131046,-0.188039,-0.891754,-0.480674,-0.652377,0.202621
23,45,-1.0472,-0.698132,-0.174533,-0.174533,-1.03828,-0.680965,-0.131046,-0.188039,-0.891754,-0.480674,-0.652377,0.202621
23,45,-1.0472,-0.698132,-0.174533,-0.174533,-1.03828,-0.680965,-0.131046,-0.188039,-0.891754,-0.480674,-0.652377,0.202621
23,45,-1.0472,-0.698132,-0.174533,-0.174533,-1.03828,-0.680965,-0.131046,-0.188039,-0.891754,-0.480674,-0.652377,0.202621
23,45,-1.0472,-0.698132,-0.174533,-0.174533,-1.03828,-0.680965,-0.131046,-0.188039,-0.891754,-0.480674,-0.652377,0.202621
23,45,-1.0472,-0.698132,-0.174533,-0.174533,-1.03828,-0.680965,-0.131046,-0.188039,-0.891754,-0.480674,-0.652377,0.202621
23,45,-1.0472,-0.698132,-0.174533,-0.174533,-1.03828,-0.680965,-0.131046,-0.188039,-0.891754,-0.480674,-0.652377,0.202621
23,45,-1.0472,-0.698132,-0.174533,-0.174533,-1.03828,-0.680965,-0.131046,-0.188039,-0.891754,-0.480674,-0.652377,0.202621
23,45,-1.0472,-0.698132,-0.174533,-0.174533,-1.03828,-0.680965,-0.131046,-0.188039,-0.891754,-0.480674,-0.652377,0.202621
23,45,-1.0472,-0.698132,-0.174533,-0.174533,-1.03828,-0.680965,-0.130985,-0.188059,-0.891754,-0.480674,-0.653284,0.202921
23,45,-1.0472,-0.698132,-0.174533,-0.174533,-1.03828,-0.680965,-0.130985,-0.188059,-0.891754,-0.480674,-0.653284,0.202921
23,45,-1.0472,-0.698132,-0.174533,-0.174533,-1.03828,-0.680965,-0.130985,-0.188059,-0.891754,-0.480674,-0.653284,0.202921
23,45,-1.0472,-0.698132,-0.174533,-0.174533,-1.03828,-0.680965,-0.130985,-0.188059,-0.891754,-0.480674,-0.653284,0.202921
23,45,-1.0472,-0.698132,-0.174533,-0.174533,-1.03828,-0.680965,-0.130985,-0.188059,-0.891754,-0.480674,-0.653284,0.202921
23,45,-1.0472,-0.698132,-0.174533,-0.174533,-1.03828,-0.680965,-0.130985,-0.188059,-0.891754,-0.480674,-0.653284,0.202921
23,45,-1.0472,-0.698132,-0.174533,-0.174533,-1.03828,-0.680965,-0.130985,-0.188059,-0.891754,-0.480674,-0.653284,0.202921
23,45,-1.0472,-0.698132,-0.174533,-0.174533,-1.03828,-0.680965,-0.130985,-0.188059,-0.891754,-0.480674,-0.653284,0.202921
23,45,-1.0472,-0.698132,-0.174533,-0.174533,-1.03828,-0.680965,-0.130985,-0.188059,-0.891754,-0.480674,-0.653284,0.202921
23,45,-1.0472,-0.698132,-0.174533,-0.174533,-1.03828,-0.680965,-0.130985,-0.188059,-0.891754,-0.480674,-0.653284,0.202921
23,45,-1.0472,-0.698132,-0.174533,-0.174533,-1.03828,-0.680965,-0.130985,-0.188059,-0.891754,-0.480674,-0.653284,0.202921
23,45,-1.0472,-0.698132,-0.174533,-0.174533,-1.03828,-0.680965,-0.130985,-0.188059,-0.891754,-0.480674,-0.653284,0.202921
23,45,-1.0472,-0.698132,-0.174533,-0.174533,-1.03828,-0.680965,-0.130985,-0.188059,-0.891754,-0.480674,-0.653284,0.202921
23,45,-1.0472,-0.698132,-0.174533,-0.174533,-1.03828,-0.680965,-0.130985,-0.188059,-0.891754,-0.480674,-0.653284,0.202921
23,45,-1.0472,-0.698132,-0.174533,-0.174533,-1.03828,-0.680965,-0.130985,-0.188059,-0.891754,-0.480674,-0.653284,0.202921
