stim_pw [us],stim_amp [mA],com_elbow_fe [rad],com_forearm_ps [rad],com_wrist_fe [rad],com_wrist_ru [rad],act_elbow_fe [rad],act_forearm_ps [rad],act_wrist_fe [rad],act_wrist_ru [rad],elbow_fe_trq [Nm],forearm_ps_trq [Nm],wrist_fe_trq [Nm],wrist_ru_trq [Nm]
26,45,-1.0472,-0.698132,-0.174533,-0.174533,-1.03441,-0.687066,-0.176738,-0.165041,-1.27832,-0.309848,0.033069,-0.142379
26,45,-1.0472,-0.698132,-0.174533,-0.174533,-1.03441,-0.687066,-0.176738,-0.165041,-1.27832,-0.309848,0.033069,-0.142379
26,45,-1.0472,-0.698132,-0.174533,-0.174533,-1.03441,-0.687066,-0.176738,-0.165041,-1.27832,-0.309848,0.033069,-0.142379
26,45,-1.0472,-0.698132,-0.174533,-0.174533,-1.03441,-0.687066,-0.176738,-0.165041,-1.27832,-0.309848,0.033069,-0.142379
26,45,-1.0472,-0.698132,-0.174533,-0.174533,-1.03441,-0.687066,-0.176738,-0.165041,-1.27832,-0.309848,0.033069,-0.142379
26,45,-1.0472,-0.698132,-0.174533,-0.174533,-1.03441,-0.687066,-0.176738,-0.165041,-1.27832,-0.309848,0.033069,-0.142379
26,45,-1.0472,-0.698132,-0.174533,-0.174533,-1.03441,-0.687066,-0.176738,-0.165041,-1.27832,-0.309848,0.033069,-0.142379
26,45,-1.0472,-0.698132,-0.174533,-0.174533,-1.03441,-0.687066,-0.176738,-0.165041,-1.27832,-0.309848,0.033069,-0.142379
26,45,-1.0472,-0.698132,-0.174533,-0.174533,-1.03441,-0.687066,-0.176738,-0.165041,-1.27832,-0.309848,0.033069,-0.142379
26,45,-1.0472,-0.698132,-0.174533,-0.174533,-1.03441,-0.687066,-0.176738,-0.165041,-1.27832,-0.309848,0.033069,-0.142379
26,45,-1.0472,-0.698132,-0.174533,-0.174533,-1.03441,-0.687066,-0.176738,-0.165041,-1.27832,-0.309848,0.033069,-0.142379
26,45,-1.0472,-0.698132,-0.174533,-0.174533,-1.03441,-0.687066,-0.176738,-0.165041,-1.27832,-0.309848,0.033069,-0.142379
26,45,-1.0472,-0.698132,-0.174533,-0.174533,-1.03441,-0.687066,-0.176738,-0.165041,-1.27832,-0.309848,0.033069,-0.142379
26,45,-1.0472,-0.698132,-0.174533,-0.174533,-1.03441,-0.687066,-0.176738,-0.165041,-1.27832,-0.309848,0.033069,-0.142379
26,45,-1.0472,-0.698132,-0.174533,-0.174533,-1.03441,-0.687066,-0.176738,-0.165041,-1.27832,-0.309848,0.033069,-0.142379
26,45,-1.0472,-0.698132,-0.174533,-0.174533,-1.03441,-0.687066,-0.176738,-0.165041,-1.27832,-0.309848,0.033069,-0.142379
26,45,-1.0472,-0.698132,-0.174533,-0.174533,-1.03441,-0.687066,-0.176738,-0.165041,-1.27832,-0.309848,0.033069,-0.142379
26,45,-1.0472,-0.698132,-0.174533,-0.174533,-1.03441,-0.687066,-0.176738,-0.165041,-1.27832,-0.309848,0.033069,-0.142379
26,45,-1.0472,-0.698132,-0.174533,-0.174533,-1.03441,-0.687066,-0.176738,-0.165041,-1.27832,-0.309848,0.033069,-0.142379
26,45,-1.0472,-0.698132,-0.174533,-0.174533,-1.03441,-0.687066,-0.176738,-0.165041,-1.27832,-0.309848,0.033069,-0.142379
26,45,-1.0472,-0.698132,-0.174533,-0.174533,-1.03441,-0.687066,-0.176738,-0.165041,-1.27832,-0.309848,0.033069,-0.142379
26,45,-1.0472,-0.698132,-0.174533,-0.174533,-1.03441,-0.687066,-0.176738,-0.165041,-1.27832,-0.309848,0.033069,-0.142379
26,45,-1.0472,-0.698132,-0.174533,-0.174533,-1.03441,-0.687066,-0.176738,-0.165041,-1.27832,-0.309848,0.033069,-0.142379
26,45,-1.0472,-0.698132,-0.174533,-0.174533,-1.03441,-0.687066,-0.176738,-0.165041,-1.27832,-0.309848,0.033069,-0.142379
26,45,-1.0472,-0.698132,-0.174533,-0.174533,-1.03441,-0.687066,-0.176738,-0.165041,-1.27832,-0.309848,0.033069,-0.142379
26,45,-1.0472,-0.698132,-0.174533,-0.174533,-1.03441,-0.687066,-0.176738,-0.165041,-1.27832,-0.309848,0.033069,-0.142379
26,45,-1.0472,-0.698132,-0.174533,-0.174533,-1.03441,-0.687066,-0.176738,-0.165041,-1.27832,-0.309848,0.033069,-0.142379
26,45,-1.0472,-0.698132,-0.174533,-0.174533,-1.03441,-0.687066,-0.176738,-0.165041,-1.27832,-0.309848,0.033069,-0.142379
26,45,-1.0472,-0.698132,-0.174533,-0.174533,-1.03441,-0.687066,-0.176738,-0.165041,-1.27832,-0.309848,0.033069,-0.142379
26,45,-1.0472,-0.698132,-0.174533,-0.174533,-1.03441,-0.687066,-0.176738,-0.165041,-1.27832,-0.309848,0.033069,-0.142379
26,45,-1.0472,-0.698132,-0.174533,-0.174533,-1.03441,-0.687066,-0.176738,-0.165041,-1.27832,-0.309848,0.033069,-0.142379
26,45,-1.0472,-0.698132,-0.174533,-0.174533,-1.03441,-0.687066,-0.176738,-0.165041,-1.27832,-0.309848,0.033069,-0.142379
26,45,-1.0472,-0.698132,-0.174533,-0.174533,-1.03441,-0.687066,-0.176738,-0.165041,-1.27832,-0.309848,0.033069,-0.142379
26,45,-1.0472,-0.698132,-0.174533,-0.174533,-1.03441,-0.687066,-0.176738,-0.165041,-1.27832,-0.309848,0.033069,-0.142379
26,45,-1.0472,-0.698132,-0.174533,-0.174533,-1.03441,-0.687066,-0.176738,-0.165041,-1.27832,-0.309848,0.033069,-0.142379
26,45,-1.0472,-0.698132,-0.174533,-0.174533,-1.03441,-0.687066,-0.176738,-0.165041,-1.27832,-0.309848,0.033069,-0.142379
26,45,-1.0472,-0.698132,-0.174533,-0.174533,-1.03441,-0.687066,-0.176738,-0.165041,-1.27832,-0.309848,0.033069,-0.142379
26,45,-1.0472,-0.698132,-0.174533,-0.174533,-1.03441,-0.687066,-0.176738,-0.165041,-1.27832,-0.309848,0.033069,-0.142379
26,45,-1.0472,-0.698132,-0.174533,-0.174533,-1.03441,-0.687066,-0.176738,-0.165041,-1.27832,-0.309848,0.033069,-0.142379
26,45,-1.0472,-0.698132,-0.174533,-0.174533,-1.03441,-0.687066,-0.176738,-0.165041,-1.27832,-0.309848,0.033069,-0.142379
26,45,-1.0472,-0.698132,-0.174533,-0.174533,-1.03441,-0.687066,-0.176738,-0.165041,-1.27832,-0.309848,0.033069,-0.142379
26,45,-1.0472,-0.698132,-0.174533,-0.174533,-1.03441,-0.687066,-0.176738,-0.165041,-1.27832,-0.309848,0.033069,-0.142379
26,45,-1.0472,-0.698132,-0.174533,-0.174533,-1.03441,-0.687066,-0.176672,-0.164998,-1.27832,-0.309848,0.0320926,-0.143019
26,45,-1.0472,-0.698132,-0.174533,-0.174533,-1.03441,-0.687066,-0.176672,-0.164998,-1.27832,-0.309848,0.0320926,-0.143019
26,45,-1.0472,-0.698132,-0.174533,-0.174533,-1.03441,-0.687066,-0.176672,-0.164998,-1.27832,-0.309848,0.0320926,-0.143019
26,45,-1.0472,-0.698132,-0.174533,-0.174533,-1.03441,-0.687066,-0.176672,-0.164998,-1.27832,-0.309848,0.0320926,-0.143019
26,45,-1.0472,-0.698132,-0.174533,-0.174533,-1.03441,-0.687066,-0.176672,-0.164998,-1.27832,-0.309848,0.0320926,-0.143019
26,45,-1.0472,-0.698132,-0.174533,-0.174533,-1.03441,-0.687066,-0.176672,-0.164998,-1.27832,-0.309848,0.0320926,-0.143019
26,45,-1.0472,-0.698132,-0.174533,-0.174533,-1.03441,-0.687066,-0.176672,-0.164998,-1.27832,-0.309848,0.0320926,-0.143019
26,45,-1.0472,-0.698132,-0.174533,-0.174533,-1.03441,-0.687066,-0.176672,-0.164998,-1.27832,-0.309848,0.0320926,-0.143019
26,45,-1.0472,-0.698132,-0.174533,-0.174533,-1.03441,-0.687066,-0.176672,-0.164998,-1.27832,-0.309848,0.0320926,-0.143019
26,45,-1.0472,-0.698132,-0.174533,-0.174533,-1.03441,-0.687066,-0.176672,-0.164998,-1.27832,-0.309848,0.0320926,-0.143019
26,45,-1.0472,-0.698132,-0.174533,-0.174533,-1.03441,-0.687066,-0.176672,-0.164998,-1.27832,-0.309848,0.0320926,-0.143019
26,45,-1.0472,-0.698132,-0.174533,-0.174533,-1.03441,-0.687066,-0.176672,-0.164998,-1.27832,-0.309848,0.0320926,-0.143019
26,45,-1.0472,-0.698132,-0.174533,-0.174533,-1.03441,-0.687066,-0.176672,-0.164998,-1.27832,-0.309848,0.0320926,-0.143019
26,45,-1.0472,-0.698132,-0.174533,-0.174533,-1.03441,-0.687066,-0.176672,-0.164998,-1.27832,-0.309848,0.0320926,-0.143019
26,45,-1.0472,-0.698132,-0.174533,-0.174533,-1.03441,-0.687066,-0.176672,-0.164998,-1.27832,-0.309848,0.0320926,-0.143019
26,45,-1.0472,-0.698132,-0.174533,-0.174533,-1.03441,-0.687066,-0.176672,-0.164998,-1.27832,-0.309848,0.0320926,-0.143019
26,45,-1.0472,-0.698132,-0.174533,-0.174533,-1.03441,-0.687066,-0.176672,-0.164998,-1.27832,-0.309848,0.0320926,-0.143019
26,45,-1.0472,-0.698132,-0.174533,-0.174533,-1.03441,-0.687066,-0.176672,-0.164998,-1.27832,-0.309848,0.0320926,-0.143019
26,45,-1.0472,-0.698132,-0.174533,-0.174533,-1.03441,-0.687066,-0.176672,-0.164998,-1.27832,-0.309848,0.0320926,-0.143019
26,45,-1.0472,-0.698132,-0.174533,-0.174533,-1.03441,-0.687066,-0.176672,-0.164998,-1.27832,-0.309848,0.0320926,-0.143019
26,45,-1.0472,-0.698132,-0.174533,-0.174533,-1.03441,-0.687066,-0.176672,-0.164998,-1.27832,-0.309848,0.0320926,-0.143019
26,45,-1.0472,-0.698132,-0.174533,-0.174533,-1.03441,-0.687066,-0.176672,-0.164998,-1.27832,-0.309848,0.0320926,-0.143019
26,45,-1.0472,-0.698132,-0.174533,-0.174533,-1.03441,-0.687066,-0.176672,-0.164998,-1.27832,-0.309848,0.0320926,-0.143019
26,45,-1.0472,-0.698132,-0.174533,-0.174533,-1.03441,-0.687066,-0.176672,-0.164998,-1.27832,-0.309848,0.0320926,-0.143019
26,45,-1.0472,-0.698132,-0.174533,-0.174533,-1.03441,-0.687066,-0.176672,-0.164998,-1.27832,-0.309848,0.0320926,-0.143019
26,45,-1.0472,-0.698132,-0.174533,-0.174533,-1.03441,-0.687066,-0.176672,-0.164998,-1.27832,-0.309848,0.0320926,-0.143019
26,45,-1.0472,-0.698132,-0.174533,-0.174533,-1.03441,-0.687066,-0.176672,-0.164998,-1.27832,-0.309848,0.0320926,-0.143019
26,45,-1.0472,-0.698132,-0.174533,-0.174533,-1.03441,-0.687066,-0.176672,-0.164998,-1.27832,-0.309848,0.0320926,-0.143019
26,45,-1.0472,-0.698132,-0.174533,-0.174533,-1.03441,-0.687066,-0.176672,-0.164998,-1.27832,-0.309848,0.0320926,-0.143019
26,45,-1.0472,-0.698132,-0.174533,-0.174533,-1.03441,-0.687066,-0.176672,-0.164998,-1.27832,-0.309848,0.0320926,-0.143019
26,45,-1.0472,-0.698132,-0.174533,-0.174533,-1.03441,-0.687066,-0.176672,-0.164998,-1.27832,-0.309848,0.0320926,-0.143019
26,45,-1.0472,-0.698132,-0.174533,-0.174533,-1.03441,-0.687066,-0.176672,-0.164998,-1.27832,-0.309848,0.0320926,-0.143019
26,45,-1.0472,-0.698132,-0.174533,-0.174533,-1.03441,-0.687066,-0.176672,-0.164998,-1.27832,-0.309848,0.0320926,-0.143019
26,45,-1.0472,-0.698132,-0.174533,-0.174533,-1.03441,-0.687066,-0.176672,-0.164998,-1.27832,-0.309848,0.0320926,-0.143019
26,45,-1.0472,-0.698132,-0.174533,-0.174533,-1.03441,-0.687066,-0.176672,-0.164998,-1.27832,-0.309848,0.0320926,-0.143019
26,45,-1.0472,-0.698132,-0.174533,-0.174533,-1.03441,-0.687066,-0.176672,-0.164998,-1.27832,-0.309848,0.0320926,-0.143019
26,45,-1.0472,-0.698132,-0.174533,-0.174533,-1.03441,-0.687066,-0.176672,-0.164998,-1.27832,-0.309848,0.0320926,-0.143019
26,45,-1.0472,-0.698132,-0.174533,-0.174533,-1.03441,-0.687066,-0.176672,-0.164998,-1.27832,-0.309848,0.0320926,-0.143019
26,45,-1.0472,-0.698132,-0.174533,-0.174533,-1.03441,-0.687066,-0.176607,-0.164956,-1.27832,-0.309848,0.0311163,-0.143659
26,45,-1.0472,-0.698132,-0.174533,-0.174533,-1.03441,-0.687066,-0.176607,-0.164956,-1.27832,-0.309848,0.0311163,-0.143659
26,45,-1.0472,-0.698132,-0.174533,-0.174533,-1.03441,-0.687066,-0.176607,-0.164956,-1.27832,-0.309848,0.0311163,-0.143659
26,45,-1.0472,-0.698132,-0.174533,-0.174533,-1.03441,-0.687066,-0.176607,-0.164956,-1.27832,-0.309848,0.0311163,-0.143659
26,45,-1.0472,-0.698132,-0.174533,-0.174533,-1.03441,-0.687066,-0.176607,-0.164956,-1.27832,-0.309848,0.0311163,-0.143659
26,45,-1.0472,-0.698132,-0.174533,-0.174533,-1.03441,-0.687066,-0.176607,-0.164956,-1.27832,-0.309848,0.0311163,-0.143659
26,45,-1.0472,-0.698132,-0.174533,-0.174533,-1.03441,-0.687066,-0.176607,-0.164956,-1.27832,-0.309848,0.0311163,-0.143659
26,45,-1.0472,-0.698132,-0.174533,-0.174533,-1.03441,-0.687066,-0.176607,-0.164956,-1.27832,-0.309848,0.0311163,-0.143659
26,45,-1.0472,-0.698132,-0.174533,-0.174533,-1.03441,-0.687066,-0.176607,-0.164956,-1.27832,-0.309848,0.0311163,-0.143659
26,45,-1.0472,-0.698132,-0.174533,-0.174533,-1.03441,-0.687066,-0.176607,-0.164956,-1.27832,-0.309848,0.0311163,-0.143659
26,45,-1.0472,-0.698132,-0.174533,-0.174533,-1.03441,-0.687066,-0.176607,-0.164956,-1.27832,-0.309848,0.0311163,-0.143659
26,45,-1.0472,-0.698132,-0.174533,-0.174533,-1.03441,-0.687066,-0.176607,-0.164956,-1.27832,-0.309848,0.0311163,-0.143659
26,45,-1.0472,-0.698132,-0.174533,-0.174533,-1.03441,-0.687066,-0.176607,-0.164956,-1.27832,-0.309848,0.0311163,-0.143659
26,45,-1.0472,-0.698132,-0.174533,-0.174533,-1.03441,-0.687066,-0.176607,-0.164956,-1.27832,-0.309848,0.0311163,-0.143659
26,45,-1.0472,-0.698132,-0.174533,-0.174533,-1.03441,-0.687066,-0.176607,-0.164956,-1.27832,-0.309848,0.0311163,-0.143659
26,45,-1.0472,-0.698132,-0.174533,-0.174533,-1.03441,-0.687066,-0.176607,-0.164956,-1.27832,-0.309848,0.0311163,-0.143659
26,45,-1.0472,-0.698132,-0.174533,-0.174533,-1.03441,-0.687066,-0.176607,-0.164956,-1.27832,-0.309848,0.0311163,-0.143659
26,45,-1.0472,-0.698132,-0.174533,-0.174533,-1.03441,-0.687066,-0.176607,-0.164956,-1.27832,-0.309848,0.0311163,-0.143659
26,45,-1.0472,-0.698132,-0.174533,-0.174533,-1.03441,-0.687066,-0.176607,-0.164956,-1.27832,-0.309848,0.0311163,-0.143659
26,45,-1.0472,-0.698132,-0.174533,-0.174533,-1.03441,-0.687066,-0.176607,-0.164956,-1.27832,-0.309848,0.0311163,-0.143659
26,45,-1.0472,-0.698132,-0.174533,-0.174533,-1.03441,-0.687066,-0.176607,-0.164956,-1.27832,-0.309848,0.0311163,-0.143659
26,45,-1.0472,-0.698132,-0.174533,-0.174533,-1.03441,-0.687066,-0.176607,-0.164956,-1.27832,-0.309848,0.0311163,-0.143659
26,45,-1.0472,-0.698132,-0.174533,-0.174533,-1.03441,-0.687066,-0.176607,-0.164956,-1.27832,-0.309848,0.0311163,-0.143659
26,45,-1.0472,-0.698132,-0.174533,-0.174533,-1.03441,-0.687066,-0.176607,-0.164956,-1.27832,-0.309848,0.0311163,-0.143659
26,45,-1.0472,-0.698132,-0.174533,-0.174533,-1.03441,-0.687066,-0.176607,-0.164956,-1.27832,-0.309848,0.0311163,-0.143659
26,45,-1.0472,-0.698132,-0.174533,-0.174533,-1.03441,-0.687066,-0.176607,-0.164956,-1.27832,-0.309848,0.0311163,-0.143659
26,45,-1.0472,-0.698132,-0.174533,-0.174533,-1.03441,-0.687066,-0.176607,-0.164956,-1.27832,-0.309848,0.0311163,-0.143659
26,45,-1.0472,-0.698132,-0.174533,-0.174533,-1.03441,-0.687066,-0.176607,-0.164956,-1.27832,-0.309848,0.0311163,-0.143659
26,45,-1.0472,-0.698132,-0.174533,-0.174533,-1.03441,-0.687066,-0.176607,-0.164956,-1.27832,-0.309848,0.0311163,-0.143659
26,45,-1.0472,-0.698132,-0.174533,-0.174533,-1.03441,-0.687066,-0.176607,-0.164956,-1.27832,-0.309848,0.0311163,-0.143659
26,45,-1.0472,-0.698132,-0.174533,-0.174533,-1.03441,-0.687066,-0.176607,-0.164956,-1.27832,-0.309848,0.0311163,-0.143659
26,45,-1.0472,-0.698132,-0.174533,-0.174533,-1.03441,-0.687066,-0.176607,-0.164956,-1.27832,-0.309848,0.0311163,-0.143659
26,45,-1.0472,-0.698132,-0.174533,-0.174533,-1.03441,-0.687066,-0.176607,-0.164956,-1.27832,-0.309848,0.0311163,-0.143659
26,45,-1.0472,-0.698132,-0.174533,-0.174533,-1.03441,-0.687066,-0.176607,-0.164956,-1.27832,-0.309848,0.0311163,-0.143659
26,45,-1.0472,-0.698132,-0.174533,-0.174533,-1.03441,-0.687066,-0.176607,-0.164956,-1.27832,-0.309848,0.0311163,-0.143659
26,45,-1.0472,-0.698132,-0.174533,-0.174533,-1.03441,-0.687066,-0.176607,-0.164956,-1.27832,-0.309848,0.0311163,-0.143659
26,45,-1.0472,-0.698132,-0.174533,-0.174533,-1.03441,-0.687066,-0.176607,-0.164956,-1.27832,-0.309848,0.0311163,-0.143659
26,45,-1.0472,-0.698132,-0.174533,-0.174533,-1.03441,-0.687066,-0.176607,-0.164956,-1.27832,-0.309848,0.0311163,-0.143659
26,45,-1.0472,-0.698132,-0.174533,-0.174533,-1.03441,-0.687066,-0.176607,-0.164956,-1.27832,-0.309848,0.0311163,-0.143659
26,45,-1.0472,-0.698132,-0.174533,-0.174533,-1.03441,-0.687066,-0.176667,-0.164936,-1.27832,-0.309848,0.0320067,-0.143949
26,45,-1.0472,-0.698132,-0.174533,-0.174533,-1.03441,-0.687066,-0.176667,-0.164936,-1.27832,-0.309848,0.0320067,-0.143949
26,45,-1.0472,-0.698132,-0.174533,-0.174533,-1.03441,-0.687066,-0.176667,-0.164936,-1.27832,-0.309848,0.0320067,-0.143949
26,45,-1.0472,-0.698132,-0.174533,-0.174533,-1.03441,-0.687066,-0.176667,-0.164936,-1.27832,-0.309848,0.0320067,-0.143949
26,45,-1.0472,-0.698132,-0.174533,-0.174533,-1.03441,-0.687066,-0.176667,-0.164936,-1.27832,-0.309848,0.0320067,-0.143949
26,45,-1.0472,-0.698132,-0.174533,-0.174533,-1.03441,-0.687066,-0.176667,-0.164936,-1.27832,-0.309848,0.0320067,-0.143949
26,45,-1.0472,-0.698132,-0.174533,-0.174533,-1.03441,-0.687066,-0.176667,-0.164936,-1.27832,-0.309848,0.0320067,-0.143949
26,45,-1.0472,-0.698132,-0.174533,-0.174533,-1.03441,-0.687066,-0.176667,-0.164936,-1.27832,-0.309848,0.0320067,-0.143949
26,45,-1.0472,-0.698132,-0.174533,-0.174533,-1.03441,-0.687066,-0.176667,-0.164936,-1.27832,-0.309848,0.0320067,-0.143949
26,45,-1.0472,-0.698132,-0.174533,-0.174533,-1.03441,-0.687066,-0.176667,-0.164936,-1.27832,-0.309848,0.0320067,-0.143949
26,45,-1.0472,-0.698132,-0.174533,-0.174533,-1.03441,-0.687066,-0.176667,-0.164936,-1.27832,-0.309848,0.0320067,-0.143949
26,45,-1.0472,-0.698132,-0.174533,-0.174533,-1.03441,-0.687066,-0.176667,-0.164936,-1.27832,-0.309848,0.0320067,-0.143949
26,45,-1.0472,-0.698132,-0.174533,-0.174533,-1.03441,-0.687066,-0.176667,-0.164936,-1.27832,-0.309848,0.0320067,-0.143949
26,45,-1.0472,-0.698132,-0.174533,-0.174533,-1.03441,-0.687066,-0.176667,-0.164936,-1.27832,-0.309848,0.0320067,-0.143949
26,45,-1.0472,-0.698132,-0.174533,-0.174533,-1.03441,-0.687066,-0.176667,-0.164936,-1.27832,-0.309848,0.0320067,-0.143949
26,45,-1.0472,-0.698132,-0.174533,-0.174533,-1.03441,-0.687066,-0.176667,-0.164936,-1.27832,-0.309848,0.0320067,-0.143949
26,45,-1.0472,-0.698132,-0.174533,-0.174533,-1.03441,-0.687066,-0.176667,-0.164936,-1.27832,-0.309848,0.0320067,-0.143949
26,45,-1.0472,-0.698132,-0.174533,-0.174533,-1.03441,-0.687066,-0.176602,-0.164894,-1.27832,-0.309848,0.0310305,-0.144588
26,45,-1.0472,-0.698132,-0.174533,-0.174533,-1.03441,-0.687066,-0.176602,-0.164894,-1.27832,-0.309848,0.0310305,-0.144588
26,45,-1.0472,-0.698132,-0.174533,-0.174533,-1.03441,-0.687066,-0.176602,-0.164894,-1.27832,-0.309848,0.0310305,-0.144588
26,45,-1.0472,-0.698132,-0.174533,-0.174533,-1.03441,-0.687066,-0.176602,-0.164894,-1.27832,-0.309848,0.0310305,-0.144588
26,45,-1.0472,-0.698132,-0.174533,-0.174533,-1.03441,-0.687066,-0.176602,-0.164894,-1.27832,-0.309848,0.0310305,-0.144588
26,45,-1.0472,-0.698132,-0.174533,-0.174533,-1.03441,-0.687066,-0.176602,-0.164894,-1.27832,-0.309848,0.0310305,-0.144588
26,45,-1.0472,-0.698132,-0.174533,-0.174533,-1.03441,-0.687066,-0.176602,-0.164894,-1.27832,-0.309848,0.0310305,-0.144588
26,45,-1.0472,-0.698132,-0.174533,-0.174533,-1.03441,-0.687066,-0.176602,-0.164894,-1.27832,-0.309848,0.0310305,-0.144588
26,45,-1.0472,-0.698132,-0.174533,-0.174533,-1.03441,-0.687066,-0.176602,-0.164894,-1.27832,-0.309848,0.0310305,-0.144588
26,45,-1.0472,-0.698132,-0.174533,-0.174533,-1.03441,-0.687066,-0.176602,-0.164894,-1.27832,-0.309848,0.0310305,-0.144588
26,45,-1.0472,-0.698132,-0.174533,-0.174533,-1.03441,-0.687066,-0.176602,-0.164894,-1.27832,-0.309848,0.0310305,-0.144588
26,45,-1.0472,-0.698132,-0.174533,-0.174533,-1.03441,-0.687117,-0.176602,-0.164894,-1.27832,-0.308424,0.0310305,-0.144588
26,45,-1.0472,-0.698132,-0.174533,-0.174533,-1.03441,-0.687117,-0.176602,-0.164894,-1.27832,-0.308424,0.0310305,-0.144588
26,45,-1.0472,-0.698132,-0.174533,-0.174533,-1.03441,-0.687117,-0.176602,-0.164894,-1.27832,-0.308424,0.0310305,-0.144588
26,45,-1.0472,-0.698132,-0.174533,-0.174533,-1.03441,-0.687117,-0.176602,-0.164894,-1.27832,-0.308424,0.0310305,-0.144588
26,45,-1.0472,-0.698132,-0.174533,-0.174533,-1.03441,-0.687117,-0.176602,-0.164894,-1.27832,-0.308424,0.0310305,-0.144588
26,45,-1.0472,-0.698132,-0.174533,-0.174533,-1.03441,-0.687117,-0.176602,-0.164894,-1.27832,-0.308424,0.0310305,-0.144588
26,45,-1.0472,-0.698132,-0.174533,-0.174533,-1.03441,-0.687117,-0.176602,-0.164894,-1.27832,-0.308424,0.0310305,-0.144588
26,45,-1.0472,-0.698132,-0.174533,-0.174533,-1.03441,-0.687117,-0.176602,-0.164894,-1.27832,-0.308424,0.0310305,-0.144588
26,45,-1.0472,-0.698132,-0.174533,-0.174533,-1.03441,-0.687117,-0.176602,-0.164894,-1.27832,-0.308424,0.0310305,-0.144588
26,45,-1.0472,-0.698132,-0.174533,-0.174533,-1.03441,-0.687117,-0.176602,-0.164894,-1.27832,-0.308424,0.0310305,-0.144588
26,45,-1.0472,-0.698132,-0.174533,-0.174533,-1.03441,-0.687117,-0.176602,-0.164894,-1.27832,-0.308424,0.0310305,-0.144588
26,45,-1.0472,-0.698132,-0.174533,-0.174533,-1.03441,-0.687117,-0.176602,-0.164894,-1.27832,-0.308424,0.0310305,-0.144588
26,45,-1.0472,-0.698132,-0.174533,-0.174533,-1.03441,-0.687117,-0.176602,-0.164894,-1.27832,-0.308424,0.0310305,-0.144588
26,45,-1.0472,-0.698132,-0.174533,-0.174533,-1.03441,-0.687117,-0.176602,-0.164894,-1.27832,-0.308424,0.0310305,-0.144588
26,45,-1.0472,-0.698132,-0.174533,-0.174533,-1.03441,-0.687117,-0.176602,-0.164894,-1.27832,-0.308424,0.0310305,-0.144588
26,45,-1.0472,-0.698132,-0.174533,-0.174533,-1.03441,-0.687117,-0.176602,-0.164894,-1.27832,-0.308424,0.0310305,-0.144588
26,45,-1.0472,-0.698132,-0.174533,-0.174533,-1.03441,-0.687117,-0.176602,-0.164894,-1.27832,-0.308424,0.0310305,-0.144588
26,45,-1.0472,-0.698132,-0.174533,-0.174533,-1.03441,-0.687117,-0.176602,-0.164894,-1.27832,-0.308424,0.0310305,-0.144588
26,45,-1.0472,-0.698132,-0.174533,-0.174533,-1.03441,-0.687117,-0.176602,-0.164894,-1.27832,-0.308424,0.0310305,-0.144588
26,45,-1.0472,-0.698132,-0.174533,-0.174533,-1.03441,-0.687117,-0.176602,-0.164894,-1.27832,-0.308424,0.0310305,-0.144588
26,45,-1.0472,-0.698132,-0.174533,-0.174533,-1.03441,-0.687117,-0.176602,-0.164894,-1.27832,-0.308424,0.0310305,-0.144588
26,45,-1.0472,-0.698132,-0.174533,-0.174533,-1.03441,-0.687117,-0.176602,-0.164894,-1.27832,-0.308424,0.0310305,-0.144588
26,45,-1.0472,-0.698132,-0.174533,-0.174533,-1.03441,-0.687117,-0.176602,-0.164894,-1.27832,-0.308424,0.0310305,-0.144588
26,45,-1.0472,-0.698132,-0.174533,-0.174533,-1.03441,-0.687117,-0.176602,-0.164894,-1.27832,-0.308424,0.0310305,-0.144588
26,45,-1.0472,-0.698132,-0.174533,-0.174533,-1.03441,-0.687117,-0.176602,-0.164894,-1.27832,-0.308424,0.0310305,-0.144588
26,45,-1.0472,-0.698132,-0.174533,-0.174533,-1.03441,-0.687117,-0.176602,-0.164894,-1.27832,-0.308424,0.0310305,-0.144588
26,45,-1.0472,-0.698132,-0.174533,-0.174533,-1.03441,-0.687117,-0.176602,-0.164894,-1.27832,-0.308424,0.0310305,-0.144588
26,45,-1.0472,-0.698132,-0.174533,-0.174533,-1.03441,-0.687117,-0.176602,-0.164894,-1.27832,-0.308424,0.0310305,-0.144588
26,45,-1.0472,-0.698132,-0.174533,-0.174533,-1.03441,-0.687117,-0.176602,-0.164894,-1.27832,-0.308424,0.0310305,-0.144588
26,45,-1.0472,-0.698132,-0.174533,-0.174533,-1.03441,-0.687117,-0.176602,-0.164894,-1.27832,-0.308424,0.0310305,-0.144588
26,45,-1.0472,-0.698132,-0.174533,-0.174533,-1.03441,-0.687117,-0.176602,-0.164894,-1.27832,-0.308424,0.0310305,-0.144588
26,45,-1.0472,-0.698132,-0.174533,-0.174533,-1.03441,-0.687117,-0.176602,-0.164894,-1.27832,-0.308424,0.0310305,-0.144588
26,45,-1.0472,-0.698132,-0.174533,-0.174533,-1.03441,-0.687117,-0.176537,-0.164851,-1.27832,-0.308424,0.0300544,-0.145228
26,45,-1.0472,-0.698132,-0.174533,-0.174533,-1.03441,-0.687117,-0.176537,-0.164851,-1.27832,-0.308424,0.0300544,-0.145228
26,45,-1.0472,-0.698132,-0.174533,-0.174533,-1.03441,-0.687117,-0.176537,-0.164851,-1.27832,-0.308424,0.0300544,-0.145228
26,45,-1.0472,-0.698132,-0.174533,-0.174533,-1.03441,-0.687117,-0.176537,-0.164851,-1.27832,-0.308424,0.0300544,-0.145228
26,45,-1.0472,-0.698132,-0.174533,-0.174533,-1.03441,-0.687117,-0.176537,-0.164851,-1.27832,-0.308424,0.0300544,-0.145228
26,45,-1.0472,-0.698132,-0.174533,-0.174533,-1.03441,-0.687117,-0.176537,-0.164851,-1.27832,-0.308424,0.0300544,-0.145228
26,45,-1.0472,-0.698132,-0.174533,-0.174533,-1.03441,-0.687117,-0.176537,-0.164851,-1.27832,-0.308424,0.0300544,-0.145228
26,45,-1.0472,-0.698132,-0.174533,-0.174533,-1.03441,-0.687117,-0.176537,-0.164851,-1.27832,-0.308424,0.0300544,-0.145228
26,45,-1.0472,-0.698132,-0.174533,-0.174533,-1.03441,-0.687117,-0.176537,-0.164851,-1.27832,-0.308424,0.0300544,-0.145228
26,45,-1.0472,-0.698132,-0.174533,-0.174533,-1.03441,-0.687117,-0.176537,-0.164851,-1.27832,-0.308424,0.0300544,-0.145228
26,45,-1.0472,-0.698132,-0.174533,-0.174533,-1.03441,-0.687117,-0.176537,-0.164851,-1.27832,-0.308424,0.0300544,-0.145228
26,45,-1.0472,-0.698132,-0.174533,-0.174533,-1.03441,-0.687117,-0.176537,-0.164851,-1.27832,-0.308424,0.0300544,-0.145228
26,45,-1.0472,-0.698132,-0.174533,-0.174533,-1.03441,-0.687117,-0.176537,-0.164851,-1.27832,-0.308424,0.0300544,-0.145228
26,45,-1.0472,-0.698132,-0.174533,-0.174533,-1.03441,-0.687117,-0.176537,-0.164851,-1.27832,-0.308424,0.0300544,-0.145228
26,45,-1.0472,-0.698132,-0.174533,-0.174533,-1.03441,-0.687117,-0.176537,-0.164851,-1.27832,-0.308424,0.0300544,-0.145228
26,45,-1.0472,-0.698132,-0.174533,-0.174533,-1.03441,-0.687117,-0.176537,-0.164851,-1.27832,-0.308424,0.0300544,-0.145228
26,45,-1.0472,-0.698132,-0.174533,-0.174533,-1.03441,-0.687117,-0.176537,-0.164851,-1.27832,-0.308424,0.0300544,-0.145228
26,45,-1.0472,-0.698132,-0.174533,-0.174533,-1.03441,-0.687117,-0.176537,-0.164851,-1.27832,-0.308424,0.0300544,-0.145228
26,45,-1.0472,-0.698132,-0.174533,-0.174533,-1.03441,-0.687117,-0.176537,-0.164851,-1.27832,-0.308424,0.0300544,-0.145228
26,45,-1.0472,-0.698132,-0.174533,-0.174533,-1.03441,-0.687117,-0.176537,-0.164851,-1.27832,-0.308424,0.0300544,-0.145228
26,45,-1.0472,-0.698132,-0.174533,-0.174533,-1.03441,-0.687117,-0.176537,-0.164851,-1.27832,-0.308424,0.0300544,-0.145228
26,45,-1.0472,-0.698132,-0.174533,-0.174533,-1.03441,-0.687117,-0.176537,-0.164851,-1.27832,-0.308424,0.0300544,-0.145228
26,45,-1.0472,-0.698132,-0.174533,-0.174533,-1.03441,-0.687117,-0.176537,-0.164851,-1.27832,-0.308424,0.0300544,-0.145228
26,45,-1.0472,-0.698132,-0.174533,-0.174533,-1.03441,-0.687117,-0.176537,-0.164851,-1.27832,-0.308424,0.0300544,-0.145228
26,45,-1.0472,-0.698132,-0.174533,-0.174533,-1.03441,-0.687117,-0.176537,-0.164851,-1.27832,-0.308424,0.0300544,-0.145228
26,45,-1.0472,-0.698132,-0.174533,-0.174533,-1.03441,-0.687117,-0.176537,-0.164851,-1.27832,-0.308424,0.0300544,-0.145228
26,45,-1.0472,-0.698132,-0.174533,-0.174533,-1.03441,-0.687117,-0.176537,-0.164851,-1.27832,-0.308424,0.0300544,-0.145228
26,45,-1.0472,-0.698132,-0.174533,-0.174533,-1.03441,-0.687117,-0.176537,-0.164851,-1.27832,-0.308424,0.0300544,-0.145228
26,45,-1.0472,-0.698132,-0.174533,-0.174533,-1.03441,-0.687117,-0.176537,-0.164851,-1.27832,-0.308424,0.0300544,-0.145228
26,45,-1.0472,-0.698132,-0.174533,-0.174533,-1.03441,-0.687117,-0.176537,-0.164851,-1.27832,-0.308424,0.0300544,-0.145228
26,45,-1.0472,-0.698132,-0.174533,-0.174533,-1.03441,-0.687117,-0.176537,-0.164851,-1.27832,-0.308424,0.0300544,-0.145228
26,45,-1.0472,-0.698132,-0.174533,-0.174533,-1.03441,-0.687117,-0.176537,-0.164851,-1.27832,-0.308424,0.0300544,-0.145228
26,45,-1.0472,-0.698132,-0.174533,-0.174533,-1.03441,-0.687117,-0.176537,-0.164851,-1.27832,-0.308424,0.0300544,-0.145228
26,45,-1.0472,-0.698132,-0.174533,-0.174533,-1.03441,-0.687117,-0.176537,-0.164851,-1.27832,-0.308424,0.0300544,-0.145228
26,45,-1.0472,-0.698132,-0.174533,-0.174533,-1.03441,-0.687117,-0.176537,-0.164851,-1.27832,-0.308424,0.0300544,-0.145228
26,45,-1.0472,-0.698132,-0.174533,-0.174533,-1.03441,-0.687117,-0.176537,-0.164851,-1.27832,-0.308424,0.0300544,-0.145228
26,45,-1.0472,-0.698132,-0.174533,-0.174533,-1.03441,-0.687117,-0.176537,-0.164851,-1.27832,-0.308424,0.0300544,-0.145228
26,45,-1.0472,-0.698132,-0.174533,-0.174533,-1.03441,-0.687117,-0.176537,-0.164851,-1.27832,-0.308424,0.0300544,-0.145228
26,45,-1.0472,-0.698132,-0.174533,-0.174533,-1.03441,-0.687117,-0.176537,-0.164851,-1.27832,-0.308424,0.0300544,-0.145228
26,45,-1.0472,-0.698132,-0.174533,-0.174533,-1.03441,-0.687117,-0.176537,-0.164851,-1.27832,-0.308424,0.0300544,-0.145228
26,45,-1.0472,-0.698132,-0.174533,-0.174533,-1.03441,-0.687117,-0.176471,-0.164808,-1.27832,-0.308424,0.0290784,-0.145868
26,45,-1.0472,-0.698132,-0.174533,-0.174533,-1.03441,-0.687117,-0.176471,-0.164808,-1.27832,-0.308424,0.0290784,-0.145868
26,45,-1.0472,-0.698132,-0.174533,-0.174533,-1.03441,-0.687117,-0.176471,-0.164808,-1.27832,-0.308424,0.0290784,-0.145868
26,45,-1.0472,-0.698132,-0.174533,-0.174533,-1.03441,-0.687117,-0.176471,-0.164808,-1.27832,-0.308424,0.0290784,-0.145868
26,45,-1.0472,-0.698132,-0.174533,-0.174533,-1.03441,-0.687117,-0.176471,-0.164808,-1.27832,-0.308424,0.0290784,-0.145868
26,45,-1.0472,-0.698132,-0.174533,-0.174533,-1.03441,-0.687117,-0.176406,-0.164766,-1.27832,-0.308424,0.0281025,-0.146507
26,45,-1.0472,-0.698132,-0.174533,-0.174533,-1.03441,-0.687117,-0.176406,-0.164766,-1.27832,-0.308424,0.0281025,-0.146507
26,45,-1.0472,-0.698132,-0.174533,-0.174533,-1.03441,-0.687117,-0.176406,-0.164766,-1.27832,-0.308424,0.0281025,-0.146507
26,45,-1.0472,-0.698132,-0.174533,-0.174533,-1.03441,-0.687117,-0.176406,-0.164766,-1.27832,-0.308424,0.0281025,-0.146507
26,45,-1.0472,-0.698132,-0.174533,-0.174533,-1.03441,-0.687117,-0.176406,-0.164766,-1.27832,-0.308424,0.0281025,-0.146507
26,45,-1.0472,-0.698132,-0.174533,-0.174533,-1.03441,-0.687117,-0.176406,-0.164766,-1.27832,-0.308424,0.0281025,-0.146507
26,45,-1.0472,-0.698132,-0.174533,-0.174533,-1.03441,-0.687117,-0.176406,-0.164766,-1.27832,-0.308424,0.0281025,-0.146507
26,45,-1.0472,-0.698132,-0.174533,-0.174533,-1.03441,-0.687117,-0.176406,-0.164766,-1.27832,-0.308424,0.0281025,-0.146507
26,45,-1.0472,-0.698132,-0.174533,-0.174533,-1.03441,-0.687117,-0.176406,-0.164766,-1.27832,-0.308424,0.0281025,-0.146507
26,45,-1.0472,-0.698132,-0.174533,-0.174533,-1.03441,-0.687117,-0.176406,-0.164766,-1.27832,-0.308424,0.0281025,-0.146507
26,45,-1.0472,-0.698132,-0.174533,-0.174533,-1.03441,-0.687117,-0.176406,-0.164766,-1.27832,-0.308424,0.0281025,-0.146507
26,45,-1.0472,-0.698132,-0.174533,-0.174533,-1.03441,-0.687117,-0.176406,-0.164766,-1.27832,-0.308424,0.0281025,-0.146507
26,45,-1.0472,-0.698132,-0.174533,-0.174533,-1.03441,-0.687117,-0.176406,-0.164766,-1.27832,-0.308424,0.0281025,-0.146507
26,45,-1.0472,-0.698132,-0.174533,-0.174533,-1.03441,-0.687117,-0.176406,-0.164766,-1.27832,-0.308424,0.0281025,-0.146507
26,45,-1.0472,-0.698132,-0.174533,-0.174533,-1.03441,-0.687117,-0.176406,-0.164766,-1.27832,-0.308424,0.0281025,-0.146507
26,45,-1.0472,-0.698132,-0.174533,-0.174533,-1.03441,-0.687117,-0.176406,-0.164766,-1.27832,-0.308424,0.0281025,-0.146507
26,45,-1.0472,-0.698132,-0.174533,-0.174533,-1.03441,-0.687117,-0.176406,-0.164766,-1.27832,-0.308424,0.0281025,-0.146507
26,45,-1.0472,-0.698132,-0.174533,-0.174533,-1.03441,-0.687117,-0.176406,-0.164766,-1.27832,-0.308424,0.0281025,-0.146507
26,45,-1.0472,-0.698132,-0.174533,-0.174533,-1.03441,-0.687117,-0.176406,-0.164766,-1.27832,-0.308424,0.0281025,-0.146507
26,45,-1.0472,-0.698132,-0.174533,-0.174533,-1.03441,-0.687117,-0.176406,-0.164766,-1.27832,-0.308424,0.0281025,-0.146507
26,45,-1.0472,-0.698132,-0.174533,-0.174533,-1.03441,-0.687117,-0.176406,-0.164766,-1.27832,-0.308424,0.0281025,-0.146507
26,45,-1.0472,-0.698132,-0.174533,-0.174533,-1.03441,-0.687117,-0.176406,-0.164766,-1.27832,-0.308424,0.0281025,-0.146507
26,45,-1.0472,-0.698132,-0.174533,-0.174533,-1.03441,-0.687117,-0.176406,-0.164766,-1.27832,-0.308424,0.0281025,-0.146507
26,45,-1.0472,-0.698132,-0.174533,-0.174533,-1.03441,-0.687117,-0.176406,-0.164766,-1.27832,-0.308424,0.0281025,-0.146507
26,45,-1.0472,-0.698132,-0.174533,-0.174533,-1.03441,-0.687117,-0.176406,-0.164766,-1.27832,-0.308424,0.0281025,-0.146507
26,45,-1.0472,-0.698132,-0.174533,-0.174533,-1.03441,-0.687117,-0.176406,-0.164766,-1.27832,-0.308424,0.0281025,-0.146507
26,45,-1.0472,-0.698132,-0.174533,-0.174533,-1.03441,-0.687117,-0.176406,-0.164766,-1.27832,-0.308424,0.0281025,-0.146507
26,45,-1.0472,-0.698132,-0.174533,-0.174533,-1.03441,-0.687117,-0.176406,-0.164766,-1.27832,-0.308424,0.0281025,-0.146507
26,45,-1.0472,-0.698132,-0.174533,-0.174533,-1.03441,-0.687117,-0.176406,-0.164766,-1.27832,-0.308424,0.0281025,-0.146507
26,45,-1.0472,-0.698132,-0.174533,-0.174533,-1.03441,-0.687117,-0.176406,-0.164766,-1.27832,-0.308424,0.0281025,-0.146507
26,45,-1.0472,-0.698132,-0.174533,-0.174533,-1.03441,-0.687117,-0.176406,-0.164766,-1.27832,-0.308424,0.0281025,-0.146507
26,45,-1.0472,-0.698132,-0.174533,-0.174533,-1.03441,-0.687117,-0.176406,-0.164766,-1.27832,-0.308424,0.0281025,-0.146507
26,45,-1.0472,-0.698132,-0.174533,-0.174533,-1.03441,-0.687117,-0.176406,-0.164766,-1.27832,-0.308424,0.0281025,-0.146507
26,45,-1.0472,-0.698132,-0.174533,-0.174533,-1.03441,-0.687117,-0.176406,-0.164766,-1.27832,-0.308424,0.0281025,-0.146507
26,45,-1.0472,-0.698132,-0.174533,-0.174533,-1.03441,-0.687117,-0.176406,-0.164766,-1.27832,-0.308424,0.0281025,-0.146507
26,45,-1.0472,-0.698132,-0.174533,-0.174533,-1.03441,-0.687117,-0.176406,-0.164766,-1.27832,-0.308424,0.0281025,-0.146507
26,45,-1.0472,-0.698132,-0.174533,-0.174533,-1.03441,-0.687117,-0.176341,-0.164723,-1.27832,-0.308424,0.0271267,-0.147147
26,45,-1.0472,-0.698132,-0.174533,-0.174533,-1.03441,-0.687117,-0.176341,-0.164723,-1.27832,-0.308424,0.0271267,-0.147147
26,45,-1.0472,-0.698132,-0.174533,-0.174533,-1.03441,-0.687117,-0.176341,-0.164723,-1.27832,-0.308424,0.0271267,-0.147147
26,45,-1.0472,-0.698132,-0.174533,-0.174533,-1.03441,-0.687117,-0.176341,-0.164723,-1.27832,-0.308424,0.0271267,-0.147147
26,45,-1.0472,-0.698132,-0.174533,-0.174533,-1.03441,-0.687117,-0.176341,-0.164723,-1.27832,-0.308424,0.0271267,-0.147147
26,45,-1.0472,-0.698132,-0.174533,-0.174533,-1.03441,-0.687117,-0.176341,-0.164723,-1.27832,-0.308424,0.0271267,-0.147147
26,45,-1.0472,-0.698132,-0.174533,-0.174533,-1.03441,-0.687117,-0.176341,-0.164723,-1.27832,-0.308424,0.0271267,-0.147147
26,45,-1.0472,-0.698132,-0.174533,-0.174533,-1.03441,-0.687117,-0.176341,-0.164723,-1.27832,-0.308424,0.0271267,-0.147147
26,45,-1.0472,-0.698132,-0.174533,-0.174533,-1.03441,-0.687117,-0.176341,-0.164723,-1.27832,-0.308424,0.0271267,-0.147147
26,45,-1.0472,-0.698132,-0.174533,-0.174533,-1.03441,-0.687117,-0.176341,-0.164723,-1.27832,-0.308424,0.0271267,-0.147147
26,45,-1.0472,-0.698132,-0.174533,-0.174533,-1.03441,-0.687117,-0.176341,-0.164723,-1.27832,-0.308424,0.0271267,-0.147147
26,45,-1.0472,-0.698132,-0.174533,-0.174533,-1.03441,-0.687117,-0.176341,-0.164723,-1.27832,-0.308424,0.0271267,-0.147147
26,45,-1.0472,-0.698132,-0.174533,-0.174533,-1.03441,-0.687117,-0.176341,-0.164723,-1.27832,-0.308424,0.0271267,-0.147147
26,45,-1.0472,-0.698132,-0.174533,-0.174533,-1.03441,-0.687117,-0.176341,-0.164723,-1.27832,-0.308424,0.0271267,-0.147147
26,45,-1.0472,-0.698132,-0.174533,-0.174533,-1.03441,-0.687117,-0.176341,-0.164723,-1.27832,-0.308424,0.0271267,-0.147147
26,45,-1.0472,-0.698132,-0.174533,-0.174533,-1.03441,-0.687117,-0.176341,-0.164723,-1.27832,-0.308424,0.0271267,-0.147147
26,45,-1.0472,-0.698132,-0.174533,-0.174533,-1.03441,-0.687117,-0.176341,-0.164723,-1.27832,-0.308424,0.0271267,-0.147147
26,45,-1.0472,-0.698132,-0.174533,-0.174533,-1.03441,-0.687117,-0.176276,-0.164681,-1.27832,-0.308424,0.0261511,-0.147786
26,45,-1.0472,-0.698132,-0.174533,-0.174533,-1.03441,-0.687117,-0.176276,-0.164681,-1.27832,-0.308424,0.0261511,-0.147786
26,45,-1.0472,-0.698132,-0.174533,-0.174533,-1.03441,-0.687117,-0.176276,-0.164681,-1.27832,-0.308424,0.0261511,-0.147786
26,45,-1.0472,-0.698132,-0.174533,-0.174533,-1.03441,-0.687167,-0.176276,-0.164681,-1.27832,-0.307001,0.0261511,-0.147786
26,45,-1.0472,-0.698132,-0.174533,-0.174533,-1.03441,-0.687167,-0.176276,-0.164681,-1.27832,-0.307001,0.0261511,-0.147786
26,45,-1.0472,-0.698132,-0.174533,-0.174533,-1.03441,-0.687167,-0.176276,-0.164681,-1.27832,-0.307001,0.0261511,-0.147786
26,45,-1.0472,-0.698132,-0.174533,-0.174533,-1.03441,-0.687167,-0.176276,-0.164681,-1.27832,-0.307001,0.0261511,-0.147786
26,45,-1.0472,-0.698132,-0.174533,-0.174533,-1.03441,-0.687167,-0.176276,-0.164681,-1.27832,-0.307001,0.0261511,-0.147786
26,45,-1.0472,-0.698132,-0.174533,-0.174533,-1.03441,-0.687167,-0.176276,-0.164681,-1.27832,-0.307001,0.0261511,-0.147786
26,45,-1.0472,-0.698132,-0.174533,-0.174533,-1.03441,-0.687167,-0.176276,-0.164681,-1.27832,-0.307001,0.0261511,-0.147786
26,45,-1.0472,-0.698132,-0.174533,-0.174533,-1.03441,-0.687167,-0.176276,-0.164681,-1.27832,-0.307001,0.0261511,-0.147786
26,45,-1.0472,-0.698132,-0.174533,-0.174533,-1.03441,-0.687167,-0.176276,-0.164681,-1.27832,-0.307001,0.0261511,-0.147786
26,45,-1.0472,-0.698132,-0.174533,-0.174533,-1.03441,-0.687167,-0.176276,-0.164681,-1.27832,-0.307001,0.0261511,-0.147786
26,45,-1.0472,-0.698132,-0.174533,-0.174533,-1.03441,-0.687167,-0.176276,-0.164681,-1.27832,-0.307001,0.0261511,-0.147786
26,45,-1.0472,-0.698132,-0.174533,-0.174533,-1.03441,-0.687167,-0.176276,-0.164681,-1.27832,-0.307001,0.0261511,-0.147786
26,45,-1.0472,-0.698132,-0.174533,-0.174533,-1.03441,-0.687167,-0.176276,-0.164681,-1.27832,-0.307001,0.0261511,-0.147786
26,45,-1.0472,-0.698132,-0.174533,-0.174533,-1.03441,-0.687167,-0.176276,-0.164681,-1.27832,-0.307001,0.0261511,-0.147786
26,45,-1.0472,-0.698132,-0.174533,-0.174533,-1.03441,-0.687167,-0.176276,-0.164681,-1.27832,-0.307001,0.0261511,-0.147786
26,45,-1.0472,-0.698132,-0.174533,-0.174533,-1.03441,-0.687167,-0.176211,-0.164638,-1.27832,-0.307001,0.0251416,-0.148448
26,45,-1.0472,-0.698132,-0.174533,-0.174533,-1.03441,-0.687167,-0.176211,-0.164638,-1.27832,-0.307001,0.0251416,-0.148448
26,45,-1.0472,-0.698132,-0.174533,-0.174533,-1.03441,-0.687167,-0.176211,-0.164638,-1.27832,-0.307001,0.0251416,-0.148448
26,45,-1.0472,-0.698132,-0.174533,-0.174533,-1.03441,-0.687167,-0.176211,-0.164638,-1.27832,-0.307001,0.0251416,-0.148448
26,45,-1.0472,-0.698132,-0.174533,-0.174533,-1.03441,-0.687167,-0.176211,-0.164638,-1.27832,-0.307001,0.0251416,-0.148448
26,45,-1.0472,-0.698132,-0.174533,-0.174533,-1.03441,-0.687167,-0.176211,-0.164638,-1.27832,-0.307001,0.0251416,-0.148448
26,45,-1.0472,-0.698132,-0.174533,-0.174533,-1.03441,-0.687167,-0.176211,-0.164638,-1.27832,-0.307001,0.0251416,-0.148448
26,45,-1.0472,-0.698132,-0.174533,-0.174533,-1.03441,-0.687167,-0.176211,-0.164638,-1.27832,-0.307001,0.0251416,-0.148448
26,45,-1.0472,-0.698132,-0.174533,-0.174533,-1.03441,-0.687167,-0.176211,-0.164638,-1.27832,-0.307001,0.0251416,-0.148448
26,45,-1.0472,-0.698132,-0.174533,-0.174533,-1.03441,-0.687167,-0.176211,-0.164638,-1.27832,-0.307001,0.0251416,-0.148448
26,45,-1.0472,-0.698132,-0.174533,-0.174533,-1.03441,-0.687167,-0.176211,-0.164638,-1.27832,-0.307001,0.0251416,-0.148448
26,45,-1.0472,-0.698132,-0.174533,-0.174533,-1.03441,-0.687167,-0.176211,-0.164638,-1.27832,-0.307001,0.0251416,-0.148448
26,45,-1.0472,-0.698132,-0.174533,-0.174533,-1.03441,-0.687167,-0.176211,-0.164638,-1.27832,-0.307001,0.0251416,-0.148448
26,45,-1.0472,-0.698132,-0.174533,-0.174533,-1.03441,-0.687167,-0.176211,-0.164638,-1.27832,-0.307001,0.0251416,-0.148448
26,45,-1.0472,-0.698132,-0.174533,-0.174533,-1.03441,-0.687167,-0.176211,-0.164638,-1.27832,-0.307001,0.0251416,-0.148448
26,45,-1.0472,-0.698132,-0.174533,-0.174533,-1.03441,-0.687167,-0.176211,-0.164638,-1.27832,-0.307001,0.0251416,-0.148448
26,45,-1.0472,-0.698132,-0.174533,-0.174533,-1.03441,-0.687167,-0.176211,-0.164638,-1.27832,-0.307001,0.0251416,-0.148448
26,45,-1.0472,-0.698132,-0.174533,-0.174533,-1.03441,-0.687167,-0.176211,-0.164638,-1.27832,-0.307001,0.0251416,-0.148448
26,45,-1.0472,-0.698132,-0.174533,-0.174533,-1.03441,-0.687167,-0.176146,-0.164595,-1.27832,-0.307001,0.0242001,-0.149065
26,45,-1.0472,-0.698132,-0.174533,-0.174533,-1.03441,-0.687167,-0.176146,-0.164595,-1.27832,-0.307001,0.0242001,-0.149065
26,45,-1.0472,-0.698132,-0.174533,-0.174533,-1.03441,-0.687167,-0.176146,-0.164595,-1.27832,-0.307001,0.0242001,-0.149065
26,45,-1.0472,-0.698132,-0.174533,-0.174533,-1.03441,-0.687167,-0.176146,-0.164595,-1.27832,-0.307001,0.0242001,-0.149065
26,45,-1.0472,-0.698132,-0.174533,-0.174533,-1.03441,-0.687167,-0.176146,-0.164595,-1.27832,-0.307001,0.0242001,-0.149065
26,45,-1.0472,-0.698132,-0.174533,-0.174533,-1.03441,-0.687167,-0.176146,-0.164595,-1.27832,-0.307001,0.0242001,-0.149065
26,45,-1.0472,-0.698132,-0.174533,-0.174533,-1.03441,-0.687167,-0.176146,-0.164595,-1.27832,-0.307001,0.0242001,-0.149065
26,45,-1.0472,-0.698132,-0.174533,-0.174533,-1.03441,-0.687167,-0.176146,-0.164595,-1.27832,-0.307001,0.0242001,-0.149065
26,45,-1.0472,-0.698132,-0.174533,-0.174533,-1.03441,-0.687167,-0.176146,-0.164595,-1.27832,-0.307001,0.0242001,-0.149065
26,45,-1.0472,-0.698132,-0.174533,-0.174533,-1.03441,-0.687167,-0.176146,-0.164595,-1.27832,-0.307001,0.0242001,-0.149065
26,45,-1.0472,-0.698132,-0.174533,-0.174533,-1.03441,-0.687167,-0.176146,-0.164595,-1.27832,-0.307001,0.0242001,-0.149065
26,45,-1.0472,-0.698132,-0.174533,-0.174533,-1.03441,-0.687167,-0.176146,-0.164595,-1.27832,-0.307001,0.0242001,-0.149065
26,45,-1.0472,-0.698132,-0.174533,-0.174533,-1.03441,-0.687167,-0.176081,-0.164553,-1.27832,-0.307001,0.0231848,-0.149731
26,45,-1.0472,-0.698132,-0.174533,-0.174533,-1.03441,-0.687167,-0.176081,-0.164553,-1.27832,-0.307001,0.0231848,-0.149731
26,45,-1.0472,-0.698132,-0.174533,-0.174533,-1.03441,-0.687167,-0.176081,-0.164553,-1.27832,-0.307001,0.0231848,-0.149731
26,45,-1.0472,-0.698132,-0.174533,-0.174533,-1.03441,-0.687167,-0.176081,-0.164553,-1.27832,-0.307001,0.0231848,-0.149731
26,45,-1.0472,-0.698132,-0.174533,-0.174533,-1.03441,-0.687167,-0.176081,-0.164553,-1.27832,-0.307001,0.0231848,-0.149731
26,45,-1.0472,-0.698132,-0.174533,-0.174533,-1.03441,-0.687167,-0.176081,-0.164553,-1.27832,-0.307001,0.0231848,-0.149731
26,45,-1.0472,-0.698132,-0.174533,-0.174533,-1.03441,-0.687167,-0.176081,-0.164553,-1.27832,-0.307001,0.0231848,-0.149731
26,45,-1.0472,-0.698132,-0.174533,-0.174533,-1.03441,-0.687167,-0.176081,-0.164553,-1.27832,-0.307001,0.0231848,-0.149731
26,45,-1.0472,-0.698132,-0.174533,-0.174533,-1.03441,-0.687167,-0.176081,-0.164553,-1.27832,-0.307001,0.0231848,-0.149731
26,45,-1.0472,-0.698132,-0.174533,-0.174533,-1.03441,-0.687167,-0.176081,-0.164553,-1.27832,-0.307001,0.0231848,-0.149731
26,45,-1.0472,-0.698132,-0.174533,-0.174533,-1.03441,-0.687167,-0.176081,-0.164553,-1.27832,-0.307001,0.0231848,-0.149731
26,45,-1.0472,-0.698132,-0.174533,-0.174533,-1.03441,-0.687167,-0.176081,-0.164553,-1.27832,-0.307001,0.0231848,-0.149731
26,45,-1.0472,-0.698132,-0.174533,-0.174533,-1.03441,-0.687167,-0.176081,-0.164553,-1.27832,-0.307001,0.0231848,-0.149731
26,45,-1.0472,-0.698132,-0.174533,-0.174533,-1.03441,-0.687167,-0.176081,-0.164553,-1.27832,-0.307001,0.0231848,-0.149731
26,45,-1.0472,-0.698132,-0.174533,-0.174533,-1.03441,-0.687167,-0.176016,-0.16451,-1.27832,-0.307001,0.022208,-0.150371
26,45,-1.0472,-0.698132,-0.174533,-0.174533,-1.03441,-0.687167,-0.176016,-0.16451,-1.27832,-0.307001,0.022208,-0.150371
26,45,-1.0472,-0.698132,-0.174533,-0.174533,-1.03441,-0.687167,-0.176016,-0.16451,-1.27832,-0.307001,0.022208,-0.150371
26,45,-1.0472,-0.698132,-0.174533,-0.174533,-1.03441,-0.687167,-0.176016,-0.16451,-1.27832,-0.307001,0.022208,-0.150371
26,45,-1.0472,-0.698132,-0.174533,-0.174533,-1.03441,-0.687167,-0.176016,-0.16451,-1.27832,-0.307001,0.022208,-0.150371
26,45,-1.0472,-0.698132,-0.174533,-0.174533,-1.03441,-0.687167,-0.176016,-0.16451,-1.27832,-0.307001,0.022208,-0.150371
26,45,-1.0472,-0.698132,-0.174533,-0.174533,-1.03441,-0.687167,-0.176016,-0.16451,-1.27832,-0.307001,0.022208,-0.150371
26,45,-1.0472,-0.698132,-0.174533,-0.174533,-1.03441,-0.687167,-0.176016,-0.16451,-1.27832,-0.307001,0.022208,-0.150371
26,45,-1.0472,-0.698132,-0.174533,-0.174533,-1.03441,-0.687167,-0.176016,-0.16451,-1.27832,-0.307001,0.022208,-0.150371
26,45,-1.0472,-0.698132,-0.174533,-0.174533,-1.03441,-0.687167,-0.176016,-0.16451,-1.27832,-0.307001,0.022208,-0.150371
26,45,-1.0472,-0.698132,-0.174533,-0.174533,-1.03441,-0.687167,-0.176016,-0.16451,-1.27832,-0.307001,0.022208,-0.150371
26,45,-1.0472,-0.698132,-0.174533,-0.174533,-1.03441,-0.687167,-0.175892,-0.164487,-1.27832,-0.307001,0.0203365,-0.150724
26,45,-1.0472,-0.698132,-0.174533,-0.174533,-1.03441,-0.687167,-0.175892,-0.164487,-1.27832,-0.307001,0.0203365,-0.150724
26,45,-1.0472,-0.698132,-0.174533,-0.174533,-1.03441,-0.687167,-0.175892,-0.164487,-1.27832,-0.307001,0.0203365,-0.150724
26,45,-1.0472,-0.698132,-0.174533,-0.174533,-1.03441,-0.687167,-0.175892,-0.164487,-1.27832,-0.307001,0.0203365,-0.150724
26,45,-1.0472,-0.698132,-0.174533,-0.174533,-1.03441,-0.687167,-0.175892,-0.164487,-1.27832,-0.307001,0.0203365,-0.150724
26,45,-1.0472,-0.698132,-0.174533,-0.174533,-1.03441,-0.687167,-0.175892,-0.164487,-1.27832,-0.307001,0.0203365,-0.150724
26,45,-1.0472,-0.698132,-0.174533,-0.174533,-1.03441,-0.687167,-0.175892,-0.164487,-1.27832,-0.307001,0.0203365,-0.150724
26,45,-1.0472,-0.698132,-0.174533,-0.174533,-1.03441,-0.687167,-0.175892,-0.164487,-1.27832,-0.307001,0.0203365,-0.150724
26,45,-1.0472,-0.698132,-0.174533,-0.174533,-1.03441,-0.687167,-0.175892,-0.164487,-1.27832,-0.307001,0.0203365,-0.150724
26,45,-1.0472,-0.698132,-0.174533,-0.174533,-1.03441,-0.687167,-0.175892,-0.164487,-1.27832,-0.307001,0.0203365,-0.150724
26,45,-1.0472,-0.698132,-0.174533,-0.174533,-1.03441,-0.687167,-0.175892,-0.164487,-1.27832,-0.307001,0.0203365,-0.150724
26,45,-1.0472,-0.698132,-0.174533,-0.174533,-1.03441,-0.687167,-0.175833,-0.164506,-1.27832,-0.307001,0.0194464,-0.150434
26,45,-1.0472,-0.698132,-0.174533,-0.174533,-1.03441,-0.687167,-0.175833,-0.164506,-1.27832,-0.307001,0.0194464,-0.150434
26,45,-1.0472,-0.698132,-0.174533,-0.174533,-1.03441,-0.687167,-0.175833,-0.164506,-1.27832,-0.307001,0.0194464,-0.150434
26,45,-1.0472,-0.698132,-0.174533,-0.174533,-1.03441,-0.687167,-0.175833,-0.164506,-1.27832,-0.307001,0.0194464,-0.150434
26,45,-1.0472,-0.698132,-0.174533,-0.174533,-1.03441,-0.687167,-0.175833,-0.164506,-1.27832,-0.307001,0.0194464,-0.150434
26,45,-1.0472,-0.698132,-0.174533,-0.174533,-1.03441,-0.687167,-0.175833,-0.164506,-1.27832,-0.307001,0.0194464,-0.150434
26,45,-1.0472,-0.698132,-0.174533,-0.174533,-1.03441,-0.687167,-0.175773,-0.164525,-1.27832,-0.307001,0.0185563,-0.150144
26,45,-1.0472,-0.698132,-0.174533,-0.174533,-1.03441,-0.687167,-0.175773,-0.164525,-1.27832,-0.307001,0.0185563,-0.150144
26,45,-1.0472,-0.698132,-0.174533,-0.174533,-1.03441,-0.687167,-0.175773,-0.164525,-1.27832,-0.307001,0.0185563,-0.150144
26,45,-1.0472,-0.698132,-0.174533,-0.174533,-1.03441,-0.687167,-0.175773,-0.164525,-1.27832,-0.307001,0.0185563,-0.150144
26,45,-1.0472,-0.698132,-0.174533,-0.174533,-1.03441,-0.687167,-0.175773,-0.164525,-1.27832,-0.307001,0.0185563,-0.150144
26,45,-1.0472,-0.698132,-0.174533,-0.174533,-1.03441,-0.687167,-0.175708,-0.164483,-1.27832,-0.307001,0.017585,-0.15078
26,45,-1.0472,-0.698132,-0.174533,-0.174533,-1.03441,-0.687167,-0.175708,-0.164483,-1.27832,-0.307001,0.017585,-0.15078
26,45,-1.0472,-0.698132,-0.174533,-0.174533,-1.03441,-0.687167,-0.175708,-0.164483,-1.27832,-0.307001,0.017585,-0.15078
26,45,-1.0472,-0.698132,-0.174533,-0.174533,-1.03441,-0.687167,-0.175649,-0.164502,-1.27832,-0.307001,0.0166949,-0.15049
26,45,-1.0472,-0.698132,-0.174533,-0.174533,-1.03441,-0.687167,-0.175649,-0.164502,-1.27832,-0.307001,0.0166949,-0.15049
26,45,-1.0472,-0.698132,-0.174533,-0.174533,-1.03441,-0.687167,-0.175649,-0.164502,-1.27832,-0.307001,0.0166949,-0.15049
26,45,-1.0472,-0.698132,-0.174533,-0.174533,-1.03441,-0.687167,-0.175649,-0.164502,-1.27832,-0.307001,0.0166949,-0.15049
26,45,-1.0472,-0.698132,-0.174533,-0.174533,-1.03441,-0.687167,-0.175649,-0.164502,-1.27832,-0.307001,0.0166949,-0.15049
26,45,-1.0472,-0.698132,-0.174533,-0.174533,-1.03441,-0.687167,-0.175649,-0.164502,-1.27832,-0.307001,0.0166949,-0.15049
26,45,-1.0472,-0.698132,-0.174533,-0.174533,-1.03441,-0.687167,-0.175649,-0.164502,-1.27832,-0.307001,0.0166949,-0.15049
26,45,-1.0472,-0.698132,-0.174533,-0.174533,-1.03441,-0.687167,-0.175649,-0.164502,-1.27832,-0.307001,0.0166949,-0.15049
26,45,-1.0472,-0.698132,-0.174533,-0.174533,-1.03441,-0.687167,-0.175649,-0.164502,-1.27832,-0.307001,0.0166949,-0.15049
26,45,-1.0472,-0.698132,-0.174533,-0.174533,-1.03441,-0.687167,-0.175649,-0.164502,-1.27832,-0.307001,0.0166949,-0.15049
26,45,-1.0472,-0.698132,-0.174533,-0.174533,-1.03441,-0.687167,-0.175649,-0.164502,-1.27832,-0.307001,0.0166949,-0.15049
26,45,-1.0472,-0.698132,-0.174533,-0.174533,-1.03441,-0.687167,-0.175649,-0.164502,-1.27832,-0.307001,0.0166949,-0.15049
26,45,-1.0472,-0.698132,-0.174533,-0.174533,-1.03441,-0.687167,-0.175649,-0.164502,-1.27832,-0.307001,0.0166949,-0.15049
26,45,-1.0472,-0.698132,-0.174533,-0.174533,-1.03441,-0.687167,-0.175649,-0.164502,-1.27832,-0.307001,0.0166949,-0.15049
26,45,-1.0472,-0.698132,-0.174533,-0.174533,-1.03441,-0.687167,-0.175649,-0.164502,-1.27832,-0.307001,0.0166949,-0.15049
26,45,-1.0472,-0.698132,-0.174533,-0.174533,-1.03441,-0.687167,-0.175649,-0.164502,-1.27832,-0.307001,0.0166949,-0.15049
26,45,-1.0472,-0.698132,-0.174533,-0.174533,-1.03441,-0.687167,-0.175649,-0.164502,-1.27832,-0.307001,0.0166949,-0.15049
26,45,-1.0472,-0.698132,-0.174533,-0.174533,-1.03441,-0.687167,-0.175584,-0.16446,-1.27832,-0.307001,0.0157254,-0.151125
26,45,-1.0472,-0.698132,-0.174533,-0.174533,-1.03441,-0.687167,-0.175584,-0.16446,-1.27832,-0.307001,0.0157254,-0.151125
26,45,-1.0472,-0.698132,-0.174533,-0.174533,-1.03441,-0.687167,-0.175584,-0.16446,-1.27832,-0.307001,0.0157254,-0.151125
26,45,-1.0472,-0.698132,-0.174533,-0.174533,-1.03441,-0.687167,-0.175584,-0.16446,-1.27832,-0.307001,0.0157254,-0.151125
26,45,-1.0472,-0.698132,-0.174533,-0.174533,-1.03441,-0.687167,-0.175584,-0.16446,-1.27832,-0.307001,0.0157254,-0.151125
26,45,-1.0472,-0.698132,-0.174533,-0.174533,-1.03441,-0.687167,-0.175584,-0.16446,-1.27832,-0.307001,0.0157254,-0.151125
26,45,-1.0472,-0.698132,-0.174533,-0.174533,-1.03441,-0.687167,-0.175584,-0.16446,-1.27832,-0.307001,0.0157254,-0.151125
26,45,-1.0472,-0.698132,-0.174533,-0.174533,-1.03441,-0.687167,-0.175525,-0.164479,-1.27832,-0.307001,0.0147868,-0.150819
26,45,-1.0472,-0.698132,-0.174533,-0.174533,-1.03441,-0.687167,-0.175525,-0.164479,-1.27832,-0.307001,0.0147868,-0.150819
26,45,-1.0472,-0.698132,-0.174533,-0.174533,-1.03441,-0.687167,-0.175525,-0.164479,-1.27832,-0.307001,0.0147868,-0.150819
26,45,-1.0472,-0.698132,-0.174533,-0.174533,-1.03441,-0.687167,-0.175525,-0.164479,-1.27832,-0.307001,0.0147868,-0.150819
26,45,-1.0472,-0.698132,-0.174533,-0.174533,-1.03441,-0.687167,-0.175525,-0.164479,-1.27832,-0.307001,0.0147868,-0.150819
26,45,-1.0472,-0.698132,-0.174533,-0.174533,-1.03441,-0.687167,-0.175525,-0.164479,-1.27832,-0.307001,0.0147868,-0.150819
26,45,-1.0472,-0.698132,-0.174533,-0.174533,-1.03441,-0.687167,-0.175525,-0.164479,-1.27832,-0.307001,0.0147868,-0.150819
26,45,-1.0472,-0.698132,-0.174533,-0.174533,-1.03441,-0.687167,-0.175525,-0.164479,-1.27832,-0.307001,0.0147868,-0.150819
26,45,-1.0472,-0.698132,-0.174533,-0.174533,-1.03441,-0.687167,-0.175525,-0.164479,-1.27832,-0.307001,0.0147868,-0.150819
26,45,-1.0472,-0.698132,-0.174533,-0.174533,-1.03441,-0.687167,-0.175525,-0.164479,-1.27832,-0.307001,0.0147868,-0.150819
26,45,-1.0472,-0.698132,-0.174533,-0.174533,-1.03441,-0.687167,-0.175525,-0.164479,-1.27832,-0.307001,0.0147868,-0.150819
26,45,-1.0472,-0.698132,-0.174533,-0.174533,-1.03441,-0.687167,-0.175525,-0.164479,-1.27832,-0.307001,0.0147868,-0.150819
26,45,-1.0472,-0.698132,-0.174533,-0.174533,-1.03441,-0.687167,-0.175525,-0.164479,-1.27832,-0.307001,0.0147868,-0.150819
26,45,-1.0472,-0.698132,-0.174533,-0.174533,-1.03441,-0.687167,-0.175525,-0.164479,-1.27832,-0.307001,0.0147868,-0.150819
26,45,-1.0472,-0.698132,-0.174533,-0.174533,-1.03441,-0.687167,-0.175525,-0.164479,-1.27832,-0.307001,0.0147868,-0.150819
26,45,-1.0472,-0.698132,-0.174533,-0.174533,-1.03441,-0.687167,-0.175525,-0.164479,-1.27832,-0.307001,0.0147868,-0.150819
26,45,-1.0472,-0.698132,-0.174533,-0.174533,-1.03441,-0.687167,-0.17546,-0.164436,-1.27832,-0.307001,0.0138172,-0.151455
26,45,-1.0472,-0.698132,-0.174533,-0.174533,-1.03441,-0.687167,-0.17546,-0.164436,-1.27832,-0.307001,0.0138172,-0.151455
26,45,-1.0472,-0.698132,-0.174533,-0.174533,-1.03441,-0.687167,-0.17546,-0.164436,-1.27832,-0.307001,0.0138172,-0.151455
26,45,-1.0472,-0.698132,-0.174533,-0.174533,-1.03441,-0.687167,-0.17546,-0.164436,-1.27832,-0.307001,0.0138172,-0.151455
26,45,-1.0472,-0.698132,-0.174533,-0.174533,-1.03441,-0.687167,-0.17546,-0.164436,-1.27832,-0.307001,0.0138172,-0.151455
26,45,-1.0472,-0.698132,-0.174533,-0.174533,-1.03441,-0.687167,-0.17546,-0.164436,-1.27832,-0.307001,0.0138172,-0.151455
26,45,-1.0472,-0.698132,-0.174533,-0.174533,-1.03441,-0.687167,-0.17546,-0.164436,-1.27832,-0.307001,0.0138172,-0.151455
26,45,-1.0472,-0.698132,-0.174533,-0.174533,-1.03441,-0.687167,-0.17546,-0.164436,-1.27832,-0.307001,0.0138172,-0.151455
26,45,-1.0472,-0.698132,-0.174533,-0.174533,-1.03441,-0.687167,-0.17546,-0.164436,-1.27832,-0.307001,0.0138172,-0.151455
26,45,-1.0472,-0.698132,-0.174533,-0.174533,-1.03441,-0.687167,-0.17546,-0.164436,-1.27832,-0.307001,0.0138172,-0.151455
26,45,-1.0472,-0.698132,-0.174533,-0.174533,-1.03441,-0.687167,-0.17546,-0.164436,-1.27832,-0.307001,0.0138172,-0.151455
26,45,-1.0472,-0.698132,-0.174533,-0.174533,-1.03441,-0.687167,-0.1754,-0.164456,-1.27832,-0.307001,0.0129387,-0.151168
26,45,-1.0472,-0.698132,-0.174533,-0.174533,-1.03441,-0.687167,-0.1754,-0.164456,-1.27832,-0.307001,0.0129387,-0.151168
26,45,-1.0472,-0.698132,-0.174533,-0.174533,-1.03441,-0.687167,-0.1754,-0.164456,-1.27832,-0.307001,0.0129387,-0.151168
26,45,-1.0472,-0.698132,-0.174533,-0.174533,-1.03441,-0.687167,-0.1754,-0.164456,-1.27832,-0.307001,0.0129387,-0.151168
26,45,-1.0472,-0.698132,-0.174533,-0.174533,-1.03441,-0.687167,-0.1754,-0.164456,-1.27832,-0.307001,0.0129387,-0.151168
26,45,-1.0472,-0.698132,-0.174533,-0.174533,-1.03441,-0.687167,-0.175341,-0.164475,-1.27832,-0.307001,0.0120483,-0.150878
26,45,-1.0472,-0.698132,-0.174533,-0.174533,-1.03441,-0.687167,-0.175341,-0.164475,-1.27832,-0.307001,0.0120483,-0.150878
26,45,-1.0472,-0.698132,-0.174533,-0.174533,-1.03441,-0.687167,-0.175341,-0.164475,-1.27832,-0.307001,0.0120483,-0.150878
26,45,-1.0472,-0.698132,-0.174533,-0.174533,-1.03441,-0.687167,-0.175341,-0.164475,-1.27832,-0.307001,0.0120483,-0.150878
26,45,-1.0472,-0.698132,-0.174533,-0.174533,-1.03441,-0.687167,-0.175341,-0.164475,-1.27832,-0.307001,0.0120483,-0.150878
26,45,-1.0472,-0.698132,-0.174533,-0.174533,-1.03441,-0.687167,-0.175341,-0.164475,-1.27832,-0.307001,0.0120483,-0.150878
26,45,-1.0472,-0.698132,-0.174533,-0.174533,-1.03441,-0.687167,-0.175282,-0.164494,-1.27832,-0.307001,0.0111573,-0.150587
26,45,-1.0472,-0.698132,-0.174533,-0.174533,-1.03441,-0.687167,-0.175217,-0.164452,-1.27832,-0.307001,0.0102169,-0.151203
26,45,-1.0472,-0.698132,-0.174533,-0.174533,-1.03441,-0.687167,-0.175217,-0.164452,-1.27832,-0.307001,0.0102169,-0.151203
26,45,-1.0472,-0.698132,-0.174533,-0.174533,-1.03441,-0.687167,-0.175217,-0.164452,-1.27832,-0.307001,0.0102169,-0.151203
26,45,-1.0472,-0.698132,-0.174533,-0.174533,-1.03441,-0.687167,-0.175217,-0.164452,-1.27832,-0.307001,0.0102169,-0.151203
26,45,-1.0472,-0.698132,-0.174533,-0.174533,-1.03441,-0.687167,-0.175157,-0.164471,-1.27832,-0.307001,0.00930934,-0.150907
26,45,-1.0472,-0.698132,-0.174533,-0.174533,-1.03441,-0.687167,-0.175157,-0.164471,-1.27832,-0.307001,0.00930934,-0.150907
26,45,-1.0472,-0.698132,-0.174533,-0.174533,-1.03441,-0.687167,-0.175157,-0.164471,-1.27832,-0.307001,0.00930934,-0.150907
26,45,-1.0472,-0.698132,-0.174533,-0.174533,-1.03441,-0.687167,-0.175157,-0.164471,-1.27832,-0.307001,0.00930934,-0.150907
26,45,-1.0472,-0.698132,-0.174533,-0.174533,-1.03441,-0.687167,-0.175157,-0.164471,-1.27832,-0.307001,0.00930934,-0.150907
26,45,-1.0472,-0.698132,-0.174533,-0.174533,-1.03441,-0.687167,-0.175098,-0.164491,-1.27832,-0.307001,0.0083629,-0.150598
26,45,-1.0472,-0.698132,-0.174533,-0.174533,-1.03441,-0.687167,-0.175098,-0.164491,-1.27832,-0.307001,0.0083629,-0.150598
26,45,-1.0472,-0.698132,-0.174533,-0.174533,-1.03441,-0.687167,-0.175098,-0.164491,-1.27832,-0.307001,0.0083629,-0.150598
26,45,-1.0472,-0.698132,-0.174533,-0.174533,-1.03441,-0.687167,-0.175098,-0.164491,-1.27832,-0.307001,0.0083629,-0.150598
26,45,-1.0472,-0.698132,-0.174533,-0.174533,-1.03441,-0.687167,-0.175039,-0.16451,-1.27832,-0.307001,0.00746494,-0.150305
26,45,-1.0472,-0.698132,-0.174533,-0.174533,-1.03441,-0.687167,-0.175039,-0.16451,-1.27832,-0.307001,0.00746494,-0.150305
26,45,-1.0472,-0.698132,-0.174533,-0.174533,-1.03441,-0.687167,-0.175039,-0.16451,-1.27832,-0.307001,0.00746494,-0.150305
26,45,-1.0472,-0.698132,-0.174533,-0.174533,-1.03441,-0.687167,-0.175039,-0.16451,-1.27832,-0.307001,0.00746494,-0.150305
26,45,-1.0472,-0.698132,-0.174533,-0.174533,-1.03441,-0.687167,-0.175039,-0.16451,-1.27832,-0.307001,0.00746494,-0.150305
26,45,-1.0472,-0.698132,-0.174533,-0.174533,-1.03441,-0.687167,-0.175039,-0.16451,-1.27832,-0.307001,0.00746494,-0.150305
26,45,-1.0472,-0.698132,-0.174533,-0.174533,-1.03441,-0.687167,-0.175039,-0.16451,-1.27832,-0.307001,0.00746494,-0.150305
26,45,-1.0472,-0.698132,-0.174533,-0.174533,-1.03441,-0.687167,-0.175039,-0.16451,-1.27832,-0.307001,0.00746494,-0.150305
26,45,-1.0472,-0.698132,-0.174533,-0.174533,-1.03441,-0.687167,-0.175039,-0.16451,-1.27832,-0.307001,0.00746494,-0.150305
26,45,-1.0472,-0.698132,-0.174533,-0.174533,-1.03441,-0.687167,-0.174979,-0.164529,-1.27832,-0.307001,0.00658752,-0.150019
26,45,-1.0472,-0.698132,-0.174533,-0.174533,-1.03441,-0.687167,-0.174914,-0.164487,-1.27832,-0.307001,0.00561336,-0.150657
26,45,-1.0472,-0.698132,-0.174533,-0.174533,-1.03441,-0.687167,-0.174914,-0.164487,-1.27832,-0.307001,0.00561336,-0.150657
26,45,-1.0472,-0.698132,-0.174533,-0.174533,-1.03441,-0.687167,-0.174914,-0.164487,-1.27832,-0.307001,0.00561336,-0.150657
26,45,-1.0472,-0.698132,-0.174533,-0.174533,-1.03441,-0.687167,-0.174914,-0.164487,-1.27832,-0.307001,0.00561336,-0.150657
26,45,-1.0472,-0.698132,-0.174533,-0.174533,-1.03441,-0.687167,-0.174914,-0.164487,-1.27832,-0.307001,0.00561336,-0.150657
26,45,-1.0472,-0.698132,-0.174533,-0.174533,-1.03441,-0.687167,-0.174914,-0.164487,-1.27832,-0.307001,0.00561336,-0.150657
26,45,-1.0472,-0.698132,-0.174533,-0.174533,-1.03441,-0.687167,-0.174914,-0.164487,-1.27832,-0.307001,0.00561336,-0.150657
26,45,-1.0472,-0.698132,-0.174533,-0.174533,-1.03441,-0.687167,-0.174855,-0.164506,-1.27832,-0.307001,0.00473827,-0.150372
26,45,-1.0472,-0.698132,-0.174533,-0.174533,-1.03441,-0.687167,-0.174855,-0.164506,-1.27832,-0.307001,0.00473827,-0.150372
26,45,-1.0472,-0.698132,-0.174533,-0.174533,-1.03441,-0.687167,-0.174855,-0.164506,-1.27832,-0.307001,0.00473827,-0.150372
26,45,-1.0472,-0.698132,-0.174533,-0.174533,-1.03441,-0.687167,-0.174855,-0.164506,-1.27832,-0.307001,0.00473827,-0.150372
26,45,-1.0472,-0.698132,-0.174533,-0.174533,-1.03441,-0.687167,-0.174855,-0.164506,-1.27832,-0.307001,0.00473827,-0.150372
26,45,-1.0472,-0.698132,-0.174533,-0.174533,-1.03441,-0.687167,-0.174855,-0.164506,-1.27832,-0.307001,0.00473827,-0.150372
26,45,-1.0472,-0.698132,-0.174533,-0.174533,-1.03441,-0.687167,-0.174855,-0.164506,-1.27832,-0.307001,0.00473827,-0.150372
26,45,-1.0472,-0.698132,-0.174533,-0.174533,-1.03441,-0.687167,-0.174855,-0.164506,-1.27832,-0.307001,0.00473827,-0.150372
26,45,-1.0472,-0.698132,-0.174533,-0.174533,-1.03441,-0.687167,-0.174855,-0.164506,-1.27832,-0.307001,0.00473827,-0.150372
26,45,-1.0472,-0.698132,-0.174533,-0.174533,-1.03441,-0.687167,-0.174855,-0.164506,-1.27832,-0.307001,0.00473827,-0.150372
26,45,-1.0472,-0.698132,-0.174533,-0.174533,-1.03441,-0.687167,-0.174796,-0.164526,-1.27832,-0.307001,0.00386471,-0.150087
26,45,-1.0472,-0.698132,-0.174533,-0.174533,-1.03441,-0.687167,-0.174796,-0.164526,-1.27832,-0.307001,0.00386471,-0.150087
26,45,-1.0472,-0.698132,-0.174533,-0.174533,-1.03441,-0.687167,-0.174796,-0.164526,-1.27832,-0.307001,0.00386471,-0.150087
26,45,-1.0472,-0.698132,-0.174533,-0.174533,-1.03441,-0.687167,-0.174796,-0.164526,-1.27832,-0.307001,0.00386471,-0.150087
26,45,-1.0472,-0.698132,-0.174533,-0.174533,-1.03441,-0.687167,-0.174796,-0.164526,-1.27832,-0.307001,0.00386471,-0.150087
26,45,-1.0472,-0.698132,-0.174533,-0.174533,-1.03441,-0.687167,-0.174796,-0.164526,-1.27832,-0.307001,0.00386471,-0.150087
26,45,-1.0472,-0.698132,-0.174533,-0.174533,-1.03441,-0.687167,-0.174796,-0.164526,-1.27832,-0.307001,0.00386471,-0.150087
26,45,-1.0472,-0.698132,-0.174533,-0.174533,-1.03441,-0.687167,-0.174796,-0.164526,-1.27832,-0.307001,0.00386471,-0.150087
26,45,-1.0472,-0.698132,-0.174533,-0.174533,-1.03441,-0.687167,-0.174796,-0.164526,-1.27832,-0.307001,0.00386471,-0.150087
26,45,-1.0472,-0.698132,-0.174533,-0.174533,-1.03441,-0.687167,-0.174796,-0.164526,-1.27832,-0.307001,0.00386471,-0.150087
26,45,-1.0472,-0.698132,-0.174533,-0.174533,-1.03441,-0.687167,-0.174796,-0.164526,-1.27832,-0.307001,0.00386471,-0.150087
26,45,-1.0472,-0.698132,-0.174533,-0.174533,-1.03441,-0.687167,-0.174796,-0.164526,-1.27832,-0.307001,0.00386471,-0.150087
26,45,-1.0472,-0.698132,-0.174533,-0.174533,-1.03441,-0.687167,-0.174796,-0.164526,-1.27832,-0.307001,0.00386471,-0.150087
26,45,-1.0472,-0.698132,-0.174533,-0.174533,-1.03441,-0.687167,-0.174796,-0.164526,-1.27832,-0.307001,0.00386471,-0.150087
26,45,-1.0472,-0.698132,-0.174533,-0.174533,-1.03441,-0.687167,-0.174796,-0.164526,-1.27832,-0.307001,0.00386471,-0.150087
26,45,-1.0472,-0.698132,-0.174533,-0.174533,-1.03441,-0.687167,-0.174796,-0.164526,-1.27832,-0.307001,0.00386471,-0.150087
26,45,-1.0472,-0.698132,-0.174533,-0.174533,-1.03441,-0.687167,-0.174796,-0.164526,-1.27832,-0.307001,0.00386471,-0.150087
26,45,-1.0472,-0.698132,-0.174533,-0.174533,-1.03441,-0.687167,-0.174796,-0.164526,-1.27832,-0.307001,0.00386471,-0.150087
26,45,-1.0472,-0.698132,-0.174533,-0.174533,-1.03441,-0.687167,-0.174796,-0.164526,-1.27832,-0.307001,0.00386471,-0.150087
26,45,-1.0472,-0.698132,-0.174533,-0.174533,-1.03441,-0.687167,-0.174731,-0.164483,-1.27832,-0.307001,0.00289073,-0.150725
26,45,-1.0472,-0.698132,-0.174533,-0.174533,-1.03441,-0.687167,-0.174731,-0.164483,-1.27832,-0.307001,0.00289073,-0.150725
26,45,-1.0472,-0.698132,-0.174533,-0.174533,-1.03441,-0.687167,-0.174671,-0.164502,-1.27832,-0.307001,0.00202601,-0.150442
26,45,-1.0472,-0.698132,-0.174533,-0.174533,-1.03441,-0.687167,-0.174671,-0.164502,-1.27832,-0.307001,0.00202601,-0.150442
26,45,-1.0472,-0.698132,-0.174533,-0.174533,-1.03441,-0.687167,-0.174671,-0.164502,-1.27832,-0.307001,0.00202601,-0.150442
26,45,-1.0472,-0.698132,-0.174533,-0.174533,-1.03441,-0.687167,-0.174671,-0.164502,-1.27832,-0.307001,0.00202601,-0.150442
26,45,-1.0472,-0.698132,-0.174533,-0.174533,-1.03441,-0.687167,-0.174671,-0.164502,-1.27832,-0.307001,0.00202601,-0.150442
26,45,-1.0472,-0.698132,-0.174533,-0.174533,-1.03441,-0.687167,-0.174671,-0.164502,-1.27832,-0.307001,0.00202601,-0.150442
26,45,-1.0472,-0.698132,-0.174533,-0.174533,-1.03441,-0.687167,-0.174671,-0.164502,-1.27832,-0.307001,0.00202601,-0.150442
26,45,-1.0472,-0.698132,-0.174533,-0.174533,-1.03441,-0.687167,-0.174671,-0.164502,-1.27832,-0.307001,0.00202601,-0.150442
26,45,-1.0472,-0.698132,-0.174533,-0.174533,-1.03441,-0.687167,-0.174671,-0.164502,-1.27832,-0.307001,0.00202601,-0.150442
26,45,-1.0472,-0.698132,-0.174533,-0.174533,-1.03441,-0.687167,-0.174671,-0.164502,-1.27832,-0.307001,0.00202601,-0.150442
26,45,-1.0472,-0.698132,-0.174533,-0.174533,-1.03441,-0.687167,-0.174671,-0.164502,-1.27832,-0.307001,0.00202601,-0.150442
26,45,-1.0472,-0.698132,-0.174533,-0.174533,-1.03441,-0.687167,-0.174671,-0.164502,-1.27832,-0.307001,0.00202601,-0.150442
26,45,-1.0472,-0.698132,-0.174533,-0.174533,-1.03441,-0.687167,-0.174671,-0.164502,-1.27832,-0.307001,0.00202601,-0.150442
26,45,-1.0472,-0.698132,-0.174533,-0.174533,-1.03441,-0.687167,-0.174671,-0.164502,-1.27832,-0.307001,0.00202601,-0.150442
26,45,-1.0472,-0.698132,-0.174533,-0.174533,-1.03441,-0.687167,-0.174671,-0.164502,-1.27832,-0.307001,0.00202601,-0.150442
26,45,-1.0472,-0.698132,-0.174533,-0.174533,-1.03441,-0.687167,-0.174671,-0.164502,-1.27832,-0.307001,0.00202601,-0.150442
26,45,-1.0472,-0.698132,-0.174533,-0.174533,-1.03441,-0.687167,-0.174671,-0.164502,-1.27832,-0.307001,0.00202601,-0.150442
26,45,-1.0472,-0.698132,-0.174533,-0.174533,-1.03441,-0.687167,-0.174671,-0.164502,-1.27832,-0.307001,0.00202601,-0.150442
26,45,-1.0472,-0.698132,-0.174533,-0.174533,-1.03441,-0.687167,-0.174671,-0.164502,-1.27832,-0.307001,0.00202601,-0.150442
26,45,-1.0472,-0.698132,-0.174533,-0.174533,-1.03441,-0.687167,-0.174671,-0.164502,-1.27832,-0.307001,0.00202601,-0.150442
26,45,-1.0472,-0.698132,-0.174533,-0.174533,-1.03441,-0.687167,-0.174671,-0.164502,-1.27832,-0.307001,0.00202601,-0.150442
26,45,-1.0472,-0.698132,-0.174533,-0.174533,-1.03441,-0.687167,-0.174671,-0.164502,-1.27832,-0.307001,0.00202601,-0.150442
26,45,-1.0472,-0.698132,-0.174533,-0.174533,-1.03441,-0.687167,-0.174671,-0.164502,-1.27832,-0.307001,0.00202601,-0.150442
26,45,-1.0472,-0.698132,-0.174533,-0.174533,-1.03441,-0.687167,-0.174671,-0.164502,-1.27832,-0.307001,0.00202601,-0.150442
26,45,-1.0472,-0.698132,-0.174533,-0.174533,-1.03441,-0.687167,-0.174671,-0.164502,-1.27832,-0.307001,0.00202601,-0.150442
26,45,-1.0472,-0.698132,-0.174533,-0.174533,-1.03441,-0.687167,-0.174671,-0.164502,-1.27832,-0.307001,0.00202601,-0.150442
26,45,-1.0472,-0.698132,-0.174533,-0.174533,-1.03441,-0.687167,-0.174671,-0.164502,-1.27832,-0.307001,0.00202601,-0.150442
26,45,-1.0472,-0.698132,-0.174533,-0.174533,-1.03441,-0.687167,-0.174671,-0.164502,-1.27832,-0.307001,0.00202601,-0.150442
26,45,-1.0472,-0.698132,-0.174533,-0.174533,-1.03441,-0.687167,-0.174671,-0.164502,-1.27832,-0.307001,0.00202601,-0.150442
26,45,-1.0472,-0.698132,-0.174533,-0.174533,-1.03441,-0.687167,-0.174671,-0.164502,-1.27832,-0.307001,0.00202601,-0.150442
26,45,-1.0472,-0.698132,-0.174533,-0.174533,-1.03441,-0.687167,-0.174671,-0.164502,-1.27832,-0.307001,0.00202601,-0.150442
26,45,-1.0472,-0.698132,-0.174533,-0.174533,-1.03441,-0.687167,-0.174671,-0.164502,-1.27832,-0.307001,0.00202601,-0.150442
26,45,-1.0472,-0.698132,-0.174533,-0.174533,-1.03441,-0.687167,-0.174671,-0.164502,-1.27832,-0.307001,0.00202601,-0.150442
26,45,-1.0472,-0.698132,-0.174533,-0.174533,-1.03441,-0.687167,-0.174671,-0.164502,-1.27832,-0.307001,0.00202601,-0.150442
26,45,-1.0472,-0.698132,-0.174533,-0.174533,-1.03441,-0.687167,-0.174671,-0.164502,-1.27832,-0.307001,0.00202601,-0.150442
26,45,-1.0472,-0.698132,-0.174533,-0.174533,-1.03441,-0.687167,-0.174612,-0.164522,-1.27832,-0.307001,0.00115347,-0.150158
26,45,-1.0472,-0.698132,-0.174533,-0.174533,-1.03441,-0.687167,-0.174612,-0.164522,-1.27832,-0.307001,0.00115347,-0.150158
26,45,-1.0472,-0.698132,-0.174533,-0.174533,-1.03441,-0.687167,-0.174612,-0.164522,-1.27832,-0.307001,0.00115347,-0.150158
26,45,-1.0472,-0.698132,-0.174533,-0.174533,-1.03441,-0.687167,-0.174612,-0.164522,-1.27832,-0.307001,0.00115347,-0.150158
26,45,-1.0472,-0.698132,-0.174533,-0.174533,-1.03441,-0.687167,-0.174612,-0.164522,-1.27832,-0.307001,0.00115347,-0.150158
26,45,-1.0472,-0.698132,-0.174533,-0.174533,-1.03441,-0.687167,-0.174612,-0.164522,-1.27832,-0.307001,0.00115347,-0.150158
26,45,-1.0472,-0.698132,-0.174533,-0.174533,-1.03441,-0.687167,-0.174612,-0.164522,-1.27832,-0.307001,0.00115347,-0.150158
26,45,-1.0472,-0.698132,-0.174533,-0.174533,-1.03441,-0.687167,-0.174612,-0.164522,-1.27832,-0.307001,0.00115347,-0.150158
26,45,-1.0472,-0.698132,-0.174533,-0.174533,-1.03441,-0.687167,-0.174612,-0.164522,-1.27832,-0.307001,0.00115347,-0.150158
26,45,-1.0472,-0.698132,-0.174533,-0.174533,-1.03441,-0.687167,-0.174612,-0.164522,-1.27832,-0.307001,0.00115347,-0.150158
26,45,-1.0472,-0.698132,-0.174533,-0.174533,-1.03441,-0.687167,-0.174612,-0.164522,-1.27832,-0.307001,0.00115347,-0.150158
26,45,-1.0472,-0.698132,-0.174533,-0.174533,-1.03441,-0.687167,-0.174612,-0.164522,-1.27832,-0.307001,0.00115347,-0.150158
26,45,-1.0472,-0.698132,-0.174533,-0.174533,-1.03441,-0.687167,-0.174612,-0.164522,-1.27832,-0.307001,0.00115347,-0.150158
26,45,-1.0472,-0.698132,-0.174533,-0.174533,-1.03441,-0.687167,-0.174612,-0.164522,-1.27832,-0.307001,0.00115347,-0.150158
26,45,-1.0472,-0.698132,-0.174533,-0.174533,-1.03441,-0.687167,-0.174547,-0.164479,-1.27832,-0.307001,0.000179661,-0.150796
26,45,-1.0472,-0.698132,-0.174533,-0.174533,-1.03441,-0.687167,-0.174547,-0.164479,-1.27832,-0.307001,0.000179661,-0.150796
26,45,-1.0472,-0.698132,-0.174533,-0.174533,-1.03441,-0.687167,-0.174547,-0.164479,-1.27832,-0.307001,0.000179661,-0.150796
26,45,-1.0472,-0.698132,-0.174533,-0.174533,-1.03441,-0.687167,-0.174547,-0.164479,-1.27832,-0.307001,0.000179661,-0.150796
26,45,-1.0472,-0.698132,-0.174533,-0.174533,-1.03441,-0.687167,-0.174547,-0.164479,-1.27832,-0.307001,0.000179661,-0.150796
26,45,-1.0472,-0.698132,-0.174533,-0.174533,-1.03441,-0.687167,-0.174547,-0.164479,-1.27832,-0.307001,0.000179661,-0.150796
26,45,-1.0472,-0.698132,-0.174533,-0.174533,-1.03441,-0.687167,-0.174547,-0.164479,-1.27832,-0.307001,0.000179661,-0.150796
26,45,-1.0472,-0.698132,-0.174533,-0.174533,-1.03441,-0.687167,-0.174547,-0.164479,-1.27832,-0.307001,0.000179661,-0.150796
26,45,-1.0472,-0.698132,-0.174533,-0.174533,-1.03441,-0.687167,-0.174547,-0.164479,-1.27832,-0.307001,0.000179661,-0.150796
26,45,-1.0472,-0.698132,-0.174533,-0.174533,-1.03441,-0.687167,-0.174547,-0.164479,-1.27832,-0.307001,0.000179661,-0.150796
26,45,-1.0472,-0.698132,-0.174533,-0.174533,-1.03441,-0.687167,-0.174488,-0.164499,-1.27832,-0.307001,-0.000678516,-0.150515
26,45,-1.0472,-0.698132,-0.174533,-0.174533,-1.03441,-0.687167,-0.174488,-0.164499,-1.27832,-0.307001,-0.000678516,-0.150515
26,45,-1.0472,-0.698132,-0.174533,-0.174533,-1.03441,-0.687167,-0.174488,-0.164499,-1.27832,-0.307001,-0.000678516,-0.150515
26,45,-1.0472,-0.698132,-0.174533,-0.174533,-1.03441,-0.687167,-0.174488,-0.164499,-1.27832,-0.307001,-0.000678516,-0.150515
26,45,-1.0472,-0.698132,-0.174533,-0.174533,-1.03441,-0.687167,-0.174488,-0.164499,-1.27832,-0.307001,-0.000678516,-0.150515
26,45,-1.0472,-0.698132,-0.174533,-0.174533,-1.03441,-0.687167,-0.174488,-0.164499,-1.27832,-0.307001,-0.000678516,-0.150515
26,45,-1.0472,-0.698132,-0.174533,-0.174533,-1.03441,-0.687167,-0.174488,-0.164499,-1.27832,-0.307001,-0.000678516,-0.150515
26,45,-1.0472,-0.698132,-0.174533,-0.174533,-1.03441,-0.687167,-0.174488,-0.164499,-1.27832,-0.307001,-0.000678516,-0.150515
26,45,-1.0472,-0.698132,-0.174533,-0.174533,-1.03441,-0.687167,-0.174488,-0.164499,-1.27832,-0.307001,-0.000678516,-0.150515
26,45,-1.0472,-0.698132,-0.174533,-0.174533,-1.03441,-0.687167,-0.174488,-0.164499,-1.27832,-0.307001,-0.000678516,-0.150515
26,45,-1.0472,-0.698132,-0.174533,-0.174533,-1.03441,-0.687167,-0.174488,-0.164499,-1.27832,-0.307001,-0.000678516,-0.150515
26,45,-1.0472,-0.698132,-0.174533,-0.174533,-1.03441,-0.687167,-0.174428,-0.164518,-1.27832,-0.307001,-0.00156871,-0.150225
26,45,-1.0472,-0.698132,-0.174533,-0.174533,-1.03441,-0.687167,-0.174428,-0.164518,-1.27832,-0.307001,-0.00156871,-0.150225
26,45,-1.0472,-0.698132,-0.174533,-0.174533,-1.03441,-0.687167,-0.174428,-0.164518,-1.27832,-0.307001,-0.00156871,-0.150225
26,45,-1.0472,-0.698132,-0.174533,-0.174533,-1.03441,-0.687167,-0.174428,-0.164518,-1.27832,-0.307001,-0.00156871,-0.150225
26,45,-1.0472,-0.698132,-0.174533,-0.174533,-1.03441,-0.687167,-0.174428,-0.164518,-1.27832,-0.307001,-0.00156871,-0.150225
26,45,-1.0472,-0.698132,-0.174533,-0.174533,-1.03441,-0.687167,-0.174428,-0.164518,-1.27832,-0.307001,-0.00156871,-0.150225
26,45,-1.0472,-0.698132,-0.174533,-0.174533,-1.03441,-0.687167,-0.174369,-0.164537,-1.27832,-0.307001,-0.00248999,-0.149924
26,45,-1.0472,-0.698132,-0.174533,-0.174533,-1.03441,-0.687167,-0.174369,-0.164537,-1.27832,-0.307001,-0.00248999,-0.149924
26,45,-1.0472,-0.698132,-0.174533,-0.174533,-1.03441,-0.687167,-0.174369,-0.164537,-1.27832,-0.307001,-0.00248999,-0.149924
26,45,-1.0472,-0.698132,-0.174533,-0.174533,-1.03441,-0.687167,-0.174369,-0.164537,-1.27832,-0.307001,-0.00248999,-0.149924
26,45,-1.0472,-0.698132,-0.174533,-0.174533,-1.03441,-0.687167,-0.174369,-0.164537,-1.27832,-0.307001,-0.00248999,-0.149924
26,45,-1.0472,-0.698132,-0.174533,-0.174533,-1.03441,-0.687167,-0.174369,-0.164537,-1.27832,-0.307001,-0.00248999,-0.149924
26,45,-1.0472,-0.698132,-0.174533,-0.174533,-1.03441,-0.687167,-0.174369,-0.164537,-1.27832,-0.307001,-0.00248999,-0.149924
26,45,-1.0472,-0.698132,-0.174533,-0.174533,-1.03441,-0.687167,-0.174304,-0.164495,-1.27832,-0.307001,-0.0034636,-0.150562
26,45,-1.0472,-0.698132,-0.174533,-0.174533,-1.03441,-0.687167,-0.174304,-0.164495,-1.27832,-0.307001,-0.0034636,-0.150562
26,45,-1.0472,-0.698132,-0.174533,-0.174533,-1.03441,-0.687167,-0.174304,-0.164495,-1.27832,-0.307001,-0.0034636,-0.150562
26,45,-1.0472,-0.698132,-0.174533,-0.174533,-1.03441,-0.687167,-0.174245,-0.164514,-1.27832,-0.307001,-0.00436933,-0.150266
26,45,-1.0472,-0.698132,-0.174533,-0.174533,-1.03441,-0.687167,-0.174245,-0.164514,-1.27832,-0.307001,-0.00436933,-0.150266
26,45,-1.0472,-0.698132,-0.174533,-0.174533,-1.03441,-0.687167,-0.174245,-0.164514,-1.27832,-0.307001,-0.00436933,-0.150266
26,45,-1.0472,-0.698132,-0.174533,-0.174533,-1.03441,-0.687167,-0.174245,-0.164514,-1.27832,-0.307001,-0.00436933,-0.150266
26,45,-1.0472,-0.698132,-0.174533,-0.174533,-1.03441,-0.687167,-0.174245,-0.164514,-1.27832,-0.307001,-0.00436933,-0.150266
26,45,-1.0472,-0.698132,-0.174533,-0.174533,-1.03441,-0.687167,-0.174248,-0.164574,-1.27832,-0.307001,-0.00432646,-0.149366
26,45,-1.0472,-0.698132,-0.174533,-0.174533,-1.03441,-0.687167,-0.174248,-0.164574,-1.27832,-0.307001,-0.00432646,-0.149366
26,45,-1.0472,-0.698132,-0.174533,-0.174533,-1.03441,-0.687167,-0.174188,-0.164594,-1.27832,-0.307001,-0.00523941,-0.149068
26,45,-1.0472,-0.698132,-0.174533,-0.174533,-1.03441,-0.687167,-0.174188,-0.164594,-1.27832,-0.307001,-0.00523941,-0.149068
26,45,-1.0472,-0.698132,-0.174533,-0.174533,-1.03441,-0.687167,-0.174188,-0.164594,-1.27832,-0.307001,-0.00523941,-0.149068
26,45,-1.0472,-0.698132,-0.174533,-0.174533,-1.03441,-0.687167,-0.174188,-0.164594,-1.27832,-0.307001,-0.00523941,-0.149068
26,45,-1.0472,-0.698132,-0.174533,-0.174533,-1.03441,-0.687167,-0.174188,-0.164594,-1.27832,-0.307001,-0.00523941,-0.149068
26,45,-1.0472,-0.698132,-0.174533,-0.174533,-1.03441,-0.687167,-0.174123,-0.164551,-1.27832,-0.307001,-0.00621291,-0.149705
26,45,-1.0472,-0.698132,-0.174533,-0.174533,-1.03441,-0.687167,-0.174123,-0.164551,-1.27832,-0.307001,-0.00621291,-0.149705
26,45,-1.0472,-0.698132,-0.174533,-0.174533,-1.03441,-0.687167,-0.174123,-0.164551,-1.27832,-0.307001,-0.00621291,-0.149705
26,45,-1.0472,-0.698132,-0.174533,-0.174533,-1.03441,-0.687167,-0.174064,-0.16457,-1.27832,-0.307001,-0.00710877,-0.149413
26,45,-1.0472,-0.698132,-0.174533,-0.174533,-1.03441,-0.687167,-0.174064,-0.16457,-1.27832,-0.307001,-0.00710877,-0.149413
26,45,-1.0472,-0.698132,-0.174533,-0.174533,-1.03441,-0.687167,-0.174064,-0.16457,-1.27832,-0.307001,-0.00710877,-0.149413
26,45,-1.0472,-0.698132,-0.174533,-0.174533,-1.03441,-0.687167,-0.174064,-0.16457,-1.27832,-0.307001,-0.00710877,-0.149413
26,45,-1.0472,-0.698132,-0.174533,-0.174533,-1.03441,-0.687167,-0.174064,-0.16457,-1.27832,-0.307001,-0.00710877,-0.149413
26,45,-1.0472,-0.698132,-0.174533,-0.174533,-1.03441,-0.687167,-0.174064,-0.16457,-1.27832,-0.307001,-0.00710877,-0.149413
26,45,-1.0472,-0.698132,-0.174533,-0.174533,-1.03441,-0.687167,-0.174064,-0.16457,-1.27832,-0.307001,-0.00710877,-0.149413
26,45,-1.0472,-0.698132,-0.174533,-0.174533,-1.03441,-0.687167,-0.174064,-0.16457,-1.27832,-0.307001,-0.00710877,-0.149413
26,45,-1.0472,-0.698132,-0.174533,-0.174533,-1.03441,-0.687167,-0.174005,-0.16459,-1.27832,-0.307001,-0.00799677,-0.149123
26,45,-1.0472,-0.698132,-0.174533,-0.174533,-1.03441,-0.687167,-0.174005,-0.16459,-1.27832,-0.307001,-0.00799677,-0.149123
26,45,-1.0472,-0.698132,-0.174533,-0.174533,-1.03441,-0.687167,-0.174005,-0.16459,-1.27832,-0.307001,-0.00799677,-0.149123
26,45,-1.0472,-0.698132,-0.174533,-0.174533,-1.03441,-0.687167,-0.174005,-0.16459,-1.27832,-0.307001,-0.00799677,-0.149123
26,45,-1.0472,-0.698132,-0.174533,-0.174533,-1.03441,-0.687167,-0.174005,-0.16459,-1.27832,-0.307001,-0.00799677,-0.149123
26,45,-1.0472,-0.698132,-0.174533,-0.174533,-1.03441,-0.687167,-0.17394,-0.164547,-1.27832,-0.307001,-0.0089701,-0.14976
26,45,-1.0472,-0.698132,-0.174533,-0.174533,-1.03441,-0.687167,-0.17394,-0.164547,-1.27832,-0.307001,-0.0089701,-0.14976
26,45,-1.0472,-0.698132,-0.174533,-0.174533,-1.03441,-0.687167,-0.17394,-0.164547,-1.27832,-0.307001,-0.0089701,-0.14976
26,45,-1.0472,-0.698132,-0.174533,-0.174533,-1.03441,-0.687167,-0.17394,-0.164547,-1.27832,-0.307001,-0.0089701,-0.14976
26,45,-1.0472,-0.698132,-0.174533,-0.174533,-1.03441,-0.687167,-0.17394,-0.164547,-1.27832,-0.307001,-0.0089701,-0.14976
26,45,-1.0472,-0.698132,-0.174533,-0.174533,-1.03441,-0.687167,-0.17388,-0.164567,-1.27832,-0.307001,-0.0098597,-0.149469
26,45,-1.0472,-0.698132,-0.174533,-0.174533,-1.03441,-0.687167,-0.17388,-0.164567,-1.27832,-0.307001,-0.0098597,-0.149469
26,45,-1.0472,-0.698132,-0.174533,-0.174533,-1.03441,-0.687167,-0.17388,-0.164567,-1.27832,-0.307001,-0.0098597,-0.149469
26,45,-1.0472,-0.698132,-0.174533,-0.174533,-1.03441,-0.687167,-0.17388,-0.164567,-1.27832,-0.307001,-0.0098597,-0.149469
26,45,-1.0472,-0.698132,-0.174533,-0.174533,-1.03441,-0.687167,-0.17388,-0.164567,-1.27832,-0.307001,-0.0098597,-0.149469
26,45,-1.0472,-0.698132,-0.174533,-0.174533,-1.03441,-0.687167,-0.17388,-0.164567,-1.27832,-0.307001,-0.0098597,-0.149469
26,45,-1.0472,-0.698132,-0.174533,-0.174533,-1.03441,-0.687167,-0.17388,-0.164567,-1.27832,-0.307001,-0.0098597,-0.149469
26,45,-1.0472,-0.698132,-0.174533,-0.174533,-1.03441,-0.687167,-0.17388,-0.164567,-1.27832,-0.307001,-0.0098597,-0.149469
26,45,-1.0472,-0.698132,-0.174533,-0.174533,-1.03441,-0.687167,-0.17388,-0.164567,-1.27832,-0.307001,-0.0098597,-0.149469
26,45,-1.0472,-0.698132,-0.174533,-0.174533,-1.03441,-0.687167,-0.17388,-0.164567,-1.27832,-0.307001,-0.0098597,-0.149469
26,45,-1.0472,-0.698132,-0.174533,-0.174533,-1.03441,-0.687167,-0.17388,-0.164567,-1.27832,-0.307001,-0.0098597,-0.149469
26,45,-1.0472,-0.698132,-0.174533,-0.174533,-1.03441,-0.687167,-0.173821,-0.164586,-1.27832,-0.307001,-0.0107431,-0.149181
26,45,-1.0472,-0.698132,-0.174533,-0.174533,-1.03441,-0.687167,-0.173821,-0.164586,-1.27832,-0.307001,-0.0107431,-0.149181
26,45,-1.0472,-0.698132,-0.174533,-0.174533,-1.03441,-0.687167,-0.173821,-0.164586,-1.27832,-0.307001,-0.0107431,-0.149181
26,45,-1.0472,-0.698132,-0.174533,-0.174533,-1.03441,-0.687167,-0.173821,-0.164586,-1.27832,-0.307001,-0.0107431,-0.149181
26,45,-1.0472,-0.698132,-0.174533,-0.174533,-1.03441,-0.687167,-0.173821,-0.164586,-1.27832,-0.307001,-0.0107431,-0.149181
26,45,-1.0472,-0.698132,-0.174533,-0.174533,-1.03441,-0.687167,-0.173821,-0.164586,-1.27832,-0.307001,-0.0107431,-0.149181
26,45,-1.0472,-0.698132,-0.174533,-0.174533,-1.03441,-0.687167,-0.173821,-0.164586,-1.27832,-0.307001,-0.0107431,-0.149181
26,45,-1.0472,-0.698132,-0.174533,-0.174533,-1.03441,-0.687167,-0.173762,-0.164606,-1.27832,-0.307001,-0.0116343,-0.14889
26,45,-1.0472,-0.698132,-0.174533,-0.174533,-1.03441,-0.687167,-0.173762,-0.164606,-1.27832,-0.307001,-0.0116343,-0.14889
26,45,-1.0472,-0.698132,-0.174533,-0.174533,-1.03441,-0.687167,-0.173762,-0.164606,-1.27832,-0.307001,-0.0116343,-0.14889
26,45,-1.0472,-0.698132,-0.174533,-0.174533,-1.03441,-0.687167,-0.173762,-0.164606,-1.27832,-0.307001,-0.0116343,-0.14889
26,45,-1.0472,-0.698132,-0.174533,-0.174533,-1.03441,-0.687167,-0.173762,-0.164606,-1.27832,-0.307001,-0.0116343,-0.14889
26,45,-1.0472,-0.698132,-0.174533,-0.174533,-1.03441,-0.687167,-0.173702,-0.164625,-1.27832,-0.307001,-0.0125316,-0.148596
26,45,-1.0472,-0.698132,-0.174533,-0.174533,-1.03441,-0.687167,-0.173702,-0.164625,-1.27832,-0.307001,-0.0125316,-0.148596
26,45,-1.0472,-0.698132,-0.174533,-0.174533,-1.03441,-0.687167,-0.173702,-0.164625,-1.27832,-0.307001,-0.0125316,-0.148596
26,45,-1.0472,-0.698132,-0.174533,-0.174533,-1.03441,-0.687167,-0.173702,-0.164625,-1.27832,-0.307001,-0.0125316,-0.148596
26,45,-1.0472,-0.698132,-0.174533,-0.174533,-1.03441,-0.687167,-0.173643,-0.164644,-1.27832,-0.307001,-0.013435,-0.148301
26,45,-1.0472,-0.698132,-0.174533,-0.174533,-1.03441,-0.687167,-0.173643,-0.164644,-1.27832,-0.307001,-0.013435,-0.148301
26,45,-1.0472,-0.698132,-0.174533,-0.174533,-1.03441,-0.687167,-0.173643,-0.164644,-1.27832,-0.307001,-0.013435,-0.148301
26,45,-1.0472,-0.698132,-0.174533,-0.174533,-1.03441,-0.687167,-0.173643,-0.164644,-1.27832,-0.307001,-0.013435,-0.148301
26,45,-1.0472,-0.698132,-0.174533,-0.174533,-1.03441,-0.687167,-0.173643,-0.164644,-1.27832,-0.307001,-0.013435,-0.148301
26,45,-1.0472,-0.698132,-0.174533,-0.174533,-1.03441,-0.687167,-0.173578,-0.164602,-1.27832,-0.307001,-0.0144081,-0.148938
26,45,-1.0472,-0.698132,-0.174533,-0.174533,-1.03441,-0.687167,-0.173578,-0.164602,-1.27832,-0.307001,-0.0144081,-0.148938
26,45,-1.0472,-0.698132,-0.174533,-0.174533,-1.03441,-0.687167,-0.173578,-0.164602,-1.27832,-0.307001,-0.0144081,-0.148938
26,45,-1.0472,-0.698132,-0.174533,-0.174533,-1.03441,-0.687167,-0.173519,-0.164621,-1.27832,-0.307001,-0.0153091,-0.148644
26,45,-1.0472,-0.698132,-0.174533,-0.174533,-1.03441,-0.687167,-0.173519,-0.164621,-1.27832,-0.307001,-0.0153091,-0.148644
26,45,-1.0472,-0.698132,-0.174533,-0.174533,-1.03441,-0.687167,-0.173519,-0.164621,-1.27832,-0.307001,-0.0153091,-0.148644
26,45,-1.0472,-0.698132,-0.174533,-0.174533,-1.03441,-0.687167,-0.173519,-0.164621,-1.27832,-0.307001,-0.0153091,-0.148644
26,45,-1.0472,-0.698132,-0.174533,-0.174533,-1.03441,-0.687167,-0.173519,-0.164621,-1.27832,-0.307001,-0.0153091,-0.148644
26,45,-1.0472,-0.698132,-0.174533,-0.174533,-1.03441,-0.687167,-0.173519,-0.164621,-1.27832,-0.307001,-0.0153091,-0.148644
26,45,-1.0472,-0.698132,-0.174533,-0.174533,-1.03441,-0.687167,-0.173519,-0.164621,-1.27832,-0.307001,-0.0153091,-0.148644
26,45,-1.0472,-0.698132,-0.174533,-0.174533,-1.03441,-0.687167,-0.173519,-0.164621,-1.27832,-0.307001,-0.0153091,-0.148644
26,45,-1.0472,-0.698132,-0.174533,-0.174533,-1.03441,-0.687167,-0.173519,-0.164621,-1.27832,-0.307001,-0.0153091,-0.148644
26,45,-1.0472,-0.698132,-0.174533,-0.174533,-1.03441,-0.687167,-0.173519,-0.164621,-1.27832,-0.307001,-0.0153091,-0.148644
26,45,-1.0472,-0.698132,-0.174533,-0.174533,-1.03441,-0.687167,-0.173519,-0.164621,-1.27832,-0.307001,-0.0153091,-0.148644
26,45,-1.0472,-0.698132,-0.174533,-0.174533,-1.03441,-0.687167,-0.173519,-0.164621,-1.27832,-0.307001,-0.0153091,-0.148644
26,45,-1.0472,-0.698132,-0.174533,-0.174533,-1.03441,-0.687167,-0.173519,-0.164621,-1.27832,-0.307001,-0.0153091,-0.148644
26,45,-1.0472,-0.698132,-0.174533,-0.174533,-1.03441,-0.687167,-0.173459,-0.164641,-1.27832,-0.307001,-0.0161824,-0.148358
26,45,-1.0472,-0.698132,-0.174533,-0.174533,-1.03441,-0.687167,-0.173459,-0.164641,-1.27832,-0.307001,-0.0161824,-0.148358
26,45,-1.0472,-0.698132,-0.174533,-0.174533,-1.03441,-0.687167,-0.173459,-0.164641,-1.27832,-0.307001,-0.0161824,-0.148358
26,45,-1.0472,-0.698132,-0.174533,-0.174533,-1.03441,-0.687167,-0.173459,-0.164641,-1.27832,-0.307001,-0.0161824,-0.148358
26,45,-1.0472,-0.698132,-0.174533,-0.174533,-1.03441,-0.687167,-0.173459,-0.164641,-1.27832,-0.307001,-0.0161824,-0.148358
26,45,-1.0472,-0.698132,-0.174533,-0.174533,-1.03441,-0.687167,-0.173459,-0.164641,-1.27832,-0.307001,-0.0161824,-0.148358
26,45,-1.0472,-0.698132,-0.174533,-0.174533,-1.03441,-0.687167,-0.173459,-0.164641,-1.27832,-0.307001,-0.0161824,-0.148358
26,45,-1.0472,-0.698132,-0.174533,-0.174533,-1.03441,-0.687167,-0.173459,-0.164641,-1.27832,-0.307001,-0.0161824,-0.148358
26,45,-1.0472,-0.698132,-0.174533,-0.174533,-1.03441,-0.687167,-0.173459,-0.164641,-1.27832,-0.307001,-0.0161824,-0.148358
26,45,-1.0472,-0.698132,-0.174533,-0.174533,-1.03441,-0.687167,-0.173459,-0.164641,-1.27832,-0.307001,-0.0161824,-0.148358
26,45,-1.0472,-0.698132,-0.174533,-0.174533,-1.03441,-0.687167,-0.173459,-0.164641,-1.27832,-0.307001,-0.0161824,-0.148358
26,45,-1.0472,-0.698132,-0.174533,-0.174533,-1.03441,-0.687167,-0.173459,-0.164641,-1.27832,-0.307001,-0.0161824,-0.148358
26,45,-1.0472,-0.698132,-0.174533,-0.174533,-1.03441,-0.687167,-0.173459,-0.164641,-1.27832,-0.307001,-0.0161824,-0.148358
26,45,-1.0472,-0.698132,-0.174533,-0.174533,-1.03441,-0.687167,-0.173459,-0.164641,-1.27832,-0.307001,-0.0161824,-0.148358
26,45,-1.0472,-0.698132,-0.174533,-0.174533,-1.03441,-0.687167,-0.173459,-0.164641,-1.27832,-0.307001,-0.0161824,-0.148358
26,45,-1.0472,-0.698132,-0.174533,-0.174533,-1.03441,-0.687167,-0.173459,-0.164641,-1.27832,-0.307001,-0.0161824,-0.148358
26,45,-1.0472,-0.698132,-0.174533,-0.174533,-1.03441,-0.687167,-0.173459,-0.164641,-1.27832,-0.307001,-0.0161824,-0.148358
26,45,-1.0472,-0.698132,-0.174533,-0.174533,-1.03441,-0.687167,-0.173459,-0.164641,-1.27832,-0.307001,-0.0161824,-0.148358
26,45,-1.0472,-0.698132,-0.174533,-0.174533,-1.03441,-0.687167,-0.173459,-0.164641,-1.27832,-0.307001,-0.0161824,-0.148358
26,45,-1.0472,-0.698132,-0.174533,-0.174533,-1.03441,-0.687167,-0.173459,-0.164641,-1.27832,-0.307001,-0.0161824,-0.148358
26,45,-1.0472,-0.698132,-0.174533,-0.174533,-1.03441,-0.687167,-0.173459,-0.164641,-1.27832,-0.307001,-0.0161824,-0.148358
26,45,-1.0472,-0.698132,-0.174533,-0.174533,-1.03441,-0.687167,-0.173459,-0.164641,-1.27832,-0.307001,-0.0161824,-0.148358
26,45,-1.0472,-0.698132,-0.174533,-0.174533,-1.03441,-0.687167,-0.1734,-0.16466,-1.27832,-0.307001,-0.0170453,-0.148076
26,45,-1.0472,-0.698132,-0.174533,-0.174533,-1.03441,-0.687167,-0.1734,-0.16466,-1.27832,-0.307001,-0.0170453,-0.148076
26,45,-1.0472,-0.698132,-0.174533,-0.174533,-1.03441,-0.687167,-0.1734,-0.16466,-1.27832,-0.307001,-0.0170453,-0.148076
26,45,-1.0472,-0.698132,-0.174533,-0.174533,-1.03441,-0.687167,-0.1734,-0.16466,-1.27832,-0.307001,-0.0170453,-0.148076
26,45,-1.0472,-0.698132,-0.174533,-0.174533,-1.03441,-0.687167,-0.1734,-0.16466,-1.27832,-0.307001,-0.0170453,-0.148076
26,45,-1.0472,-0.698132,-0.174533,-0.174533,-1.03441,-0.687167,-0.1734,-0.16466,-1.27832,-0.307001,-0.0170453,-0.148076
26,45,-1.0472,-0.698132,-0.174533,-0.174533,-1.03441,-0.687167,-0.1734,-0.16466,-1.27832,-0.307001,-0.0170453,-0.148076
26,45,-1.0472,-0.698132,-0.174533,-0.174533,-1.03441,-0.687167,-0.1734,-0.16466,-1.27832,-0.307001,-0.0170453,-0.148076
26,45,-1.0472,-0.698132,-0.174533,-0.174533,-1.03441,-0.687167,-0.1734,-0.16466,-1.27832,-0.307001,-0.0170453,-0.148076
26,45,-1.0472,-0.698132,-0.174533,-0.174533,-1.03441,-0.687167,-0.1734,-0.16466,-1.27832,-0.307001,-0.0170453,-0.148076
26,45,-1.0472,-0.698132,-0.174533,-0.174533,-1.03441,-0.687167,-0.173341,-0.164679,-1.27832,-0.307001,-0.0179282,-0.147788
26,45,-1.0472,-0.698132,-0.174533,-0.174533,-1.03441,-0.687167,-0.173341,-0.164679,-1.27832,-0.307001,-0.0179282,-0.147788
26,45,-1.0472,-0.698132,-0.174533,-0.174533,-1.03441,-0.687167,-0.173341,-0.164679,-1.27832,-0.307001,-0.0179282,-0.147788
26,45,-1.0472,-0.698132,-0.174533,-0.174533,-1.03441,-0.687167,-0.173341,-0.164679,-1.27832,-0.307001,-0.0179282,-0.147788
26,45,-1.0472,-0.698132,-0.174533,-0.174533,-1.03441,-0.687167,-0.173341,-0.164679,-1.27832,-0.307001,-0.0179282,-0.147788
26,45,-1.0472,-0.698132,-0.174533,-0.174533,-1.03441,-0.687167,-0.173341,-0.164679,-1.27832,-0.307001,-0.0179282,-0.147788
26,45,-1.0472,-0.698132,-0.174533,-0.174533,-1.03441,-0.687167,-0.173341,-0.164679,-1.27832,-0.307001,-0.0179282,-0.147788
26,45,-1.0472,-0.698132,-0.174533,-0.174533,-1.03441,-0.687167,-0.173341,-0.164679,-1.27832,-0.307001,-0.0179282,-0.147788
26,45,-1.0472,-0.698132,-0.174533,-0.174533,-1.03441,-0.687167,-0.173341,-0.164679,-1.27832,-0.307001,-0.0179282,-0.147788
26,45,-1.0472,-0.698132,-0.174533,-0.174533,-1.03441,-0.687167,-0.173341,-0.164679,-1.27832,-0.307001,-0.0179282,-0.147788
26,45,-1.0472,-0.698132,-0.174533,-0.174533,-1.03441,-0.687167,-0.173341,-0.164679,-1.27832,-0.307001,-0.0179282,-0.147788
26,45,-1.0472,-0.698132,-0.174533,-0.174533,-1.03441,-0.687167,-0.173341,-0.164679,-1.27832,-0.307001,-0.0179282,-0.147788
26,45,-1.0472,-0.698132,-0.174533,-0.174533,-1.03441,-0.687167,-0.173341,-0.164679,-1.27832,-0.307001,-0.0179282,-0.147788
26,45,-1.0472,-0.698132,-0.174533,-0.174533,-1.03441,-0.687167,-0.173341,-0.164679,-1.27832,-0.307001,-0.0179282,-0.147788
26,45,-1.0472,-0.698132,-0.174533,-0.174533,-1.03441,-0.687167,-0.173341,-0.164679,-1.27832,-0.307001,-0.0179282,-0.147788
26,45,-1.0472,-0.698132,-0.174533,-0.174533,-1.03441,-0.687167,-0.173341,-0.164679,-1.27832,-0.307001,-0.0179282,-0.147788
26,45,-1.0472,-0.698132,-0.174533,-0.174533,-1.03441,-0.687167,-0.173281,-0.164699,-1.27832,-0.307001,-0.0188129,-0.147498
26,45,-1.0472,-0.698132,-0.174533,-0.174533,-1.03441,-0.687167,-0.173281,-0.164699,-1.27832,-0.307001,-0.0188129,-0.147498
26,45,-1.0472,-0.698132,-0.174533,-0.174533,-1.03441,-0.687167,-0.173281,-0.164699,-1.27832,-0.307001,-0.0188129,-0.147498
26,45,-1.0472,-0.698132,-0.174533,-0.174533,-1.03441,-0.687167,-0.173216,-0.164656,-1.27832,-0.307001,-0.0197857,-0.148135
26,45,-1.0472,-0.698132,-0.174533,-0.174533,-1.03441,-0.687167,-0.173216,-0.164656,-1.27832,-0.307001,-0.0197857,-0.148135
26,45,-1.0472,-0.698132,-0.174533,-0.174533,-1.03441,-0.687167,-0.173216,-0.164656,-1.27832,-0.307001,-0.0197857,-0.148135
26,45,-1.0472,-0.698132,-0.174533,-0.174533,-1.03441,-0.687167,-0.173216,-0.164656,-1.27832,-0.307001,-0.0197857,-0.148135
26,45,-1.0472,-0.698132,-0.174533,-0.174533,-1.03441,-0.687167,-0.173216,-0.164656,-1.27832,-0.307001,-0.0197857,-0.148135
26,45,-1.0472,-0.698132,-0.174533,-0.174533,-1.03441,-0.687167,-0.173216,-0.164656,-1.27832,-0.307001,-0.0197857,-0.148135
26,45,-1.0472,-0.698132,-0.174533,-0.174533,-1.03441,-0.687167,-0.173216,-0.164656,-1.27832,-0.307001,-0.0197857,-0.148135
26,45,-1.0472,-0.698132,-0.174533,-0.174533,-1.03441,-0.687167,-0.173216,-0.164656,-1.27832,-0.307001,-0.0197857,-0.148135
26,45,-1.0472,-0.698132,-0.174533,-0.174533,-1.03441,-0.687167,-0.173216,-0.164656,-1.27832,-0.307001,-0.0197857,-0.148135
26,45,-1.0472,-0.698132,-0.174533,-0.174533,-1.03441,-0.687167,-0.173216,-0.164656,-1.27832,-0.307001,-0.0197857,-0.148135
26,45,-1.0472,-0.698132,-0.174533,-0.174533,-1.03441,-0.687167,-0.173216,-0.164656,-1.27832,-0.307001,-0.0197857,-0.148135
26,45,-1.0472,-0.698132,-0.174533,-0.174533,-1.03441,-0.687167,-0.173216,-0.164656,-1.27832,-0.307001,-0.0197857,-0.148135
26,45,-1.0472,-0.698132,-0.174533,-0.174533,-1.03441,-0.687167,-0.173216,-0.164656,-1.27832,-0.307001,-0.0197857,-0.148135
26,45,-1.0472,-0.698132,-0.174533,-0.174533,-1.03441,-0.687167,-0.173216,-0.164656,-1.27832,-0.307001,-0.0197857,-0.148135
26,45,-1.0472,-0.698132,-0.174533,-0.174533,-1.03441,-0.687167,-0.173216,-0.164656,-1.27832,-0.307001,-0.0197857,-0.148135
26,45,-1.0472,-0.698132,-0.174533,-0.174533,-1.03441,-0.687167,-0.173216,-0.164656,-1.27832,-0.307001,-0.0197857,-0.148135
26,45,-1.0472,-0.698132,-0.174533,-0.174533,-1.03441,-0.687167,-0.173216,-0.164656,-1.27832,-0.307001,-0.0197857,-0.148135
26,45,-1.0472,-0.698132,-0.174533,-0.174533,-1.03441,-0.687167,-0.173216,-0.164656,-1.27832,-0.307001,-0.0197857,-0.148135
26,45,-1.0472,-0.698132,-0.174533,-0.174533,-1.03441,-0.687167,-0.173157,-0.164676,-1.27832,-0.307001,-0.0206713,-0.147846
26,45,-1.0472,-0.698132,-0.174533,-0.174533,-1.03441,-0.687167,-0.173157,-0.164676,-1.27832,-0.307001,-0.0206713,-0.147846
26,45,-1.0472,-0.698132,-0.174533,-0.174533,-1.03441,-0.687167,-0.173157,-0.164676,-1.27832,-0.307001,-0.0206713,-0.147846
26,45,-1.0472,-0.698132,-0.174533,-0.174533,-1.03441,-0.687167,-0.173157,-0.164676,-1.27832,-0.307001,-0.0206713,-0.147846
26,45,-1.0472,-0.698132,-0.174533,-0.174533,-1.03441,-0.687167,-0.173157,-0.164676,-1.27832,-0.307001,-0.0206713,-0.147846
26,45,-1.0472,-0.698132,-0.174533,-0.174533,-1.03441,-0.687167,-0.173157,-0.164676,-1.27832,-0.307001,-0.0206713,-0.147846
26,45,-1.0472,-0.698132,-0.174533,-0.174533,-1.03441,-0.687167,-0.173157,-0.164676,-1.27832,-0.307001,-0.0206713,-0.147846
26,45,-1.0472,-0.698132,-0.174533,-0.174533,-1.03441,-0.687167,-0.173157,-0.164676,-1.27832,-0.307001,-0.0206713,-0.147846
26,45,-1.0472,-0.698132,-0.174533,-0.174533,-1.03441,-0.687167,-0.173157,-0.164676,-1.27832,-0.307001,-0.0206713,-0.147846
26,45,-1.0472,-0.698132,-0.174533,-0.174533,-1.03441,-0.687167,-0.173157,-0.164676,-1.27832,-0.307001,-0.0206713,-0.147846
26,45,-1.0472,-0.698132,-0.174533,-0.174533,-1.03441,-0.687167,-0.173157,-0.164676,-1.27832,-0.307001,-0.0206713,-0.147846
26,45,-1.0472,-0.698132,-0.174533,-0.174533,-1.03441,-0.687167,-0.173157,-0.164676,-1.27832,-0.307001,-0.0206713,-0.147846
26,45,-1.0472,-0.698132,-0.174533,-0.174533,-1.03441,-0.687167,-0.173157,-0.164676,-1.27832,-0.307001,-0.0206713,-0.147846
26,45,-1.0472,-0.698132,-0.174533,-0.174533,-1.03441,-0.687167,-0.173157,-0.164676,-1.27832,-0.307001,-0.0206713,-0.147846
26,45,-1.0472,-0.698132,-0.174533,-0.174533,-1.03441,-0.687167,-0.173157,-0.164676,-1.27832,-0.307001,-0.0206713,-0.147846
26,45,-1.0472,-0.698132,-0.174533,-0.174533,-1.03441,-0.687167,-0.173157,-0.164676,-1.27832,-0.307001,-0.0206713,-0.147846
26,45,-1.0472,-0.698132,-0.174533,-0.174533,-1.03441,-0.687167,-0.173098,-0.164695,-1.27832,-0.307001,-0.0215636,-0.147554
26,45,-1.0472,-0.698132,-0.174533,-0.174533,-1.03441,-0.687167,-0.173098,-0.164695,-1.27832,-0.307001,-0.0215636,-0.147554
26,45,-1.0472,-0.698132,-0.174533,-0.174533,-1.03441,-0.687167,-0.173098,-0.164695,-1.27832,-0.307001,-0.0215636,-0.147554
26,45,-1.0472,-0.698132,-0.174533,-0.174533,-1.03441,-0.687167,-0.173098,-0.164695,-1.27832,-0.307001,-0.0215636,-0.147554
26,45,-1.0472,-0.698132,-0.174533,-0.174533,-1.03441,-0.687167,-0.173098,-0.164695,-1.27832,-0.307001,-0.0215636,-0.147554
26,45,-1.0472,-0.698132,-0.174533,-0.174533,-1.03441,-0.687167,-0.173098,-0.164695,-1.27832,-0.307001,-0.0215636,-0.147554
26,45,-1.0472,-0.698132,-0.174533,-0.174533,-1.03441,-0.687167,-0.173098,-0.164695,-1.27832,-0.307001,-0.0215636,-0.147554
26,45,-1.0472,-0.698132,-0.174533,-0.174533,-1.03441,-0.687167,-0.173098,-0.164695,-1.27832,-0.307001,-0.0215636,-0.147554
26,45,-1.0472,-0.698132,-0.174533,-0.174533,-1.03441,-0.687167,-0.173098,-0.164695,-1.27832,-0.307001,-0.0215636,-0.147554
26,45,-1.0472,-0.698132,-0.174533,-0.174533,-1.03441,-0.687167,-0.173098,-0.164695,-1.27832,-0.307001,-0.0215636,-0.147554
26,45,-1.0472,-0.698132,-0.174533,-0.174533,-1.03441,-0.687167,-0.173098,-0.164695,-1.27832,-0.307001,-0.0215636,-0.147554
26,45,-1.0472,-0.698132,-0.174533,-0.174533,-1.03441,-0.687167,-0.173098,-0.164695,-1.27832,-0.307001,-0.0215636,-0.147554
26,45,-1.0472,-0.698132,-0.174533,-0.174533,-1.03441,-0.687167,-0.173098,-0.164695,-1.27832,-0.307001,-0.0215636,-0.147554
26,45,-1.0472,-0.698132,-0.174533,-0.174533,-1.03441,-0.687167,-0.173098,-0.164695,-1.27832,-0.307001,-0.0215636,-0.147554
26,45,-1.0472,-0.698132,-0.174533,-0.174533,-1.03441,-0.687167,-0.173098,-0.164695,-1.27832,-0.307001,-0.0215636,-0.147554
26,45,-1.0472,-0.698132,-0.174533,-0.174533,-1.03441,-0.687167,-0.173098,-0.164695,-1.27832,-0.307001,-0.0215636,-0.147554
26,45,-1.0472,-0.698132,-0.174533,-0.174533,-1.03441,-0.687167,-0.173098,-0.164695,-1.27832,-0.307001,-0.0215636,-0.147554
26,45,-1.0472,-0.698132,-0.174533,-0.174533,-1.03441,-0.687167,-0.173098,-0.164695,-1.27832,-0.307001,-0.0215636,-0.147554
26,45,-1.0472,-0.698132,-0.174533,-0.174533,-1.03441,-0.687167,-0.173098,-0.164695,-1.27832,-0.307001,-0.0215636,-0.147554
26,45,-1.0472,-0.698132,-0.174533,-0.174533,-1.03441,-0.687167,-0.173098,-0.164695,-1.27832,-0.307001,-0.0215636,-0.147554
26,45,-1.0472,-0.698132,-0.174533,-0.174533,-1.03441,-0.687167,-0.173098,-0.164695,-1.27832,-0.307001,-0.0215636,-0.147554
26,45,-1.0472,-0.698132,-0.174533,-0.174533,-1.03441,-0.687167,-0.173098,-0.164695,-1.27832,-0.307001,-0.0215636,-0.147554
26,45,-1.0472,-0.698132,-0.174533,-0.174533,-1.03441,-0.687167,-0.173098,-0.164695,-1.27832,-0.307001,-0.0215636,-0.147554
26,45,-1.0472,-0.698132,-0.174533,-0.174533,-1.03441,-0.687167,-0.173098,-0.164695,-1.27832,-0.307001,-0.0215636,-0.147554
26,45,-1.0472,-0.698132,-0.174533,-0.174533,-1.03441,-0.687167,-0.173033,-0.164653,-1.27832,-0.307001,-0.0225363,-0.148191
26,45,-1.0472,-0.698132,-0.174533,-0.174533,-1.03441,-0.687167,-0.172974,-0.164672,-1.27832,-0.307001,-0.023421,-0.147902
26,45,-1.0472,-0.698132,-0.174533,-0.174533,-1.03441,-0.687167,-0.172974,-0.164672,-1.27832,-0.307001,-0.023421,-0.147902
26,45,-1.0472,-0.698132,-0.174533,-0.174533,-1.03441,-0.687167,-0.172974,-0.164672,-1.27832,-0.307001,-0.023421,-0.147902
26,45,-1.0472,-0.698132,-0.174533,-0.174533,-1.03441,-0.687167,-0.172974,-0.164672,-1.27832,-0.307001,-0.023421,-0.147902
26,45,-1.0472,-0.698132,-0.174533,-0.174533,-1.03441,-0.687167,-0.172974,-0.164672,-1.27832,-0.307001,-0.023421,-0.147902
26,45,-1.0472,-0.698132,-0.174533,-0.174533,-1.03441,-0.687167,-0.172974,-0.164672,-1.27832,-0.307001,-0.023421,-0.147902
26,45,-1.0472,-0.698132,-0.174533,-0.174533,-1.03441,-0.687167,-0.172974,-0.164672,-1.27832,-0.307001,-0.023421,-0.147902
26,45,-1.0472,-0.698132,-0.174533,-0.174533,-1.03441,-0.687167,-0.172974,-0.164672,-1.27832,-0.307001,-0.023421,-0.147902
26,45,-1.0472,-0.698132,-0.174533,-0.174533,-1.03441,-0.687167,-0.172974,-0.164672,-1.27832,-0.307001,-0.023421,-0.147902
26,45,-1.0472,-0.698132,-0.174533,-0.174533,-1.03441,-0.687167,-0.172974,-0.164672,-1.27832,-0.307001,-0.023421,-0.147902
26,45,-1.0472,-0.698132,-0.174533,-0.174533,-1.03441,-0.687167,-0.172974,-0.164672,-1.27832,-0.307001,-0.023421,-0.147902
26,45,-1.0472,-0.698132,-0.174533,-0.174533,-1.03441,-0.687167,-0.172974,-0.164672,-1.27832,-0.307001,-0.023421,-0.147902
26,45,-1.0472,-0.698132,-0.174533,-0.174533,-1.03441,-0.687167,-0.172974,-0.164672,-1.27832,-0.307001,-0.023421,-0.147902
26,45,-1.0472,-0.698132,-0.174533,-0.174533,-1.03441,-0.687167,-0.172974,-0.164672,-1.27832,-0.307001,-0.023421,-0.147902
26,45,-1.0472,-0.698132,-0.174533,-0.174533,-1.03441,-0.687167,-0.172974,-0.164672,-1.27832,-0.307001,-0.023421,-0.147902
26,45,-1.0472,-0.698132,-0.174533,-0.174533,-1.03441,-0.687167,-0.172974,-0.164672,-1.27832,-0.307001,-0.023421,-0.147902
26,45,-1.0472,-0.698132,-0.174533,-0.174533,-1.03441,-0.687167,-0.172974,-0.164672,-1.27832,-0.307001,-0.023421,-0.147902
26,45,-1.0472,-0.698132,-0.174533,-0.174533,-1.03441,-0.687167,-0.172974,-0.164672,-1.27832,-0.307001,-0.023421,-0.147902
26,45,-1.0472,-0.698132,-0.174533,-0.174533,-1.03441,-0.687167,-0.172974,-0.164672,-1.27832,-0.307001,-0.023421,-0.147902
26,45,-1.0472,-0.698132,-0.174533,-0.174533,-1.03441,-0.687167,-0.172974,-0.164672,-1.27832,-0.307001,-0.023421,-0.147902
26,45,-1.0472,-0.698132,-0.174533,-0.174533,-1.03441,-0.687167,-0.172974,-0.164672,-1.27832,-0.307001,-0.023421,-0.147902
26,45,-1.0472,-0.698132,-0.174533,-0.174533,-1.03441,-0.687167,-0.172974,-0.164672,-1.27832,-0.307001,-0.023421,-0.147902
26,45,-1.0472,-0.698132,-0.174533,-0.174533,-1.03441,-0.687167,-0.172974,-0.164672,-1.27832,-0.307001,-0.023421,-0.147902
26,45,-1.0472,-0.698132,-0.174533,-0.174533,-1.03441,-0.687167,-0.172974,-0.164672,-1.27832,-0.307001,-0.023421,-0.147902
26,45,-1.0472,-0.698132,-0.174533,-0.174533,-1.03441,-0.687167,-0.172914,-0.164692,-1.27832,-0.307001,-0.0242806,-0.14762
26,45,-1.0472,-0.698132,-0.174533,-0.174533,-1.03441,-0.687167,-0.172914,-0.164692,-1.27832,-0.307001,-0.0242806,-0.14762
26,45,-1.0472,-0.698132,-0.174533,-0.174533,-1.03441,-0.687167,-0.172914,-0.164692,-1.27832,-0.307001,-0.0242806,-0.14762
26,45,-1.0472,-0.698132,-0.174533,-0.174533,-1.03441,-0.687167,-0.172914,-0.164692,-1.27832,-0.307001,-0.0242806,-0.14762
26,45,-1.0472,-0.698132,-0.174533,-0.174533,-1.03441,-0.687167,-0.172914,-0.164692,-1.27832,-0.307001,-0.0242806,-0.14762
26,45,-1.0472,-0.698132,-0.174533,-0.174533,-1.03441,-0.687167,-0.172914,-0.164692,-1.27832,-0.307001,-0.0242806,-0.14762
26,45,-1.0472,-0.698132,-0.174533,-0.174533,-1.03441,-0.687167,-0.172914,-0.164692,-1.27832,-0.307001,-0.0242806,-0.14762
26,45,-1.0472,-0.698132,-0.174533,-0.174533,-1.03441,-0.687167,-0.172914,-0.164692,-1.27832,-0.307001,-0.0242806,-0.14762
26,45,-1.0472,-0.698132,-0.174533,-0.174533,-1.03441,-0.687167,-0.172914,-0.164692,-1.27832,-0.307001,-0.0242806,-0.14762
26,45,-1.0472,-0.698132,-0.174533,-0.174533,-1.03441,-0.687167,-0.172914,-0.164692,-1.27832,-0.307001,-0.0242806,-0.14762
26,45,-1.0472,-0.698132,-0.174533,-0.174533,-1.03441,-0.687167,-0.172914,-0.164692,-1.27832,-0.307001,-0.0242806,-0.14762
26,45,-1.0472,-0.698132,-0.174533,-0.174533,-1.03441,-0.687167,-0.172914,-0.164692,-1.27832,-0.307001,-0.0242806,-0.14762
26,45,-1.0472,-0.698132,-0.174533,-0.174533,-1.03441,-0.687167,-0.172914,-0.164692,-1.27832,-0.307001,-0.0242806,-0.14762
26,45,-1.0472,-0.698132,-0.174533,-0.174533,-1.03441,-0.687167,-0.172849,-0.164649,-1.27832,-0.307001,-0.0252531,-0.148257
26,45,-1.0472,-0.698132,-0.174533,-0.174533,-1.03441,-0.687167,-0.172849,-0.164649,-1.27832,-0.307001,-0.0252531,-0.148257
26,45,-1.0472,-0.698132,-0.174533,-0.174533,-1.03441,-0.687167,-0.172849,-0.164649,-1.27832,-0.307001,-0.0252531,-0.148257
26,45,-1.0472,-0.698132,-0.174533,-0.174533,-1.03441,-0.687167,-0.172849,-0.164649,-1.27832,-0.307001,-0.0252531,-0.148257
26,45,-1.0472,-0.698132,-0.174533,-0.174533,-1.03441,-0.687167,-0.172849,-0.164649,-1.27832,-0.307001,-0.0252531,-0.148257
26,45,-1.0472,-0.698132,-0.174533,-0.174533,-1.03441,-0.687167,-0.172849,-0.164649,-1.27832,-0.307001,-0.0252531,-0.148257
26,45,-1.0472,-0.698132,-0.174533,-0.174533,-1.03441,-0.687167,-0.172849,-0.164649,-1.27832,-0.307001,-0.0252531,-0.148257
26,45,-1.0472,-0.698132,-0.174533,-0.174533,-1.03441,-0.687167,-0.172849,-0.164649,-1.27832,-0.307001,-0.0252531,-0.148257
26,45,-1.0472,-0.698132,-0.174533,-0.174533,-1.03441,-0.687167,-0.172849,-0.164649,-1.27832,-0.307001,-0.0252531,-0.148257
26,45,-1.0472,-0.698132,-0.174533,-0.174533,-1.03441,-0.687167,-0.172849,-0.164649,-1.27832,-0.307001,-0.0252531,-0.148257
26,45,-1.0472,-0.698132,-0.174533,-0.174533,-1.03441,-0.687167,-0.172849,-0.164649,-1.27832,-0.307001,-0.0252531,-0.148257
26,45,-1.0472,-0.698132,-0.174533,-0.174533,-1.03441,-0.687167,-0.172849,-0.164649,-1.27832,-0.307001,-0.0252531,-0.148257
26,45,-1.0472,-0.698132,-0.174533,-0.174533,-1.03441,-0.687167,-0.172849,-0.164649,-1.27832,-0.307001,-0.0252531,-0.148257
26,45,-1.0472,-0.698132,-0.174533,-0.174533,-1.03441,-0.687167,-0.172849,-0.164649,-1.27832,-0.307001,-0.0252531,-0.148257
26,45,-1.0472,-0.698132,-0.174533,-0.174533,-1.03441,-0.687167,-0.172849,-0.164649,-1.27832,-0.307001,-0.0252531,-0.148257
26,45,-1.0472,-0.698132,-0.174533,-0.174533,-1.03441,-0.687167,-0.172849,-0.164649,-1.27832,-0.307001,-0.0252531,-0.148257
26,45,-1.0472,-0.698132,-0.174533,-0.174533,-1.03441,-0.687167,-0.172849,-0.164649,-1.27832,-0.307001,-0.0252531,-0.148257
26,45,-1.0472,-0.698132,-0.174533,-0.174533,-1.03441,-0.687167,-0.172849,-0.164649,-1.27832,-0.307001,-0.0252531,-0.148257
26,45,-1.0472,-0.698132,-0.174533,-0.174533,-1.03441,-0.687167,-0.172849,-0.164649,-1.27832,-0.307001,-0.0252531,-0.148257
26,45,-1.0472,-0.698132,-0.174533,-0.174533,-1.03441,-0.687167,-0.172849,-0.164649,-1.27832,-0.307001,-0.0252531,-0.148257
26,45,-1.0472,-0.698132,-0.174533,-0.174533,-1.03441,-0.687167,-0.172849,-0.164649,-1.27832,-0.307001,-0.0252531,-0.148257
26,45,-1.0472,-0.698132,-0.174533,-0.174533,-1.03441,-0.687167,-0.172849,-0.164649,-1.27832,-0.307001,-0.0252531,-0.148257
26,45,-1.0472,-0.698132,-0.174533,-0.174533,-1.03441,-0.687167,-0.172849,-0.164649,-1.27832,-0.307001,-0.0252531,-0.148257
26,45,-1.0472,-0.698132,-0.174533,-0.174533,-1.03441,-0.687167,-0.172849,-0.164649,-1.27832,-0.307001,-0.0252531,-0.148257
26,45,-1.0472,-0.698132,-0.174533,-0.174533,-1.03441,-0.687167,-0.172849,-0.164649,-1.27832,-0.307001,-0.0252531,-0.148257
26,45,-1.0472,-0.698132,-0.174533,-0.174533,-1.03441,-0.687167,-0.172849,-0.164649,-1.27832,-0.307001,-0.0252531,-0.148257
26,45,-1.0472,-0.698132,-0.174533,-0.174533,-1.03441,-0.687167,-0.172849,-0.164649,-1.27832,-0.307001,-0.0252531,-0.148257
26,45,-1.0472,-0.698132,-0.174533,-0.174533,-1.03441,-0.687167,-0.172849,-0.164649,-1.27832,-0.307001,-0.0252531,-0.148257
26,45,-1.0472,-0.698132,-0.174533,-0.174533,-1.03441,-0.687167,-0.172849,-0.164649,-1.27832,-0.307001,-0.0252531,-0.148257
26,45,-1.0472,-0.698132,-0.174533,-0.174533,-1.03441,-0.687167,-0.172849,-0.164649,-1.27832,-0.307001,-0.0252531,-0.148257
26,45,-1.0472,-0.698132,-0.174533,-0.174533,-1.03441,-0.687167,-0.172849,-0.164649,-1.27832,-0.307001,-0.0252531,-0.148257
26,45,-1.0472,-0.698132,-0.174533,-0.174533,-1.03441,-0.687167,-0.172849,-0.164649,-1.27832,-0.307001,-0.0252531,-0.148257
26,45,-1.0472,-0.698132,-0.174533,-0.174533,-1.03441,-0.687167,-0.172849,-0.164649,-1.27832,-0.307001,-0.0252531,-0.148257
26,45,-1.0472,-0.698132,-0.174533,-0.174533,-1.03441,-0.687167,-0.172849,-0.164649,-1.27832,-0.307001,-0.0252531,-0.148257
26,45,-1.0472,-0.698132,-0.174533,-0.174533,-1.03441,-0.687167,-0.172849,-0.164649,-1.27832,-0.307001,-0.0252531,-0.148257
26,45,-1.0472,-0.698132,-0.174533,-0.174533,-1.03441,-0.687167,-0.172849,-0.164649,-1.27832,-0.307001,-0.0252531,-0.148257
26,45,-1.0472,-0.698132,-0.174533,-0.174533,-1.03441,-0.687167,-0.172849,-0.164649,-1.27832,-0.307001,-0.0252531,-0.148257
26,45,-1.0472,-0.698132,-0.174533,-0.174533,-1.03441,-0.687167,-0.172849,-0.164649,-1.27832,-0.307001,-0.0252531,-0.148257
26,45,-1.0472,-0.698132,-0.174533,-0.174533,-1.03441,-0.687167,-0.172849,-0.164649,-1.27832,-0.307001,-0.0252531,-0.148257
26,45,-1.0472,-0.698132,-0.174533,-0.174533,-1.03441,-0.687167,-0.172849,-0.164649,-1.27832,-0.307001,-0.0252531,-0.148257
26,45,-1.0472,-0.698132,-0.174533,-0.174533,-1.03441,-0.687167,-0.172849,-0.164649,-1.27832,-0.307001,-0.0252531,-0.148257
26,45,-1.0472,-0.698132,-0.174533,-0.174533,-1.03441,-0.687167,-0.172849,-0.164649,-1.27832,-0.307001,-0.0252531,-0.148257
26,45,-1.0472,-0.698132,-0.174533,-0.174533,-1.03441,-0.687167,-0.172849,-0.164649,-1.27832,-0.307001,-0.0252531,-0.148257
26,45,-1.0472,-0.698132,-0.174533,-0.174533,-1.03441,-0.687167,-0.172849,-0.164649,-1.27832,-0.307001,-0.0252531,-0.148257
26,45,-1.0472,-0.698132,-0.174533,-0.174533,-1.03441,-0.687167,-0.172849,-0.164649,-1.27832,-0.307001,-0.0252531,-0.148257
26,45,-1.0472,-0.698132,-0.174533,-0.174533,-1.03441,-0.687167,-0.172849,-0.164649,-1.27832,-0.307001,-0.0252531,-0.148257
26,45,-1.0472,-0.698132,-0.174533,-0.174533,-1.03441,-0.687167,-0.172849,-0.164649,-1.27832,-0.307001,-0.0252531,-0.148257
26,45,-1.0472,-0.698132,-0.174533,-0.174533,-1.03441,-0.687167,-0.172849,-0.164649,-1.27832,-0.307001,-0.0252531,-0.148257
26,45,-1.0472,-0.698132,-0.174533,-0.174533,-1.03441,-0.687167,-0.172849,-0.164649,-1.27832,-0.307001,-0.0252531,-0.148257
26,45,-1.0472,-0.698132,-0.174533,-0.174533,-1.03441,-0.687167,-0.172849,-0.164649,-1.27832,-0.307001,-0.0252531,-0.148257
26,45,-1.0472,-0.698132,-0.174533,-0.174533,-1.03441,-0.687167,-0.172849,-0.164649,-1.27832,-0.307001,-0.0252531,-0.148257
26,45,-1.0472,-0.698132,-0.174533,-0.174533,-1.03441,-0.687167,-0.172849,-0.164649,-1.27832,-0.307001,-0.0252531,-0.148257
26,45,-1.0472,-0.698132,-0.174533,-0.174533,-1.03441,-0.687167,-0.172849,-0.164649,-1.27832,-0.307001,-0.0252531,-0.148257
26,45,-1.0472,-0.698132,-0.174533,-0.174533,-1.03441,-0.687167,-0.172849,-0.164649,-1.27832,-0.307001,-0.0252531,-0.148257
26,45,-1.0472,-0.698132,-0.174533,-0.174533,-1.03441,-0.687167,-0.172849,-0.164649,-1.27832,-0.307001,-0.0252531,-0.148257
26,45,-1.0472,-0.698132,-0.174533,-0.174533,-1.03441,-0.687167,-0.172849,-0.164649,-1.27832,-0.307001,-0.0252531,-0.148257
26,45,-1.0472,-0.698132,-0.174533,-0.174533,-1.03441,-0.687167,-0.172785,-0.164607,-1.27832,-0.307001,-0.0262255,-0.148894
26,45,-1.0472,-0.698132,-0.174533,-0.174533,-1.03441,-0.687167,-0.172785,-0.164607,-1.27832,-0.307001,-0.0262255,-0.148894
26,45,-1.0472,-0.698132,-0.174533,-0.174533,-1.03441,-0.687167,-0.172785,-0.164607,-1.27832,-0.307001,-0.0262255,-0.148894
26,45,-1.0472,-0.698132,-0.174533,-0.174533,-1.03441,-0.687167,-0.172785,-0.164607,-1.27832,-0.307001,-0.0262255,-0.148894
26,45,-1.0472,-0.698132,-0.174533,-0.174533,-1.03441,-0.687167,-0.172785,-0.164607,-1.27832,-0.307001,-0.0262255,-0.148894
26,45,-1.0472,-0.698132,-0.174533,-0.174533,-1.03441,-0.687167,-0.172785,-0.164607,-1.27832,-0.307001,-0.0262255,-0.148894
26,45,-1.0472,-0.698132,-0.174533,-0.174533,-1.03441,-0.687167,-0.172785,-0.164607,-1.27832,-0.307001,-0.0262255,-0.148894
26,45,-1.0472,-0.698132,-0.174533,-0.174533,-1.03441,-0.687167,-0.172785,-0.164607,-1.27832,-0.307001,-0.0262255,-0.148894
26,45,-1.0472,-0.698132,-0.174533,-0.174533,-1.03441,-0.687167,-0.172785,-0.164607,-1.27832,-0.307001,-0.0262255,-0.148894
26,45,-1.0472,-0.698132,-0.174533,-0.174533,-1.03441,-0.687167,-0.172785,-0.164607,-1.27832,-0.307001,-0.0262255,-0.148894
26,45,-1.0472,-0.698132,-0.174533,-0.174533,-1.03441,-0.687167,-0.172785,-0.164607,-1.27832,-0.307001,-0.0262255,-0.148894
26,45,-1.0472,-0.698132,-0.174533,-0.174533,-1.03441,-0.687167,-0.172785,-0.164607,-1.27832,-0.307001,-0.0262255,-0.148894
26,45,-1.0472,-0.698132,-0.174533,-0.174533,-1.03441,-0.687167,-0.172785,-0.164607,-1.27832,-0.307001,-0.0262255,-0.148894
26,45,-1.0472,-0.698132,-0.174533,-0.174533,-1.03441,-0.687167,-0.172785,-0.164607,-1.27832,-0.307001,-0.0262255,-0.148894
26,45,-1.0472,-0.698132,-0.174533,-0.174533,-1.03441,-0.687167,-0.172785,-0.164607,-1.27832,-0.307001,-0.0262255,-0.148894
26,45,-1.0472,-0.698132,-0.174533,-0.174533,-1.03441,-0.687167,-0.172785,-0.164607,-1.27832,-0.307001,-0.0262255,-0.148894
26,45,-1.0472,-0.698132,-0.174533,-0.174533,-1.03441,-0.687167,-0.172725,-0.164626,-1.27832,-0.307001,-0.0271158,-0.148603
26,45,-1.0472,-0.698132,-0.174533,-0.174533,-1.03441,-0.687167,-0.172725,-0.164626,-1.27832,-0.307001,-0.0271158,-0.148603
26,45,-1.0472,-0.698132,-0.174533,-0.174533,-1.03441,-0.687167,-0.172725,-0.164626,-1.27832,-0.307001,-0.0271158,-0.148603
26,45,-1.0472,-0.698132,-0.174533,-0.174533,-1.03441,-0.687167,-0.172725,-0.164626,-1.27832,-0.307001,-0.0271158,-0.148603
26,45,-1.0472,-0.698132,-0.174533,-0.174533,-1.03441,-0.687167,-0.172725,-0.164626,-1.27832,-0.307001,-0.0271158,-0.148603
26,45,-1.0472,-0.698132,-0.174533,-0.174533,-1.03441,-0.687167,-0.172725,-0.164626,-1.27832,-0.307001,-0.0271158,-0.148603
26,45,-1.0472,-0.698132,-0.174533,-0.174533,-1.03441,-0.687167,-0.172725,-0.164626,-1.27832,-0.307001,-0.0271158,-0.148603
26,45,-1.0472,-0.698132,-0.174533,-0.174533,-1.03441,-0.687167,-0.172725,-0.164626,-1.27832,-0.307001,-0.0271158,-0.148603
26,45,-1.0472,-0.698132,-0.174533,-0.174533,-1.03441,-0.687167,-0.172725,-0.164626,-1.27832,-0.307001,-0.0271158,-0.148603
26,45,-1.0472,-0.698132,-0.174533,-0.174533,-1.03441,-0.687167,-0.172725,-0.164626,-1.27832,-0.307001,-0.0271158,-0.148603
26,45,-1.0472,-0.698132,-0.174533,-0.174533,-1.03441,-0.687167,-0.172725,-0.164626,-1.27832,-0.307001,-0.0271158,-0.148603
26,45,-1.0472,-0.698132,-0.174533,-0.174533,-1.03441,-0.687167,-0.172725,-0.164626,-1.27832,-0.307001,-0.0271158,-0.148603
26,45,-1.0472,-0.698132,-0.174533,-0.174533,-1.03441,-0.687167,-0.172725,-0.164626,-1.27832,-0.307001,-0.0271158,-0.148603
26,45,-1.0472,-0.698132,-0.174533,-0.174533,-1.03441,-0.687167,-0.172725,-0.164626,-1.27832,-0.307001,-0.0271158,-0.148603
26,45,-1.0472,-0.698132,-0.174533,-0.174533,-1.03441,-0.687167,-0.172725,-0.164626,-1.27832,-0.307001,-0.0271158,-0.148603
26,45,-1.0472,-0.698132,-0.174533,-0.174533,-1.03441,-0.687167,-0.172725,-0.164626,-1.27832,-0.307001,-0.0271158,-0.148603
26,45,-1.0472,-0.698132,-0.174533,-0.174533,-1.03441,-0.687167,-0.172725,-0.164626,-1.27832,-0.307001,-0.0271158,-0.148603
26,45,-1.0472,-0.698132,-0.174533,-0.174533,-1.03441,-0.687167,-0.172725,-0.164626,-1.27832,-0.307001,-0.0271158,-0.148603
26,45,-1.0472,-0.698132,-0.174533,-0.174533,-1.03441,-0.687167,-0.172725,-0.164626,-1.27832,-0.307001,-0.0271158,-0.148603
26,45,-1.0472,-0.698132,-0.174533,-0.174533,-1.03441,-0.687167,-0.172725,-0.164626,-1.27832,-0.307001,-0.0271158,-0.148603
26,45,-1.0472,-0.698132,-0.174533,-0.174533,-1.03441,-0.687167,-0.172725,-0.164626,-1.27832,-0.307001,-0.0271158,-0.148603
26,45,-1.0472,-0.698132,-0.174533,-0.174533,-1.03441,-0.687167,-0.172725,-0.164626,-1.27832,-0.307001,-0.0271158,-0.148603
26,45,-1.0472,-0.698132,-0.174533,-0.174533,-1.03441,-0.687167,-0.172725,-0.164626,-1.27832,-0.307001,-0.0271158,-0.148603
26,45,-1.0472,-0.698132,-0.174533,-0.174533,-1.03441,-0.687167,-0.172725,-0.164626,-1.27832,-0.307001,-0.0271158,-0.148603
26,45,-1.0472,-0.698132,-0.174533,-0.174533,-1.03441,-0.687167,-0.172725,-0.164626,-1.27832,-0.307001,-0.0271158,-0.148603
26,45,-1.0472,-0.698132,-0.174533,-0.174533,-1.03441,-0.687167,-0.172725,-0.164626,-1.27832,-0.307001,-0.0271158,-0.148603
26,45,-1.0472,-0.698132,-0.174533,-0.174533,-1.03441,-0.687167,-0.172725,-0.164626,-1.27832,-0.307001,-0.0271158,-0.148603
26,45,-1.0472,-0.698132,-0.174533,-0.174533,-1.03441,-0.687167,-0.172725,-0.164626,-1.27832,-0.307001,-0.0271158,-0.148603
26,45,-1.0472,-0.698132,-0.174533,-0.174533,-1.03441,-0.687167,-0.172601,-0.164603,-1.27832,-0.307001,-0.0289784,-0.148948
26,45,-1.0472,-0.698132,-0.174533,-0.174533,-1.03441,-0.687167,-0.172601,-0.164603,-1.27832,-0.307001,-0.0289784,-0.148948
26,45,-1.0472,-0.698132,-0.174533,-0.174533,-1.03441,-0.687167,-0.172601,-0.164603,-1.27832,-0.307001,-0.0289784,-0.148948
26,45,-1.0472,-0.698132,-0.174533,-0.174533,-1.03441,-0.687167,-0.172601,-0.164603,-1.27832,-0.307001,-0.0289784,-0.148948
26,45,-1.0472,-0.698132,-0.174533,-0.174533,-1.03441,-0.687167,-0.172601,-0.164603,-1.27832,-0.307001,-0.0289784,-0.148948
26,45,-1.0472,-0.698132,-0.174533,-0.174533,-1.03441,-0.687167,-0.172601,-0.164603,-1.27832,-0.307001,-0.0289784,-0.148948
26,45,-1.0472,-0.698132,-0.174533,-0.174533,-1.03441,-0.687167,-0.172601,-0.164603,-1.27832,-0.307001,-0.0289784,-0.148948
26,45,-1.0472,-0.698132,-0.174533,-0.174533,-1.03441,-0.687167,-0.172601,-0.164603,-1.27832,-0.307001,-0.0289784,-0.148948
26,45,-1.0472,-0.698132,-0.174533,-0.174533,-1.03441,-0.687167,-0.172601,-0.164603,-1.27832,-0.307001,-0.0289784,-0.148948
26,45,-1.0472,-0.698132,-0.174533,-0.174533,-1.03441,-0.687167,-0.172601,-0.164603,-1.27832,-0.307001,-0.0289784,-0.148948
26,45,-1.0472,-0.698132,-0.174533,-0.174533,-1.03441,-0.687167,-0.172601,-0.164603,-1.27832,-0.307001,-0.0289784,-0.148948
26,45,-1.0472,-0.698132,-0.174533,-0.174533,-1.03441,-0.687167,-0.172601,-0.164603,-1.27832,-0.307001,-0.0289784,-0.148948
26,45,-1.0472,-0.698132,-0.174533,-0.174533,-1.03441,-0.687167,-0.172601,-0.164603,-1.27832,-0.307001,-0.0289784,-0.148948
26,45,-1.0472,-0.698132,-0.174533,-0.174533,-1.03441,-0.687167,-0.172601,-0.164603,-1.27832,-0.307001,-0.0289784,-0.148948
26,45,-1.0472,-0.698132,-0.174533,-0.174533,-1.03441,-0.687167,-0.172601,-0.164603,-1.27832,-0.307001,-0.0289784,-0.148948
26,45,-1.0472,-0.698132,-0.174533,-0.174533,-1.03441,-0.687167,-0.172601,-0.164603,-1.27832,-0.307001,-0.0289784,-0.148948
26,45,-1.0472,-0.698132,-0.174533,-0.174533,-1.03441,-0.687167,-0.172542,-0.164622,-1.27832,-0.307001,-0.0298688,-0.148657
26,45,-1.0472,-0.698132,-0.174533,-0.174533,-1.03441,-0.687167,-0.172542,-0.164622,-1.27832,-0.307001,-0.0298688,-0.148657
26,45,-1.0472,-0.698132,-0.174533,-0.174533,-1.03441,-0.687167,-0.172542,-0.164622,-1.27832,-0.307001,-0.0298688,-0.148657
26,45,-1.0472,-0.698132,-0.174533,-0.174533,-1.03441,-0.687167,-0.172542,-0.164622,-1.27832,-0.307001,-0.0298688,-0.148657
26,45,-1.0472,-0.698132,-0.174533,-0.174533,-1.03441,-0.687167,-0.172542,-0.164622,-1.27832,-0.307001,-0.0298688,-0.148657
26,45,-1.0472,-0.698132,-0.174533,-0.174533,-1.03441,-0.687167,-0.172542,-0.164622,-1.27832,-0.307001,-0.0298688,-0.148657
26,45,-1.0472,-0.698132,-0.174533,-0.174533,-1.03441,-0.687167,-0.172542,-0.164622,-1.27832,-0.307001,-0.0298688,-0.148657
26,45,-1.0472,-0.698132,-0.174533,-0.174533,-1.03441,-0.687167,-0.172542,-0.164622,-1.27832,-0.307001,-0.0298688,-0.148657
26,45,-1.0472,-0.698132,-0.174533,-0.174533,-1.03441,-0.687167,-0.172542,-0.164622,-1.27832,-0.307001,-0.0298688,-0.148657
26,45,-1.0472,-0.698132,-0.174533,-0.174533,-1.03441,-0.687167,-0.172542,-0.164622,-1.27832,-0.307001,-0.0298688,-0.148657
26,45,-1.0472,-0.698132,-0.174533,-0.174533,-1.03441,-0.687167,-0.172542,-0.164622,-1.27832,-0.307001,-0.0298688,-0.148657
26,45,-1.0472,-0.698132,-0.174533,-0.174533,-1.03441,-0.687167,-0.172542,-0.164622,-1.27832,-0.307001,-0.0298688,-0.148657
26,45,-1.0472,-0.698132,-0.174533,-0.174533,-1.03441,-0.687167,-0.172542,-0.164622,-1.27832,-0.307001,-0.0298688,-0.148657
26,45,-1.0472,-0.698132,-0.174533,-0.174533,-1.03441,-0.687167,-0.172542,-0.164622,-1.27832,-0.307001,-0.0298688,-0.148657
26,45,-1.0472,-0.698132,-0.174533,-0.174533,-1.03441,-0.687167,-0.172542,-0.164622,-1.27832,-0.307001,-0.0298688,-0.148657
26,45,-1.0472,-0.698132,-0.174533,-0.174533,-1.03441,-0.687167,-0.172542,-0.164622,-1.27832,-0.307001,-0.0298688,-0.148657
26,45,-1.0472,-0.698132,-0.174533,-0.174533,-1.03441,-0.687167,-0.172542,-0.164622,-1.27832,-0.307001,-0.0298688,-0.148657
26,45,-1.0472,-0.698132,-0.174533,-0.174533,-1.03441,-0.687167,-0.172542,-0.164622,-1.27832,-0.307001,-0.0298688,-0.148657
26,45,-1.0472,-0.698132,-0.174533,-0.174533,-1.03441,-0.687167,-0.172542,-0.164622,-1.27832,-0.307001,-0.0298688,-0.148657
26,45,-1.0472,-0.698132,-0.174533,-0.174533,-1.03441,-0.687167,-0.172542,-0.164622,-1.27832,-0.307001,-0.0298688,-0.148657
26,45,-1.0472,-0.698132,-0.174533,-0.174533,-1.03441,-0.687167,-0.172542,-0.164622,-1.27832,-0.307001,-0.0298688,-0.148657
26,45,-1.0472,-0.698132,-0.174533,-0.174533,-1.03441,-0.687167,-0.172542,-0.164622,-1.27832,-0.307001,-0.0298688,-0.148657
26,45,-1.0472,-0.698132,-0.174533,-0.174533,-1.03441,-0.687167,-0.172542,-0.164622,-1.27832,-0.307001,-0.0298688,-0.148657
26,45,-1.0472,-0.698132,-0.174533,-0.174533,-1.03441,-0.687167,-0.172542,-0.164622,-1.27832,-0.307001,-0.0298688,-0.148657
26,45,-1.0472,-0.698132,-0.174533,-0.174533,-1.03441,-0.687167,-0.172482,-0.164642,-1.27832,-0.307001,-0.0307591,-0.148365
26,45,-1.0472,-0.698132,-0.174533,-0.174533,-1.03441,-0.687167,-0.172482,-0.164642,-1.27832,-0.307001,-0.0307591,-0.148365
26,45,-1.0472,-0.698132,-0.174533,-0.174533,-1.03441,-0.687167,-0.172482,-0.164642,-1.27832,-0.307001,-0.0307591,-0.148365
26,45,-1.0472,-0.698132,-0.174533,-0.174533,-1.03441,-0.687167,-0.172482,-0.164642,-1.27832,-0.307001,-0.0307591,-0.148365
26,45,-1.0472,-0.698132,-0.174533,-0.174533,-1.03441,-0.687167,-0.172482,-0.164642,-1.27832,-0.307001,-0.0307591,-0.148365
26,45,-1.0472,-0.698132,-0.174533,-0.174533,-1.03441,-0.687167,-0.172482,-0.164642,-1.27832,-0.307001,-0.0307591,-0.148365
26,45,-1.0472,-0.698132,-0.174533,-0.174533,-1.03441,-0.687167,-0.172482,-0.164642,-1.27832,-0.307001,-0.0307591,-0.148365
26,45,-1.0472,-0.698132,-0.174533,-0.174533,-1.03441,-0.687167,-0.172482,-0.164642,-1.27832,-0.307001,-0.0307591,-0.148365
26,45,-1.0472,-0.698132,-0.174533,-0.174533,-1.03441,-0.687167,-0.172482,-0.164642,-1.27832,-0.307001,-0.0307591,-0.148365
26,45,-1.0472,-0.698132,-0.174533,-0.174533,-1.03441,-0.687167,-0.172482,-0.164642,-1.27832,-0.307001,-0.0307591,-0.148365
26,45,-1.0472,-0.698132,-0.174533,-0.174533,-1.03441,-0.687167,-0.172482,-0.164642,-1.27832,-0.307001,-0.0307591,-0.148365
26,45,-1.0472,-0.698132,-0.174533,-0.174533,-1.03441,-0.687167,-0.172482,-0.164642,-1.27832,-0.307001,-0.0307591,-0.148365
26,45,-1.0472,-0.698132,-0.174533,-0.174533,-1.03441,-0.687167,-0.172482,-0.164642,-1.27832,-0.307001,-0.0307591,-0.148365
26,45,-1.0472,-0.698132,-0.174533,-0.174533,-1.03441,-0.687167,-0.172482,-0.164642,-1.27832,-0.307001,-0.0307591,-0.148365
26,45,-1.0472,-0.698132,-0.174533,-0.174533,-1.03441,-0.687167,-0.172418,-0.164599,-1.27832,-0.307001,-0.0317312,-0.149002
26,45,-1.0472,-0.698132,-0.174533,-0.174533,-1.03441,-0.687167,-0.172418,-0.164599,-1.27832,-0.307001,-0.0317312,-0.149002
26,45,-1.0472,-0.698132,-0.174533,-0.174533,-1.03441,-0.687167,-0.172418,-0.164599,-1.27832,-0.307001,-0.0317312,-0.149002
26,45,-1.0472,-0.698132,-0.174533,-0.174533,-1.03441,-0.687167,-0.172418,-0.164599,-1.27832,-0.307001,-0.0317312,-0.149002
26,45,-1.0472,-0.698132,-0.174533,-0.174533,-1.03441,-0.687167,-0.172418,-0.164599,-1.27832,-0.307001,-0.0317312,-0.149002
26,45,-1.0472,-0.698132,-0.174533,-0.174533,-1.03441,-0.687167,-0.172418,-0.164599,-1.27832,-0.307001,-0.0317312,-0.149002
26,45,-1.0472,-0.698132,-0.174533,-0.174533,-1.03441,-0.687167,-0.172358,-0.164619,-1.27832,-0.307001,-0.0326215,-0.14871
26,45,-1.0472,-0.698132,-0.174533,-0.174533,-1.03441,-0.687167,-0.172358,-0.164619,-1.27832,-0.307001,-0.0326215,-0.14871
26,45,-1.0472,-0.698132,-0.174533,-0.174533,-1.03441,-0.687167,-0.172358,-0.164619,-1.27832,-0.307001,-0.0326215,-0.14871
26,45,-1.0472,-0.698132,-0.174533,-0.174533,-1.03441,-0.687167,-0.172358,-0.164619,-1.27832,-0.307001,-0.0326215,-0.14871
26,45,-1.0472,-0.698132,-0.174533,-0.174533,-1.03441,-0.687167,-0.172358,-0.164619,-1.27832,-0.307001,-0.0326215,-0.14871
26,45,-1.0472,-0.698132,-0.174533,-0.174533,-1.03441,-0.687167,-0.172358,-0.164619,-1.27832,-0.307001,-0.0326215,-0.14871
26,45,-1.0472,-0.698132,-0.174533,-0.174533,-1.03441,-0.687167,-0.172358,-0.164619,-1.27832,-0.307001,-0.0326215,-0.14871
26,45,-1.0472,-0.698132,-0.174533,-0.174533,-1.03441,-0.687167,-0.172358,-0.164619,-1.27832,-0.307001,-0.0326215,-0.14871
26,45,-1.0472,-0.698132,-0.174533,-0.174533,-1.03441,-0.687167,-0.172358,-0.164619,-1.27832,-0.307001,-0.0326215,-0.14871
26,45,-1.0472,-0.698132,-0.174533,-0.174533,-1.03441,-0.687167,-0.172358,-0.164619,-1.27832,-0.307001,-0.0326215,-0.14871
26,45,-1.0472,-0.698132,-0.174533,-0.174533,-1.03441,-0.687167,-0.172358,-0.164619,-1.27832,-0.307001,-0.0326215,-0.14871
26,45,-1.0472,-0.698132,-0.174533,-0.174533,-1.03441,-0.687167,-0.172358,-0.164619,-1.27832,-0.307001,-0.0326215,-0.14871
26,45,-1.0472,-0.698132,-0.174533,-0.174533,-1.03441,-0.687167,-0.172358,-0.164619,-1.27832,-0.307001,-0.0326215,-0.14871
26,45,-1.0472,-0.698132,-0.174533,-0.174533,-1.03441,-0.687167,-0.172358,-0.164619,-1.27832,-0.307001,-0.0326215,-0.14871
26,45,-1.0472,-0.698132,-0.174533,-0.174533,-1.03441,-0.687167,-0.172358,-0.164619,-1.27832,-0.307001,-0.0326215,-0.14871
26,45,-1.0472,-0.698132,-0.174533,-0.174533,-1.03441,-0.687167,-0.172358,-0.164619,-1.27832,-0.307001,-0.0326215,-0.14871
26,45,-1.0472,-0.698132,-0.174533,-0.174533,-1.03441,-0.687167,-0.172358,-0.164619,-1.27832,-0.307001,-0.0326215,-0.14871
26,45,-1.0472,-0.698132,-0.174533,-0.174533,-1.03441,-0.687167,-0.172358,-0.164619,-1.27832,-0.307001,-0.0326215,-0.14871
26,45,-1.0472,-0.698132,-0.174533,-0.174533,-1.03441,-0.687167,-0.172358,-0.164619,-1.27832,-0.307001,-0.0326215,-0.14871
26,45,-1.0472,-0.698132,-0.174533,-0.174533,-1.03441,-0.687167,-0.172358,-0.164619,-1.27832,-0.307001,-0.0326215,-0.14871
26,45,-1.0472,-0.698132,-0.174533,-0.174533,-1.03441,-0.687167,-0.172358,-0.164619,-1.27832,-0.307001,-0.0326215,-0.14871
26,45,-1.0472,-0.698132,-0.174533,-0.174533,-1.03441,-0.687167,-0.172299,-0.164638,-1.27832,-0.307001,-0.0335411,-0.148409
26,45,-1.0472,-0.698132,-0.174533,-0.174533,-1.03441,-0.687167,-0.172299,-0.164638,-1.27832,-0.307001,-0.0335411,-0.148409
26,45,-1.0472,-0.698132,-0.174533,-0.174533,-1.03441,-0.687167,-0.172299,-0.164638,-1.27832,-0.307001,-0.0335411,-0.148409
26,45,-1.0472,-0.698132,-0.174533,-0.174533,-1.03441,-0.687167,-0.172299,-0.164638,-1.27832,-0.307001,-0.0335411,-0.148409
26,45,-1.0472,-0.698132,-0.174533,-0.174533,-1.03441,-0.687167,-0.172299,-0.164638,-1.27832,-0.307001,-0.0335411,-0.148409
26,45,-1.0472,-0.698132,-0.174533,-0.174533,-1.03441,-0.687167,-0.172299,-0.164638,-1.27832,-0.307001,-0.0335411,-0.148409
