stim_pw [us],stim_amp [mA],com_elbow_fe [rad],com_forearm_ps [rad],com_wrist_fe [rad],com_wrist_ru [rad],act_elbow_fe [rad],act_forearm_ps [rad],act_wrist_fe [rad],act_wrist_ru [rad],elbow_fe_trq [Nm],forearm_ps_trq [Nm],wrist_fe_trq [Nm],wrist_ru_trq [Nm]
26,45,-0.567232,-0.698132,-0.174533,-0.174533,-0.561948,-0.686913,-0.13107,-0.201191,-0.634045,-0.448741,-1.08659,0.666359
26,45,-0.567232,-0.698132,-0.174533,-0.174533,-0.561948,-0.686913,-0.13107,-0.201191,-0.634045,-0.448741,-1.08659,0.666359
26,45,-0.567232,-0.698132,-0.174533,-0.174533,-0.561948,-0.686913,-0.13107,-0.201191,-0.634045,-0.448741,-1.08659,0.666359
26,45,-0.567232,-0.698132,-0.174533,-0.174533,-0.561948,-0.686913,-0.13107,-0.201191,-0.634045,-0.448741,-1.08659,0.666359
26,45,-0.567232,-0.698132,-0.174533,-0.174533,-0.561948,-0.686913,-0.13107,-0.201191,-0.634045,-0.448741,-1.08659,0.666359
26,45,-0.567232,-0.698132,-0.174533,-0.174533,-0.561948,-0.686913,-0.13107,-0.201191,-0.634045,-0.448741,-1.08659,0.666359
26,45,-0.567232,-0.698132,-0.174533,-0.174533,-0.561948,-0.686913,-0.13107,-0.201191,-0.634045,-0.448741,-1.08659,0.666359
26,45,-0.567232,-0.698132,-0.174533,-0.174533,-0.561948,-0.686913,-0.131068,-0.201132,-0.634045,-0.448741,-1.08662,0.664872
26,45,-0.567232,-0.698132,-0.174533,-0.174533,-0.561948,-0.686913,-0.131068,-0.201132,-0.634045,-0.448741,-1.08662,0.664872
26,45,-0.567232,-0.698132,-0.174533,-0.174533,-0.561948,-0.686913,-0.131133,-0.201173,-0.634045,-0.448741,-1.085,0.665891
26,45,-0.567232,-0.698132,-0.174533,-0.174533,-0.561948,-0.686913,-0.131133,-0.201173,-0.634045,-0.448741,-1.085,0.665891
26,45,-0.567232,-0.698132,-0.174533,-0.174533,-0.561948,-0.686913,-0.131133,-0.201173,-0.634045,-0.448741,-1.085,0.665891
26,45,-0.567232,-0.698132,-0.174533,-0.174533,-0.561948,-0.686913,-0.131133,-0.201173,-0.634045,-0.448741,-1.085,0.665891
26,45,-0.567232,-0.698132,-0.174533,-0.174533,-0.561948,-0.686913,-0.131133,-0.201173,-0.634045,-0.448741,-1.085,0.665891
26,45,-0.567232,-0.698132,-0.174533,-0.174533,-0.561948,-0.686913,-0.131133,-0.201173,-0.634045,-0.448741,-1.085,0.665891
26,45,-0.567232,-0.698132,-0.174533,-0.174533,-0.561948,-0.686913,-0.131133,-0.201173,-0.634045,-0.448741,-1.085,0.665891
26,45,-0.567232,-0.698132,-0.174533,-0.174533,-0.561948,-0.686913,-0.131133,-0.201173,-0.634045,-0.448741,-1.085,0.665891
26,45,-0.567232,-0.698132,-0.174533,-0.174533,-0.561948,-0.686913,-0.131133,-0.201173,-0.634045,-0.448741,-1.085,0.665891
26,45,-0.567232,-0.698132,-0.174533,-0.174533,-0.561948,-0.686913,-0.131133,-0.201173,-0.634045,-0.448741,-1.085,0.665891
26,45,-0.567232,-0.698132,-0.174533,-0.174533,-0.561948,-0.686913,-0.131133,-0.201173,-0.634045,-0.448741,-1.085,0.665891
26,45,-0.567232,-0.698132,-0.174533,-0.174533,-0.561948,-0.686913,-0.131133,-0.201173,-0.634045,-0.448741,-1.085,0.665891
26,45,-0.567232,-0.698132,-0.174533,-0.174533,-0.561948,-0.686913,-0.131133,-0.201173,-0.634045,-0.448741,-1.085,0.665891
26,45,-0.567232,-0.698132,-0.174533,-0.174533,-0.561948,-0.686913,-0.131133,-0.201173,-0.634045,-0.448741,-1.085,0.665891
26,45,-0.567232,-0.698132,-0.174533,-0.174533,-0.561948,-0.686913,-0.131133,-0.201173,-0.634045,-0.448741,-1.085,0.665891
26,45,-0.567232,-0.698132,-0.174533,-0.174533,-0.561948,-0.686913,-0.131133,-0.201173,-0.634045,-0.448741,-1.085,0.665891
26,45,-0.567232,-0.698132,-0.174533,-0.174533,-0.561948,-0.686913,-0.131133,-0.201173,-0.634045,-0.448741,-1.085,0.665891
26,45,-0.567232,-0.698132,-0.174533,-0.174533,-0.561948,-0.686913,-0.131133,-0.201173,-0.634045,-0.448741,-1.085,0.665891
26,45,-0.567232,-0.698132,-0.174533,-0.174533,-0.561948,-0.686913,-0.131133,-0.201173,-0.634045,-0.448741,-1.085,0.665891
26,45,-0.567232,-0.698132,-0.174533,-0.174533,-0.561948,-0.686913,-0.131133,-0.201173,-0.634045,-0.448741,-1.085,0.665891
26,45,-0.567232,-0.698132,-0.174533,-0.174533,-0.561948,-0.686913,-0.131133,-0.201173,-0.634045,-0.448741,-1.085,0.665891
26,45,-0.567232,-0.698132,-0.174533,-0.174533,-0.561948,-0.686913,-0.131133,-0.201173,-0.634045,-0.448741,-1.085,0.665891
26,45,-0.567232,-0.698132,-0.174533,-0.174533,-0.561948,-0.686913,-0.131133,-0.201173,-0.634045,-0.448741,-1.085,0.665891
26,45,-0.567232,-0.698132,-0.174533,-0.174533,-0.561948,-0.686913,-0.131133,-0.201173,-0.634045,-0.448741,-1.085,0.665891
26,45,-0.567232,-0.698132,-0.174533,-0.174533,-0.561948,-0.686913,-0.131133,-0.201173,-0.634045,-0.448741,-1.085,0.665891
26,45,-0.567232,-0.698132,-0.174533,-0.174533,-0.561948,-0.686913,-0.131133,-0.201173,-0.634045,-0.448741,-1.085,0.665891
26,45,-0.567232,-0.698132,-0.174533,-0.174533,-0.561948,-0.686913,-0.131133,-0.201173,-0.634045,-0.448741,-1.085,0.665891
26,45,-0.567232,-0.698132,-0.174533,-0.174533,-0.561948,-0.686913,-0.131133,-0.201173,-0.634045,-0.448741,-1.085,0.665891
26,45,-0.567232,-0.698132,-0.174533,-0.174533,-0.561948,-0.686913,-0.131133,-0.201173,-0.634045,-0.448741,-1.085,0.665891
26,45,-0.567232,-0.698132,-0.174533,-0.174533,-0.561948,-0.686913,-0.131133,-0.201173,-0.634045,-0.448741,-1.085,0.665891
26,45,-0.567232,-0.698132,-0.174533,-0.174533,-0.561948,-0.686913,-0.131133,-0.201173,-0.634045,-0.448741,-1.085,0.665891
26,45,-0.567232,-0.698132,-0.174533,-0.174533,-0.561948,-0.686913,-0.131133,-0.201173,-0.634045,-0.448741,-1.085,0.665891
26,45,-0.567232,-0.698132,-0.174533,-0.174533,-0.561948,-0.686913,-0.131133,-0.201173,-0.634045,-0.448741,-1.085,0.665891
26,45,-0.567232,-0.698132,-0.174533,-0.174533,-0.561948,-0.686913,-0.131131,-0.201114,-0.634045,-0.448741,-1.08504,0.664449
26,45,-0.567232,-0.698132,-0.174533,-0.174533,-0.561948,-0.686913,-0.131131,-0.201114,-0.634045,-0.448741,-1.08504,0.664449
26,45,-0.567232,-0.698132,-0.174533,-0.174533,-0.561948,-0.686913,-0.131131,-0.201114,-0.634045,-0.448741,-1.08504,0.664449
26,45,-0.567232,-0.698132,-0.174533,-0.174533,-0.561948,-0.686913,-0.131131,-0.201114,-0.634045,-0.448741,-1.08504,0.664449
26,45,-0.567232,-0.698132,-0.174533,-0.174533,-0.561948,-0.686913,-0.131196,-0.201155,-0.634045,-0.448741,-1.08342,0.665468
26,45,-0.567232,-0.698132,-0.174533,-0.174533,-0.561948,-0.686913,-0.131196,-0.201155,-0.634045,-0.448741,-1.08342,0.665468
26,45,-0.567232,-0.698132,-0.174533,-0.174533,-0.561948,-0.686913,-0.131196,-0.201155,-0.634045,-0.448741,-1.08342,0.665468
26,45,-0.567232,-0.698132,-0.174533,-0.174533,-0.561948,-0.686913,-0.131195,-0.201096,-0.634045,-0.448741,-1.08345,0.663996
26,45,-0.567232,-0.698132,-0.174533,-0.174533,-0.561948,-0.686913,-0.131195,-0.201096,-0.634045,-0.448741,-1.08345,0.663996
26,45,-0.567232,-0.698132,-0.174533,-0.174533,-0.561948,-0.686913,-0.131195,-0.201096,-0.634045,-0.448741,-1.08345,0.663996
26,45,-0.567232,-0.698132,-0.174533,-0.174533,-0.561948,-0.686913,-0.131195,-0.201096,-0.634045,-0.448741,-1.08345,0.663996
26,45,-0.567232,-0.698132,-0.174533,-0.174533,-0.561948,-0.686913,-0.131195,-0.201096,-0.634045,-0.448741,-1.08345,0.663996
26,45,-0.567232,-0.698132,-0.174533,-0.174533,-0.561948,-0.686913,-0.131195,-0.201096,-0.634045,-0.448741,-1.08345,0.663996
26,45,-0.567232,-0.698132,-0.174533,-0.174533,-0.561948,-0.686913,-0.131195,-0.201096,-0.634045,-0.448741,-1.08345,0.663996
26,45,-0.567232,-0.698132,-0.174533,-0.174533,-0.561948,-0.686913,-0.131195,-0.201096,-0.634045,-0.448741,-1.08345,0.663996
26,45,-0.567232,-0.698132,-0.174533,-0.174533,-0.561948,-0.686913,-0.131195,-0.201096,-0.634045,-0.448741,-1.08345,0.663996
26,45,-0.567232,-0.698132,-0.174533,-0.174533,-0.561948,-0.686913,-0.131195,-0.201096,-0.634045,-0.448741,-1.08345,0.663996
26,45,-0.567232,-0.698132,-0.174533,-0.174533,-0.561948,-0.686913,-0.131195,-0.201096,-0.634045,-0.448741,-1.08345,0.663996
26,45,-0.567232,-0.698132,-0.174533,-0.174533,-0.561948,-0.686913,-0.131195,-0.201096,-0.634045,-0.448741,-1.08345,0.663996
26,45,-0.567232,-0.698132,-0.174533,-0.174533,-0.561948,-0.686913,-0.131195,-0.201096,-0.634045,-0.448741,-1.08345,0.663996
26,45,-0.567232,-0.698132,-0.174533,-0.174533,-0.561948,-0.686913,-0.131193,-0.201037,-0.634045,-0.448741,-1.08349,0.662525
26,45,-0.567232,-0.698132,-0.174533,-0.174533,-0.561948,-0.686913,-0.131193,-0.201037,-0.634045,-0.448741,-1.08349,0.662525
26,45,-0.567232,-0.698132,-0.174533,-0.174533,-0.561948,-0.686913,-0.131193,-0.201037,-0.634045,-0.448741,-1.08349,0.662525
26,45,-0.567232,-0.698132,-0.174533,-0.174533,-0.561948,-0.686913,-0.131193,-0.201037,-0.634045,-0.448741,-1.08349,0.662525
26,45,-0.567232,-0.698132,-0.174533,-0.174533,-0.561948,-0.686913,-0.131193,-0.201037,-0.634045,-0.448741,-1.08349,0.662525
26,45,-0.567232,-0.698132,-0.174533,-0.174533,-0.561948,-0.686913,-0.131193,-0.201037,-0.634045,-0.448741,-1.08349,0.662525
26,45,-0.567232,-0.698132,-0.174533,-0.174533,-0.561948,-0.686913,-0.131193,-0.201037,-0.634045,-0.448741,-1.08349,0.662525
26,45,-0.567232,-0.698132,-0.174533,-0.174533,-0.561948,-0.686913,-0.131193,-0.201037,-0.634045,-0.448741,-1.08349,0.662525
26,45,-0.567232,-0.698132,-0.174533,-0.174533,-0.561948,-0.686913,-0.131193,-0.201037,-0.634045,-0.448741,-1.08349,0.662525
26,45,-0.567232,-0.698132,-0.174533,-0.174533,-0.561948,-0.686913,-0.131193,-0.201037,-0.634045,-0.448741,-1.08349,0.662525
26,45,-0.567232,-0.698132,-0.174533,-0.174533,-0.561948,-0.686913,-0.131193,-0.201037,-0.634045,-0.448741,-1.08349,0.662525
26,45,-0.567232,-0.698132,-0.174533,-0.174533,-0.561948,-0.686913,-0.131193,-0.201037,-0.634045,-0.448741,-1.08349,0.662525
26,45,-0.567232,-0.698132,-0.174533,-0.174533,-0.561948,-0.686913,-0.131193,-0.201037,-0.634045,-0.448741,-1.08349,0.662525
26,45,-0.567232,-0.698132,-0.174533,-0.174533,-0.561948,-0.686913,-0.131193,-0.201037,-0.634045,-0.448741,-1.08349,0.662525
26,45,-0.567232,-0.698132,-0.174533,-0.174533,-0.561948,-0.686913,-0.131193,-0.201037,-0.634045,-0.448741,-1.08349,0.662525
26,45,-0.567232,-0.698132,-0.174533,-0.174533,-0.561948,-0.686913,-0.131192,-0.200978,-0.634045,-0.448741,-1.08353,0.661055
26,45,-0.567232,-0.698132,-0.174533,-0.174533,-0.561948,-0.686913,-0.131191,-0.200919,-0.634045,-0.448741,-1.08356,0.659518
26,45,-0.567232,-0.698132,-0.174533,-0.174533,-0.561948,-0.686913,-0.131191,-0.200919,-0.634045,-0.448741,-1.08356,0.659518
26,45,-0.567232,-0.698132,-0.174533,-0.174533,-0.561948,-0.686913,-0.131191,-0.200919,-0.634045,-0.448741,-1.08356,0.659518
26,45,-0.567232,-0.698132,-0.174533,-0.174533,-0.561948,-0.686913,-0.131191,-0.200919,-0.634045,-0.448741,-1.08356,0.659518
26,45,-0.567232,-0.698132,-0.174533,-0.174533,-0.561948,-0.686913,-0.131191,-0.200919,-0.634045,-0.448741,-1.08356,0.659518
26,45,-0.567232,-0.698132,-0.174533,-0.174533,-0.561948,-0.686913,-0.131191,-0.200919,-0.634045,-0.448741,-1.08356,0.659518
26,45,-0.567232,-0.698132,-0.174533,-0.174533,-0.561948,-0.686913,-0.131189,-0.20086,-0.634045,-0.448741,-1.0836,0.658044
26,45,-0.567232,-0.698132,-0.174533,-0.174533,-0.561948,-0.686913,-0.131189,-0.20086,-0.634045,-0.448741,-1.0836,0.658044
26,45,-0.567232,-0.698132,-0.174533,-0.174533,-0.561948,-0.686913,-0.131189,-0.20086,-0.634045,-0.448741,-1.0836,0.658044
26,45,-0.567232,-0.698132,-0.174533,-0.174533,-0.561948,-0.686913,-0.131189,-0.20086,-0.634045,-0.448741,-1.0836,0.658044
26,45,-0.567232,-0.698132,-0.174533,-0.174533,-0.561948,-0.686913,-0.131189,-0.20086,-0.634045,-0.448741,-1.0836,0.658044
26,45,-0.567232,-0.698132,-0.174533,-0.174533,-0.561948,-0.686913,-0.131189,-0.20086,-0.634045,-0.448741,-1.0836,0.658044
26,45,-0.567232,-0.698132,-0.174533,-0.174533,-0.561948,-0.686913,-0.131189,-0.20086,-0.634045,-0.448741,-1.0836,0.658044
26,45,-0.567232,-0.698132,-0.174533,-0.174533,-0.561948,-0.686913,-0.131188,-0.200801,-0.634045,-0.448741,-1.08364,0.656543
26,45,-0.567232,-0.698132,-0.174533,-0.174533,-0.561948,-0.686913,-0.131188,-0.200801,-0.634045,-0.448741,-1.08364,0.656543
26,45,-0.567232,-0.698132,-0.174533,-0.174533,-0.561948,-0.686913,-0.131188,-0.200801,-0.634045,-0.448741,-1.08364,0.656543
26,45,-0.567232,-0.698132,-0.174533,-0.174533,-0.561948,-0.686913,-0.131188,-0.200801,-0.634045,-0.448741,-1.08364,0.656543
26,45,-0.567232,-0.698132,-0.174533,-0.174533,-0.561948,-0.686913,-0.131188,-0.200801,-0.634045,-0.448741,-1.08364,0.656543
26,45,-0.567232,-0.698132,-0.174533,-0.174533,-0.561948,-0.686913,-0.131186,-0.200742,-0.634045,-0.448741,-1.08368,0.654978
26,45,-0.567232,-0.698132,-0.174533,-0.174533,-0.561948,-0.686913,-0.131186,-0.200742,-0.634045,-0.448741,-1.08368,0.654978
26,45,-0.567232,-0.698132,-0.174533,-0.174533,-0.561948,-0.686913,-0.131186,-0.200742,-0.634045,-0.448741,-1.08368,0.654978
26,45,-0.567232,-0.698132,-0.174533,-0.174533,-0.561948,-0.686913,-0.131186,-0.200742,-0.634045,-0.448741,-1.08368,0.654978
26,45,-0.567232,-0.698132,-0.174533,-0.174533,-0.561948,-0.686913,-0.131247,-0.200722,-0.634045,-0.448741,-1.08215,0.654479
26,45,-0.567232,-0.698132,-0.174533,-0.174533,-0.561948,-0.686913,-0.131246,-0.200663,-0.634045,-0.448741,-1.08218,0.65306
26,45,-0.567232,-0.698132,-0.174533,-0.174533,-0.561948,-0.686913,-0.131246,-0.200663,-0.634045,-0.448741,-1.08218,0.65306
26,45,-0.567232,-0.698132,-0.174533,-0.174533,-0.561948,-0.686913,-0.131246,-0.200663,-0.634045,-0.448741,-1.08218,0.65306
26,45,-0.567232,-0.698132,-0.174533,-0.174533,-0.561948,-0.686913,-0.131244,-0.200604,-0.634045,-0.448741,-1.08222,0.651554
26,45,-0.567232,-0.698132,-0.174533,-0.174533,-0.561948,-0.686913,-0.131244,-0.200604,-0.634045,-0.448741,-1.08222,0.651554
26,45,-0.567232,-0.698132,-0.174533,-0.174533,-0.561948,-0.686913,-0.131244,-0.200604,-0.634045,-0.448741,-1.08222,0.651554
26,45,-0.567232,-0.698132,-0.174533,-0.174533,-0.561948,-0.686913,-0.131244,-0.200604,-0.634045,-0.448741,-1.08222,0.651554
26,45,-0.567232,-0.698132,-0.174533,-0.174533,-0.561948,-0.686913,-0.131309,-0.200645,-0.634045,-0.448741,-1.0806,0.652573
26,45,-0.567232,-0.698132,-0.174533,-0.174533,-0.561948,-0.686913,-0.131308,-0.200586,-0.634045,-0.448741,-1.08064,0.651066
26,45,-0.567232,-0.698132,-0.174533,-0.174533,-0.561948,-0.686913,-0.131308,-0.200586,-0.634045,-0.448741,-1.08064,0.651066
26,45,-0.567232,-0.698132,-0.174533,-0.174533,-0.561948,-0.686913,-0.131308,-0.200586,-0.634045,-0.448741,-1.08064,0.651066
26,45,-0.567232,-0.698132,-0.174533,-0.174533,-0.561948,-0.686913,-0.131306,-0.200527,-0.634045,-0.448741,-1.08067,0.649578
26,45,-0.567232,-0.698132,-0.174533,-0.174533,-0.561948,-0.686913,-0.131306,-0.200527,-0.634045,-0.448741,-1.08067,0.649578
26,45,-0.567232,-0.698132,-0.174533,-0.174533,-0.561948,-0.686913,-0.131306,-0.200527,-0.634045,-0.448741,-1.08067,0.649578
26,45,-0.567232,-0.698132,-0.174533,-0.174533,-0.561948,-0.686913,-0.131306,-0.200527,-0.634045,-0.448741,-1.08067,0.649578
26,45,-0.567232,-0.698132,-0.174533,-0.174533,-0.561948,-0.686913,-0.131306,-0.200527,-0.634045,-0.448741,-1.08067,0.649578
26,45,-0.567232,-0.698132,-0.174533,-0.174533,-0.561948,-0.686913,-0.131306,-0.200527,-0.634045,-0.448741,-1.08067,0.649578
26,45,-0.567232,-0.698132,-0.174533,-0.174533,-0.561948,-0.686913,-0.131306,-0.200527,-0.634045,-0.448741,-1.08067,0.649578
26,45,-0.567232,-0.698132,-0.174533,-0.174533,-0.561948,-0.686913,-0.131366,-0.200448,-0.634045,-0.448741,-1.07918,0.647613
26,45,-0.567232,-0.698132,-0.174533,-0.174533,-0.561948,-0.686913,-0.131366,-0.200448,-0.634045,-0.448741,-1.07918,0.647613
26,45,-0.567232,-0.698132,-0.174533,-0.174533,-0.561948,-0.686913,-0.131364,-0.20039,-0.634045,-0.448741,-1.07922,0.646137
26,45,-0.567232,-0.698132,-0.174533,-0.174533,-0.561948,-0.686913,-0.131364,-0.20039,-0.634045,-0.448741,-1.07922,0.646137
26,45,-0.567232,-0.698132,-0.174533,-0.174533,-0.561948,-0.686913,-0.131364,-0.20039,-0.634045,-0.448741,-1.07922,0.646137
26,45,-0.567232,-0.698132,-0.174533,-0.174533,-0.561948,-0.686913,-0.131364,-0.20039,-0.634045,-0.448741,-1.07922,0.646137
26,45,-0.567232,-0.698132,-0.174533,-0.174533,-0.561948,-0.686913,-0.131364,-0.20039,-0.634045,-0.448741,-1.07922,0.646137
26,45,-0.567232,-0.698132,-0.174533,-0.174533,-0.561948,-0.686913,-0.131364,-0.20039,-0.634045,-0.448741,-1.07922,0.646137
26,45,-0.567232,-0.698132,-0.174533,-0.174533,-0.561948,-0.686913,-0.131364,-0.20039,-0.634045,-0.448741,-1.07922,0.646137
26,45,-0.567232,-0.698132,-0.174533,-0.174533,-0.561948,-0.686913,-0.131364,-0.20039,-0.634045,-0.448741,-1.07922,0.646137
26,45,-0.567232,-0.698132,-0.174533,-0.174533,-0.561948,-0.686913,-0.131364,-0.20039,-0.634045,-0.448741,-1.07922,0.646137
26,45,-0.567232,-0.698132,-0.174533,-0.174533,-0.561948,-0.686913,-0.131429,-0.20043,-0.634045,-0.448741,-1.0776,0.647156
26,45,-0.567232,-0.698132,-0.174533,-0.174533,-0.561948,-0.686913,-0.131428,-0.200371,-0.634045,-0.448741,-1.07763,0.645745
26,45,-0.567232,-0.698132,-0.174533,-0.174533,-0.561948,-0.686913,-0.131428,-0.200371,-0.634045,-0.448741,-1.07763,0.645745
26,45,-0.567232,-0.698132,-0.174533,-0.174533,-0.561948,-0.686913,-0.131428,-0.200371,-0.634045,-0.448741,-1.07763,0.645745
26,45,-0.567232,-0.698132,-0.174533,-0.174533,-0.561948,-0.686913,-0.131428,-0.200371,-0.634045,-0.448741,-1.07763,0.645745
26,45,-0.567232,-0.698132,-0.174533,-0.174533,-0.561948,-0.686913,-0.131428,-0.200371,-0.634045,-0.448741,-1.07763,0.645745
26,45,-0.567232,-0.698132,-0.174533,-0.174533,-0.561948,-0.686913,-0.131428,-0.200371,-0.634045,-0.448741,-1.07763,0.645745
26,45,-0.567232,-0.698132,-0.174533,-0.174533,-0.561948,-0.686913,-0.131428,-0.200371,-0.634045,-0.448741,-1.07763,0.645745
26,45,-0.567232,-0.698132,-0.174533,-0.174533,-0.561948,-0.686913,-0.131428,-0.200371,-0.634045,-0.448741,-1.07763,0.645745
26,45,-0.567232,-0.698132,-0.174533,-0.174533,-0.561948,-0.686913,-0.131428,-0.200371,-0.634045,-0.448741,-1.07763,0.645745
26,45,-0.567232,-0.698132,-0.174533,-0.174533,-0.561948,-0.686913,-0.131428,-0.200371,-0.634045,-0.448741,-1.07763,0.645745
26,45,-0.567232,-0.698132,-0.174533,-0.174533,-0.561948,-0.686913,-0.131428,-0.200371,-0.634045,-0.448741,-1.07763,0.645745
26,45,-0.567232,-0.698132,-0.174533,-0.174533,-0.561948,-0.686913,-0.131428,-0.200371,-0.634045,-0.448741,-1.07763,0.645745
26,45,-0.567232,-0.698132,-0.174533,-0.174533,-0.561948,-0.686913,-0.131428,-0.200371,-0.634045,-0.448741,-1.07763,0.645745
26,45,-0.567232,-0.698132,-0.174533,-0.174533,-0.561948,-0.686913,-0.131428,-0.200371,-0.634045,-0.448741,-1.07763,0.645745
26,45,-0.567232,-0.698132,-0.174533,-0.174533,-0.561948,-0.686913,-0.131428,-0.200371,-0.634045,-0.448741,-1.07763,0.645745
26,45,-0.567232,-0.698132,-0.174533,-0.174533,-0.561948,-0.686913,-0.131428,-0.200371,-0.634045,-0.448741,-1.07763,0.645745
26,45,-0.567232,-0.698132,-0.174533,-0.174533,-0.561948,-0.686913,-0.131428,-0.200371,-0.634045,-0.448741,-1.07763,0.645745
26,45,-0.567232,-0.698132,-0.174533,-0.174533,-0.561948,-0.686913,-0.131489,-0.200351,-0.634045,-0.448741,-1.07611,0.645246
26,45,-0.567232,-0.698132,-0.174533,-0.174533,-0.561948,-0.686913,-0.131489,-0.200351,-0.634045,-0.448741,-1.07611,0.645246
26,45,-0.567232,-0.698132,-0.174533,-0.174533,-0.561948,-0.686913,-0.131489,-0.200351,-0.634045,-0.448741,-1.07611,0.645246
26,45,-0.567232,-0.698132,-0.174533,-0.174533,-0.561948,-0.686913,-0.131489,-0.200351,-0.634045,-0.448741,-1.07611,0.645246
26,45,-0.567232,-0.698132,-0.174533,-0.174533,-0.561948,-0.686913,-0.131489,-0.200351,-0.634045,-0.448741,-1.07611,0.645247
26,45,-0.567232,-0.698132,-0.174533,-0.174533,-0.561948,-0.686913,-0.131554,-0.200392,-0.634045,-0.448741,-1.07449,0.646276
26,45,-0.567232,-0.698132,-0.174533,-0.174533,-0.561948,-0.686913,-0.131554,-0.200392,-0.634045,-0.448741,-1.07449,0.646285
26,45,-0.567232,-0.698132,-0.174533,-0.174533,-0.561948,-0.686913,-0.131552,-0.200333,-0.634045,-0.448741,-1.07452,0.6449
26,45,-0.567232,-0.698132,-0.174533,-0.174533,-0.561948,-0.686913,-0.131552,-0.200333,-0.634045,-0.448741,-1.07452,0.6449
26,45,-0.567232,-0.698132,-0.174533,-0.174533,-0.561948,-0.686913,-0.131552,-0.200333,-0.634045,-0.448741,-1.07452,0.6449
26,45,-0.567232,-0.698132,-0.174533,-0.174533,-0.561948,-0.686913,-0.131552,-0.200333,-0.634045,-0.448741,-1.07452,0.6449
26,45,-0.567232,-0.698132,-0.174533,-0.174533,-0.561948,-0.686913,-0.131552,-0.200333,-0.634045,-0.448741,-1.07452,0.6449
26,45,-0.567232,-0.698132,-0.174533,-0.174533,-0.561948,-0.686913,-0.131552,-0.200333,-0.634045,-0.448741,-1.07452,0.6449
26,45,-0.567232,-0.698132,-0.174533,-0.174533,-0.561948,-0.686913,-0.131552,-0.200333,-0.634045,-0.448741,-1.07452,0.6449
26,45,-0.567232,-0.698132,-0.174533,-0.174533,-0.561948,-0.686913,-0.131552,-0.200333,-0.634045,-0.448741,-1.07452,0.6449
26,45,-0.567232,-0.698132,-0.174533,-0.174533,-0.561948,-0.686913,-0.131552,-0.200333,-0.634045,-0.448741,-1.07452,0.6449
26,45,-0.567232,-0.698132,-0.174533,-0.174533,-0.561948,-0.686913,-0.131552,-0.200333,-0.634045,-0.448741,-1.07452,0.6449
26,45,-0.567232,-0.698132,-0.174533,-0.174533,-0.561948,-0.686913,-0.131552,-0.200333,-0.634045,-0.448741,-1.07452,0.6449
26,45,-0.567232,-0.698132,-0.174533,-0.174533,-0.561948,-0.686913,-0.131552,-0.200333,-0.634045,-0.448741,-1.07452,0.6449
26,45,-0.567232,-0.698132,-0.174533,-0.174533,-0.561948,-0.686913,-0.131552,-0.200333,-0.634045,-0.448741,-1.07452,0.6449
26,45,-0.567232,-0.698132,-0.174533,-0.174533,-0.561948,-0.686913,-0.131552,-0.200333,-0.634045,-0.448741,-1.07452,0.6449
26,45,-0.567232,-0.698132,-0.174533,-0.174533,-0.561948,-0.686913,-0.131552,-0.200333,-0.634045,-0.448741,-1.07452,0.6449
26,45,-0.567232,-0.698132,-0.174533,-0.174533,-0.561948,-0.686913,-0.131552,-0.200333,-0.634045,-0.448741,-1.07452,0.6449
26,45,-0.567232,-0.698132,-0.174533,-0.174533,-0.561948,-0.686913,-0.131552,-0.200333,-0.634045,-0.448741,-1.07452,0.6449
26,45,-0.567232,-0.698132,-0.174533,-0.174533,-0.561948,-0.686913,-0.131552,-0.200333,-0.634045,-0.448741,-1.07452,0.6449
26,45,-0.567232,-0.698132,-0.174533,-0.174533,-0.561948,-0.686913,-0.131613,-0.200313,-0.634045,-0.448741,-1.07299,0.644402
26,45,-0.567232,-0.698132,-0.174533,-0.174533,-0.561948,-0.686913,-0.131613,-0.200313,-0.634045,-0.448741,-1.07299,0.644402
26,45,-0.567232,-0.698132,-0.174533,-0.174533,-0.561948,-0.686913,-0.131613,-0.200313,-0.634045,-0.448741,-1.07299,0.644402
26,45,-0.567232,-0.698132,-0.174533,-0.174533,-0.561948,-0.686913,-0.131613,-0.200313,-0.634045,-0.448741,-1.07299,0.644402
26,45,-0.567232,-0.698132,-0.174533,-0.174533,-0.561948,-0.686913,-0.131613,-0.200313,-0.634045,-0.448741,-1.07299,0.644402
26,45,-0.567232,-0.698132,-0.174533,-0.174533,-0.561948,-0.686913,-0.131613,-0.200313,-0.634045,-0.448741,-1.07299,0.644402
26,45,-0.567232,-0.698132,-0.174533,-0.174533,-0.561948,-0.686913,-0.131613,-0.200313,-0.634045,-0.448741,-1.07299,0.644402
26,45,-0.567232,-0.698132,-0.174533,-0.174533,-0.561948,-0.686913,-0.131613,-0.200313,-0.634045,-0.448741,-1.07299,0.644402
26,45,-0.567232,-0.698132,-0.174533,-0.174533,-0.561948,-0.686913,-0.131613,-0.200313,-0.634045,-0.448741,-1.07299,0.644402
26,45,-0.567232,-0.698132,-0.174533,-0.174533,-0.561948,-0.686913,-0.131613,-0.200313,-0.634045,-0.448741,-1.07299,0.644402
26,45,-0.567232,-0.698132,-0.174533,-0.174533,-0.561948,-0.686913,-0.131613,-0.200313,-0.634045,-0.448741,-1.07299,0.644402
26,45,-0.567232,-0.698132,-0.174533,-0.174533,-0.561948,-0.686913,-0.131613,-0.200313,-0.634045,-0.448741,-1.07299,0.644402
26,45,-0.567232,-0.698132,-0.174533,-0.174533,-0.561948,-0.686913,-0.131613,-0.200313,-0.634045,-0.448741,-1.07299,0.644402
26,45,-0.567232,-0.698132,-0.174533,-0.174533,-0.561948,-0.686913,-0.131613,-0.200313,-0.634045,-0.448741,-1.07299,0.644402
26,45,-0.567232,-0.698132,-0.174533,-0.174533,-0.561948,-0.686913,-0.131613,-0.200313,-0.634045,-0.448741,-1.07299,0.644402
26,45,-0.567232,-0.698132,-0.174533,-0.174533,-0.561948,-0.686913,-0.131613,-0.200313,-0.634045,-0.448741,-1.07299,0.644402
26,45,-0.567232,-0.698132,-0.174533,-0.174533,-0.561948,-0.686913,-0.131678,-0.200354,-0.634045,-0.448741,-1.07137,0.645421
26,45,-0.567232,-0.698132,-0.174533,-0.174533,-0.561948,-0.686913,-0.131678,-0.200354,-0.634045,-0.448741,-1.07137,0.645421
26,45,-0.567232,-0.698132,-0.174533,-0.174533,-0.561948,-0.686913,-0.131678,-0.200354,-0.634045,-0.448741,-1.07137,0.645421
26,45,-0.567232,-0.698132,-0.174533,-0.174533,-0.561948,-0.686913,-0.131678,-0.200354,-0.634045,-0.448741,-1.07137,0.645421
26,45,-0.567232,-0.698132,-0.174533,-0.174533,-0.561948,-0.686913,-0.131678,-0.200354,-0.634045,-0.448741,-1.07137,0.645421
26,45,-0.567232,-0.698132,-0.174533,-0.174533,-0.561948,-0.686913,-0.131677,-0.200295,-0.634045,-0.448741,-1.07141,0.643994
26,45,-0.567232,-0.698132,-0.174533,-0.174533,-0.561948,-0.686913,-0.131677,-0.200295,-0.634045,-0.448741,-1.07141,0.643994
26,45,-0.567232,-0.698132,-0.174533,-0.174533,-0.561948,-0.686913,-0.131677,-0.200295,-0.634045,-0.448741,-1.07141,0.643994
26,45,-0.567232,-0.698132,-0.174533,-0.174533,-0.561948,-0.686913,-0.131677,-0.200295,-0.634045,-0.448741,-1.07141,0.643994
26,45,-0.567232,-0.698132,-0.174533,-0.174533,-0.561948,-0.686913,-0.131677,-0.200295,-0.634045,-0.448741,-1.07141,0.643994
26,45,-0.567232,-0.698132,-0.174533,-0.174533,-0.561948,-0.686913,-0.131677,-0.200295,-0.634045,-0.448741,-1.07141,0.643994
26,45,-0.567232,-0.698132,-0.174533,-0.174533,-0.561948,-0.686913,-0.131677,-0.200295,-0.634045,-0.448741,-1.07141,0.643994
26,45,-0.567232,-0.698132,-0.174533,-0.174533,-0.561948,-0.686913,-0.131677,-0.200295,-0.634045,-0.448741,-1.07141,0.643994
26,45,-0.567232,-0.698132,-0.174533,-0.174533,-0.561948,-0.686913,-0.131677,-0.200295,-0.634045,-0.448741,-1.07141,0.643994
26,45,-0.567232,-0.698132,-0.174533,-0.174533,-0.561948,-0.686913,-0.131677,-0.200295,-0.634045,-0.448741,-1.07141,0.643994
26,45,-0.567232,-0.698132,-0.174533,-0.174533,-0.561948,-0.686913,-0.131677,-0.200295,-0.634045,-0.448741,-1.07141,0.643994
26,45,-0.567232,-0.698132,-0.174533,-0.174533,-0.561948,-0.686913,-0.131677,-0.200295,-0.634045,-0.448741,-1.07141,0.643994
26,45,-0.567232,-0.698132,-0.174533,-0.174533,-0.561948,-0.686913,-0.131675,-0.200236,-0.634045,-0.448741,-1.07144,0.642583
26,45,-0.567232,-0.698132,-0.174533,-0.174533,-0.561948,-0.686913,-0.131675,-0.200236,-0.634045,-0.448741,-1.07144,0.642583
26,45,-0.567232,-0.698132,-0.174533,-0.174533,-0.561948,-0.686913,-0.131675,-0.200236,-0.634045,-0.448741,-1.07144,0.642583
26,45,-0.567232,-0.698132,-0.174533,-0.174533,-0.561948,-0.686913,-0.131675,-0.200236,-0.634045,-0.448741,-1.07144,0.642583
26,45,-0.567232,-0.698132,-0.174533,-0.174533,-0.561948,-0.686913,-0.131675,-0.200236,-0.634045,-0.448741,-1.07144,0.642583
26,45,-0.567232,-0.698132,-0.174533,-0.174533,-0.561948,-0.686913,-0.131675,-0.200236,-0.634045,-0.448741,-1.07144,0.642583
26,45,-0.567232,-0.698132,-0.174533,-0.174533,-0.561948,-0.686913,-0.131675,-0.200236,-0.634045,-0.448741,-1.07144,0.642583
26,45,-0.567232,-0.698132,-0.174533,-0.174533,-0.561948,-0.686913,-0.131675,-0.200236,-0.634045,-0.448741,-1.07144,0.642583
26,45,-0.567232,-0.698132,-0.174533,-0.174533,-0.561948,-0.686913,-0.131675,-0.200236,-0.634045,-0.448741,-1.07144,0.642583
26,45,-0.567232,-0.698132,-0.174533,-0.174533,-0.561948,-0.686913,-0.131675,-0.200236,-0.634045,-0.448741,-1.07144,0.642583
26,45,-0.567232,-0.698132,-0.174533,-0.174533,-0.561948,-0.686913,-0.131675,-0.200236,-0.634045,-0.448741,-1.07144,0.642583
26,45,-0.567232,-0.698132,-0.174533,-0.174533,-0.561948,-0.686913,-0.131675,-0.200236,-0.634045,-0.448741,-1.07144,0.642583
26,45,-0.567232,-0.698132,-0.174533,-0.174533,-0.561948,-0.686913,-0.131675,-0.200236,-0.634045,-0.448741,-1.07144,0.642583
26,45,-0.567232,-0.698132,-0.174533,-0.174533,-0.561948,-0.686913,-0.131675,-0.200236,-0.634045,-0.448741,-1.07144,0.642583
26,45,-0.567232,-0.698132,-0.174533,-0.174533,-0.561948,-0.686913,-0.131675,-0.200236,-0.634045,-0.448741,-1.07144,0.642583
26,45,-0.567232,-0.698132,-0.174533,-0.174533,-0.561948,-0.686913,-0.131675,-0.200236,-0.634045,-0.448741,-1.07144,0.642583
26,45,-0.567232,-0.698132,-0.174533,-0.174533,-0.561948,-0.686913,-0.131736,-0.200216,-0.634045,-0.448741,-1.06992,0.642085
26,45,-0.567232,-0.698132,-0.174533,-0.174533,-0.561948,-0.686913,-0.131736,-0.200216,-0.634045,-0.448741,-1.06992,0.642085
26,45,-0.567232,-0.698132,-0.174533,-0.174533,-0.561948,-0.686913,-0.131736,-0.200216,-0.634045,-0.448741,-1.06992,0.642085
26,45,-0.567232,-0.698132,-0.174533,-0.174533,-0.561948,-0.686913,-0.131736,-0.200216,-0.634045,-0.448741,-1.06992,0.642085
26,45,-0.567232,-0.698132,-0.174533,-0.174533,-0.561948,-0.686913,-0.131735,-0.200157,-0.634045,-0.448741,-1.06995,0.640612
26,45,-0.567232,-0.698132,-0.174533,-0.174533,-0.561948,-0.686913,-0.131735,-0.200157,-0.634045,-0.448741,-1.06995,0.640612
26,45,-0.567232,-0.698132,-0.174533,-0.174533,-0.561948,-0.686913,-0.131735,-0.200157,-0.634045,-0.448741,-1.06995,0.640612
26,45,-0.567232,-0.698132,-0.174533,-0.174533,-0.561948,-0.686913,-0.131735,-0.200157,-0.634045,-0.448741,-1.06995,0.640612
26,45,-0.567232,-0.698132,-0.174533,-0.174533,-0.561948,-0.686913,-0.131735,-0.200157,-0.634045,-0.448741,-1.06995,0.640612
26,45,-0.567232,-0.698132,-0.174533,-0.174533,-0.561948,-0.686913,-0.131735,-0.200157,-0.634045,-0.448741,-1.06995,0.640612
26,45,-0.567232,-0.698132,-0.174533,-0.174533,-0.561948,-0.686913,-0.131735,-0.200157,-0.634045,-0.448741,-1.06995,0.640612
26,45,-0.567232,-0.698132,-0.174533,-0.174533,-0.561948,-0.686913,-0.131735,-0.200157,-0.634045,-0.448741,-1.06995,0.640612
26,45,-0.567232,-0.698132,-0.174533,-0.174533,-0.561948,-0.686913,-0.131735,-0.200157,-0.634045,-0.448741,-1.06995,0.640612
26,45,-0.567232,-0.698132,-0.174533,-0.174533,-0.561948,-0.686913,-0.131735,-0.200157,-0.634045,-0.448741,-1.06995,0.640612
26,45,-0.567232,-0.698132,-0.174533,-0.174533,-0.561948,-0.686913,-0.131735,-0.200157,-0.634045,-0.448741,-1.06995,0.640612
26,45,-0.567232,-0.698132,-0.174533,-0.174533,-0.561948,-0.686913,-0.131735,-0.200157,-0.634045,-0.448741,-1.06995,0.640612
26,45,-0.567232,-0.698132,-0.174533,-0.174533,-0.561948,-0.686913,-0.131735,-0.200157,-0.634045,-0.448741,-1.06995,0.640612
26,45,-0.567232,-0.698132,-0.174533,-0.174533,-0.561948,-0.686913,-0.131735,-0.200157,-0.634045,-0.448741,-1.06995,0.640612
26,45,-0.567232,-0.698132,-0.174533,-0.174533,-0.561948,-0.686913,-0.131735,-0.200157,-0.634045,-0.448741,-1.06995,0.640612
26,45,-0.567232,-0.698132,-0.174533,-0.174533,-0.561948,-0.686913,-0.131735,-0.200157,-0.634045,-0.448741,-1.06995,0.640612
26,45,-0.567232,-0.698132,-0.174533,-0.174533,-0.561948,-0.686913,-0.131735,-0.200157,-0.634045,-0.448741,-1.06995,0.640612
26,45,-0.567232,-0.698132,-0.174533,-0.174533,-0.561948,-0.686913,-0.131735,-0.200157,-0.634045,-0.448741,-1.06995,0.640612
26,45,-0.567232,-0.698132,-0.174533,-0.174533,-0.561948,-0.686913,-0.131733,-0.200098,-0.634045,-0.448741,-1.06999,0.639138
26,45,-0.567232,-0.698132,-0.174533,-0.174533,-0.561948,-0.686913,-0.131733,-0.200098,-0.634045,-0.448741,-1.06999,0.639138
26,45,-0.567232,-0.698132,-0.174533,-0.174533,-0.561948,-0.686913,-0.131733,-0.200098,-0.634045,-0.448741,-1.06999,0.639138
26,45,-0.567232,-0.698132,-0.174533,-0.174533,-0.561948,-0.686913,-0.131733,-0.200098,-0.634045,-0.448741,-1.06999,0.639138
26,45,-0.567232,-0.698132,-0.174533,-0.174533,-0.561948,-0.686913,-0.131733,-0.200098,-0.634045,-0.448741,-1.06999,0.639138
26,45,-0.567232,-0.698132,-0.174533,-0.174533,-0.561948,-0.686913,-0.131733,-0.200098,-0.634045,-0.448741,-1.06999,0.639138
26,45,-0.567232,-0.698132,-0.174533,-0.174533,-0.561948,-0.686913,-0.131733,-0.200098,-0.634045,-0.448741,-1.06999,0.639138
26,45,-0.567232,-0.698132,-0.174533,-0.174533,-0.561948,-0.686913,-0.131733,-0.200098,-0.634045,-0.448741,-1.06999,0.639138
26,45,-0.567232,-0.698132,-0.174533,-0.174533,-0.561948,-0.686913,-0.131733,-0.200098,-0.634045,-0.448741,-1.06999,0.639138
26,45,-0.567232,-0.698132,-0.174533,-0.174533,-0.561948,-0.686913,-0.131733,-0.200098,-0.634045,-0.448741,-1.06999,0.639138
26,45,-0.567232,-0.698132,-0.174533,-0.174533,-0.561948,-0.686913,-0.131733,-0.200098,-0.634045,-0.448741,-1.06999,0.639138
26,45,-0.567232,-0.698132,-0.174533,-0.174533,-0.561948,-0.686913,-0.131733,-0.200098,-0.634045,-0.448741,-1.06999,0.639138
26,45,-0.567232,-0.698132,-0.174533,-0.174533,-0.561948,-0.686913,-0.131733,-0.200098,-0.634045,-0.448741,-1.06999,0.639138
26,45,-0.567232,-0.698132,-0.174533,-0.174533,-0.561948,-0.686913,-0.131733,-0.200098,-0.634045,-0.448741,-1.06999,0.639138
26,45,-0.567232,-0.698132,-0.174533,-0.174533,-0.561948,-0.686913,-0.131733,-0.200098,-0.634045,-0.448741,-1.06999,0.639138
26,45,-0.567232,-0.698132,-0.174533,-0.174533,-0.561948,-0.686913,-0.131733,-0.200098,-0.634045,-0.448741,-1.06999,0.639138
26,45,-0.567232,-0.698132,-0.174533,-0.174533,-0.561948,-0.686913,-0.131733,-0.200098,-0.634045,-0.448741,-1.06999,0.639138
26,45,-0.567232,-0.698132,-0.174533,-0.174533,-0.561948,-0.686913,-0.131733,-0.200098,-0.634045,-0.448741,-1.06999,0.639138
26,45,-0.567232,-0.698132,-0.174533,-0.174533,-0.561948,-0.686913,-0.131733,-0.200098,-0.634045,-0.448741,-1.06999,0.639138
26,45,-0.567232,-0.698132,-0.174533,-0.174533,-0.561948,-0.686913,-0.131733,-0.200098,-0.634045,-0.448741,-1.06999,0.639138
26,45,-0.567232,-0.698132,-0.174533,-0.174533,-0.561948,-0.686913,-0.131733,-0.200098,-0.634045,-0.448741,-1.06999,0.639138
26,45,-0.567232,-0.698132,-0.174533,-0.174533,-0.561948,-0.686913,-0.131733,-0.200098,-0.634045,-0.448741,-1.06999,0.639138
26,45,-0.567232,-0.698132,-0.174533,-0.174533,-0.561948,-0.686913,-0.131733,-0.200098,-0.634045,-0.448741,-1.06999,0.639138
26,45,-0.567232,-0.698132,-0.174533,-0.174533,-0.561948,-0.686913,-0.131733,-0.200098,-0.634045,-0.448741,-1.06999,0.639138
26,45,-0.567232,-0.698132,-0.174533,-0.174533,-0.561948,-0.686913,-0.131733,-0.200098,-0.634045,-0.448741,-1.06999,0.639138
26,45,-0.567232,-0.698132,-0.174533,-0.174533,-0.561948,-0.686913,-0.131732,-0.20004,-0.634045,-0.448741,-1.07003,0.637602
26,45,-0.567232,-0.698132,-0.174533,-0.174533,-0.561948,-0.686913,-0.131732,-0.20004,-0.634045,-0.448741,-1.07003,0.637602
26,45,-0.567232,-0.698132,-0.174533,-0.174533,-0.561948,-0.686913,-0.131797,-0.20008,-0.634045,-0.448741,-1.06841,0.638622
26,45,-0.567232,-0.698132,-0.174533,-0.174533,-0.561948,-0.686913,-0.131797,-0.20008,-0.634045,-0.448741,-1.06841,0.638622
26,45,-0.567232,-0.698132,-0.174533,-0.174533,-0.561948,-0.686913,-0.131797,-0.20008,-0.634045,-0.448741,-1.06841,0.638622
26,45,-0.567232,-0.698132,-0.174533,-0.174533,-0.561948,-0.686913,-0.131797,-0.20008,-0.634045,-0.448741,-1.06841,0.638622
26,45,-0.567232,-0.698132,-0.174533,-0.174533,-0.561948,-0.686913,-0.131797,-0.20008,-0.634045,-0.448741,-1.06841,0.638622
26,45,-0.567232,-0.698132,-0.174533,-0.174533,-0.561948,-0.686913,-0.131797,-0.20008,-0.634045,-0.448741,-1.06841,0.638622
26,45,-0.567232,-0.698132,-0.174533,-0.174533,-0.561948,-0.686913,-0.131797,-0.20008,-0.634045,-0.448741,-1.06841,0.638622
26,45,-0.567232,-0.698132,-0.174533,-0.174533,-0.561948,-0.686913,-0.131797,-0.20008,-0.634045,-0.448741,-1.06841,0.638622
26,45,-0.567232,-0.698132,-0.174533,-0.174533,-0.561948,-0.686913,-0.131797,-0.20008,-0.634045,-0.448741,-1.06841,0.638622
26,45,-0.567232,-0.698132,-0.174533,-0.174533,-0.561948,-0.686913,-0.131795,-0.200021,-0.634045,-0.448741,-1.06844,0.637148
26,45,-0.567232,-0.698132,-0.174533,-0.174533,-0.561948,-0.686913,-0.131795,-0.200021,-0.634045,-0.448741,-1.06844,0.637148
26,45,-0.567232,-0.698132,-0.174533,-0.174533,-0.561948,-0.686913,-0.131795,-0.200021,-0.634045,-0.448741,-1.06844,0.637148
26,45,-0.567232,-0.698132,-0.174533,-0.174533,-0.561948,-0.686913,-0.131795,-0.200021,-0.634045,-0.448741,-1.06844,0.637148
26,45,-0.567232,-0.698132,-0.174533,-0.174533,-0.561948,-0.686913,-0.131795,-0.200021,-0.634045,-0.448741,-1.06844,0.637148
26,45,-0.567232,-0.698132,-0.174533,-0.174533,-0.561948,-0.686913,-0.131795,-0.200021,-0.634045,-0.448741,-1.06844,0.637148
26,45,-0.567232,-0.698132,-0.174533,-0.174533,-0.561948,-0.686913,-0.131795,-0.200021,-0.634045,-0.448741,-1.06844,0.637148
26,45,-0.567232,-0.698132,-0.174533,-0.174533,-0.561948,-0.686913,-0.131795,-0.200021,-0.634045,-0.448741,-1.06844,0.637148
26,45,-0.567232,-0.698132,-0.174533,-0.174533,-0.561948,-0.686913,-0.131795,-0.200021,-0.634045,-0.448741,-1.06844,0.637148
26,45,-0.567232,-0.698132,-0.174533,-0.174533,-0.561948,-0.686913,-0.131795,-0.200021,-0.634045,-0.448741,-1.06844,0.637148
26,45,-0.567232,-0.698132,-0.174533,-0.174533,-0.561948,-0.686913,-0.131795,-0.200021,-0.634045,-0.448741,-1.06844,0.637148
26,45,-0.567232,-0.698132,-0.174533,-0.174533,-0.561948,-0.686913,-0.131795,-0.200021,-0.634045,-0.448741,-1.06844,0.637148
26,45,-0.567232,-0.698132,-0.174533,-0.174533,-0.561948,-0.686913,-0.131794,-0.199962,-0.634045,-0.448741,-1.06848,0.635667
26,45,-0.567232,-0.698132,-0.174533,-0.174533,-0.561948,-0.686913,-0.131794,-0.199962,-0.634045,-0.448741,-1.06848,0.635667
26,45,-0.567232,-0.698132,-0.174533,-0.174533,-0.561948,-0.686913,-0.131794,-0.199962,-0.634045,-0.448741,-1.06848,0.635667
26,45,-0.567232,-0.698132,-0.174533,-0.174533,-0.561948,-0.686913,-0.131794,-0.199962,-0.634045,-0.448741,-1.06848,0.635667
26,45,-0.567232,-0.698132,-0.174533,-0.174533,-0.561948,-0.686913,-0.131794,-0.199962,-0.634045,-0.448741,-1.06848,0.635667
26,45,-0.567232,-0.698132,-0.174533,-0.174533,-0.561948,-0.686913,-0.131794,-0.199962,-0.634045,-0.448741,-1.06848,0.635667
26,45,-0.567232,-0.698132,-0.174533,-0.174533,-0.561948,-0.686913,-0.131792,-0.199903,-0.634045,-0.448741,-1.06852,0.634176
26,45,-0.567232,-0.698132,-0.174533,-0.174533,-0.561948,-0.686913,-0.131792,-0.199903,-0.634045,-0.448741,-1.06852,0.634176
26,45,-0.567232,-0.698132,-0.174533,-0.174533,-0.561948,-0.686913,-0.131792,-0.199903,-0.634045,-0.448741,-1.06852,0.634176
26,45,-0.567232,-0.698132,-0.174533,-0.174533,-0.561948,-0.686913,-0.131792,-0.199903,-0.634045,-0.448741,-1.06852,0.634176
26,45,-0.567232,-0.698132,-0.174533,-0.174533,-0.561948,-0.686913,-0.131792,-0.199903,-0.634045,-0.448741,-1.06852,0.634176
26,45,-0.567232,-0.698132,-0.174533,-0.174533,-0.561948,-0.686913,-0.131792,-0.199903,-0.634045,-0.448741,-1.06852,0.634176
26,45,-0.567232,-0.698132,-0.174533,-0.174533,-0.561948,-0.686913,-0.131791,-0.199845,-0.634045,-0.448741,-1.06856,0.632655
26,45,-0.567232,-0.698132,-0.174533,-0.174533,-0.561948,-0.686913,-0.131791,-0.199845,-0.634045,-0.448741,-1.06856,0.632655
26,45,-0.567232,-0.698132,-0.174533,-0.174533,-0.561948,-0.686913,-0.131791,-0.199845,-0.634045,-0.448741,-1.06856,0.632655
26,45,-0.567232,-0.698132,-0.174533,-0.174533,-0.561948,-0.686913,-0.131791,-0.199845,-0.634045,-0.448741,-1.06856,0.632655
26,45,-0.567232,-0.698132,-0.174533,-0.174533,-0.561948,-0.686913,-0.131791,-0.199845,-0.634045,-0.448741,-1.06856,0.632655
26,45,-0.567232,-0.698132,-0.174533,-0.174533,-0.561948,-0.686913,-0.131789,-0.199786,-0.634045,-0.448741,-1.06859,0.631152
26,45,-0.567232,-0.698132,-0.174533,-0.174533,-0.561948,-0.686913,-0.131789,-0.199786,-0.634045,-0.448741,-1.06859,0.631152
26,45,-0.567232,-0.698132,-0.174533,-0.174533,-0.561948,-0.686913,-0.131789,-0.199786,-0.634045,-0.448741,-1.06859,0.631152
26,45,-0.567232,-0.698132,-0.174533,-0.174533,-0.561948,-0.686913,-0.131789,-0.199786,-0.634045,-0.448741,-1.06859,0.631152
26,45,-0.567232,-0.698132,-0.174533,-0.174533,-0.561948,-0.686913,-0.131789,-0.199786,-0.634045,-0.448741,-1.06859,0.631152
26,45,-0.567232,-0.698132,-0.174533,-0.174533,-0.561948,-0.686913,-0.131854,-0.199826,-0.634045,-0.448741,-1.06697,0.632172
26,45,-0.567232,-0.698132,-0.174533,-0.174533,-0.561948,-0.686913,-0.131853,-0.199767,-0.634045,-0.448741,-1.06701,0.630663
26,45,-0.567232,-0.698132,-0.174533,-0.174533,-0.561948,-0.686913,-0.131853,-0.199767,-0.634045,-0.448741,-1.06701,0.630663
26,45,-0.567232,-0.698132,-0.174533,-0.174533,-0.561948,-0.686913,-0.131853,-0.199767,-0.634045,-0.448741,-1.06701,0.630663
26,45,-0.567232,-0.698132,-0.174533,-0.174533,-0.561948,-0.686913,-0.131853,-0.199767,-0.634045,-0.448741,-1.06701,0.630663
26,45,-0.567232,-0.698132,-0.174533,-0.174533,-0.561948,-0.686913,-0.131853,-0.199767,-0.634045,-0.448741,-1.06701,0.630663
26,45,-0.567232,-0.698132,-0.174533,-0.174533,-0.561948,-0.686913,-0.131853,-0.199767,-0.634045,-0.448741,-1.06701,0.630663
26,45,-0.567232,-0.698132,-0.174533,-0.174533,-0.561948,-0.686913,-0.131853,-0.199767,-0.634045,-0.448741,-1.06701,0.630663
26,45,-0.567232,-0.698132,-0.174533,-0.174533,-0.561948,-0.686913,-0.131853,-0.199767,-0.634045,-0.448741,-1.06701,0.630663
26,45,-0.567232,-0.698132,-0.174533,-0.174533,-0.561948,-0.686913,-0.131853,-0.199767,-0.634045,-0.448741,-1.06701,0.630663
26,45,-0.567232,-0.698132,-0.174533,-0.174533,-0.561948,-0.686913,-0.131851,-0.199709,-0.634045,-0.448741,-1.06705,0.629214
26,45,-0.567232,-0.698132,-0.174533,-0.174533,-0.561948,-0.686913,-0.131851,-0.199709,-0.634045,-0.448741,-1.06705,0.629214
26,45,-0.567232,-0.698132,-0.174533,-0.174533,-0.561948,-0.686913,-0.131851,-0.199709,-0.634045,-0.448741,-1.06705,0.629214
26,45,-0.567232,-0.698132,-0.174533,-0.174533,-0.561948,-0.686913,-0.131851,-0.199709,-0.634045,-0.448741,-1.06705,0.629214
26,45,-0.567232,-0.698132,-0.174533,-0.174533,-0.561948,-0.686913,-0.131851,-0.199709,-0.634045,-0.448741,-1.06705,0.629214
26,45,-0.567232,-0.698132,-0.174533,-0.174533,-0.561948,-0.686913,-0.131851,-0.199709,-0.634045,-0.448741,-1.06705,0.629214
26,45,-0.567232,-0.698132,-0.174533,-0.174533,-0.561948,-0.686913,-0.131851,-0.199709,-0.634045,-0.448741,-1.06705,0.629214
26,45,-0.567232,-0.698132,-0.174533,-0.174533,-0.561948,-0.686913,-0.131851,-0.199709,-0.634045,-0.448741,-1.06705,0.629214
26,45,-0.567232,-0.698132,-0.174533,-0.174533,-0.561948,-0.686913,-0.131851,-0.199709,-0.634045,-0.448741,-1.06705,0.629214
26,45,-0.567232,-0.698132,-0.174533,-0.174533,-0.561948,-0.686913,-0.131851,-0.199709,-0.634045,-0.448741,-1.06705,0.629214
26,45,-0.567232,-0.698132,-0.174533,-0.174533,-0.561948,-0.686913,-0.131851,-0.199709,-0.634045,-0.448741,-1.06705,0.629214
26,45,-0.567232,-0.698132,-0.174533,-0.174533,-0.561948,-0.686913,-0.131851,-0.199709,-0.634045,-0.448741,-1.06705,0.629214
26,45,-0.567232,-0.698132,-0.174533,-0.174533,-0.561948,-0.686913,-0.131851,-0.199709,-0.634045,-0.448741,-1.06705,0.629214
26,45,-0.567232,-0.698132,-0.174533,-0.174533,-0.561948,-0.686913,-0.131851,-0.199709,-0.634045,-0.448741,-1.06705,0.629214
26,45,-0.567232,-0.698132,-0.174533,-0.174533,-0.561948,-0.686913,-0.13185,-0.19965,-0.634045,-0.448741,-1.06708,0.62778
26,45,-0.567232,-0.698132,-0.174533,-0.174533,-0.561948,-0.686913,-0.13185,-0.19965,-0.634045,-0.448741,-1.06708,0.62778
26,45,-0.567232,-0.698132,-0.174533,-0.174533,-0.561948,-0.686913,-0.13185,-0.19965,-0.634045,-0.448741,-1.06708,0.62778
26,45,-0.567232,-0.698132,-0.174533,-0.174533,-0.561948,-0.686913,-0.13185,-0.19965,-0.634045,-0.448741,-1.06708,0.62778
26,45,-0.567232,-0.698132,-0.174533,-0.174533,-0.561948,-0.686913,-0.13185,-0.19965,-0.634045,-0.448741,-1.06708,0.62778
26,45,-0.567232,-0.698132,-0.174533,-0.174533,-0.561948,-0.686913,-0.13185,-0.19965,-0.634045,-0.448741,-1.06708,0.62778
26,45,-0.567232,-0.698132,-0.174533,-0.174533,-0.561948,-0.686913,-0.13185,-0.19965,-0.634045,-0.448741,-1.06708,0.62778
26,45,-0.567232,-0.698132,-0.174533,-0.174533,-0.561948,-0.686913,-0.13185,-0.19965,-0.634045,-0.448741,-1.06708,0.62778
26,45,-0.567232,-0.698132,-0.174533,-0.174533,-0.561948,-0.686913,-0.13185,-0.19965,-0.634045,-0.448741,-1.06708,0.62778
26,45,-0.567232,-0.698132,-0.174533,-0.174533,-0.561948,-0.686913,-0.13185,-0.19965,-0.634045,-0.448741,-1.06708,0.62778
26,45,-0.567232,-0.698132,-0.174533,-0.174533,-0.561948,-0.686913,-0.13185,-0.19965,-0.634045,-0.448741,-1.06708,0.62778
26,45,-0.567232,-0.698132,-0.174533,-0.174533,-0.561948,-0.686913,-0.13185,-0.19965,-0.634045,-0.448741,-1.06708,0.62778
26,45,-0.567232,-0.698132,-0.174533,-0.174533,-0.561948,-0.686913,-0.13185,-0.19965,-0.634045,-0.448741,-1.06708,0.62778
26,45,-0.567232,-0.698132,-0.174533,-0.174533,-0.561948,-0.686913,-0.13185,-0.19965,-0.634045,-0.448741,-1.06708,0.62778
26,45,-0.567232,-0.698132,-0.174533,-0.174533,-0.561948,-0.686913,-0.13185,-0.19965,-0.634045,-0.448741,-1.06708,0.62778
26,45,-0.567232,-0.698132,-0.174533,-0.174533,-0.561948,-0.686913,-0.13185,-0.19965,-0.634045,-0.448741,-1.06708,0.62778
26,45,-0.567232,-0.698132,-0.174533,-0.174533,-0.561948,-0.686913,-0.13185,-0.19965,-0.634045,-0.448741,-1.06708,0.62778
26,45,-0.567232,-0.698132,-0.174533,-0.174533,-0.561948,-0.686913,-0.13185,-0.19965,-0.634045,-0.448741,-1.06708,0.62778
26,45,-0.567232,-0.698132,-0.174533,-0.174533,-0.561948,-0.686913,-0.13185,-0.19965,-0.634045,-0.448741,-1.06708,0.62778
26,45,-0.567232,-0.698132,-0.174533,-0.174533,-0.561948,-0.686913,-0.131848,-0.199591,-0.634045,-0.448741,-1.06712,0.626345
26,45,-0.567232,-0.698132,-0.174533,-0.174533,-0.561948,-0.686913,-0.131848,-0.199591,-0.634045,-0.448741,-1.06712,0.626345
26,45,-0.567232,-0.698132,-0.174533,-0.174533,-0.561948,-0.686913,-0.131848,-0.199591,-0.634045,-0.448741,-1.06712,0.626345
26,45,-0.567232,-0.698132,-0.174533,-0.174533,-0.561948,-0.686913,-0.131848,-0.199591,-0.634045,-0.448741,-1.06712,0.626345
26,45,-0.567232,-0.698132,-0.174533,-0.174533,-0.561948,-0.686913,-0.131848,-0.199591,-0.634045,-0.448741,-1.06712,0.626345
26,45,-0.567232,-0.698132,-0.174533,-0.174533,-0.561948,-0.686913,-0.131848,-0.199591,-0.634045,-0.448741,-1.06712,0.626345
26,45,-0.567232,-0.698132,-0.174533,-0.174533,-0.561948,-0.686913,-0.131848,-0.199591,-0.634045,-0.448741,-1.06712,0.626345
26,45,-0.567232,-0.698132,-0.174533,-0.174533,-0.561948,-0.686913,-0.131848,-0.199591,-0.634045,-0.448741,-1.06712,0.626345
26,45,-0.567232,-0.698132,-0.174533,-0.174533,-0.561948,-0.686913,-0.131848,-0.199591,-0.634045,-0.448741,-1.06712,0.626345
26,45,-0.567232,-0.698132,-0.174533,-0.174533,-0.561948,-0.686913,-0.131913,-0.199631,-0.634045,-0.448741,-1.0655,0.627364
26,45,-0.567232,-0.698132,-0.174533,-0.174533,-0.561948,-0.686913,-0.131913,-0.199631,-0.634045,-0.448741,-1.0655,0.627364
26,45,-0.567232,-0.698132,-0.174533,-0.174533,-0.561948,-0.686913,-0.131913,-0.199631,-0.634045,-0.448741,-1.0655,0.627364
26,45,-0.567232,-0.698132,-0.174533,-0.174533,-0.561948,-0.686913,-0.131913,-0.199631,-0.634045,-0.448741,-1.0655,0.627364
26,45,-0.567232,-0.698132,-0.174533,-0.174533,-0.561948,-0.686913,-0.131913,-0.199631,-0.634045,-0.448741,-1.0655,0.627364
26,45,-0.567232,-0.698132,-0.174533,-0.174533,-0.561948,-0.686913,-0.131913,-0.199631,-0.634045,-0.448741,-1.0655,0.627364
26,45,-0.567232,-0.698132,-0.174533,-0.174533,-0.561948,-0.686913,-0.131913,-0.199631,-0.634045,-0.448741,-1.0655,0.627364
26,45,-0.567232,-0.698132,-0.174533,-0.174533,-0.561948,-0.686913,-0.131913,-0.199631,-0.634045,-0.448741,-1.0655,0.627364
26,45,-0.567232,-0.698132,-0.174533,-0.174533,-0.561948,-0.686913,-0.131913,-0.199631,-0.634045,-0.448741,-1.0655,0.627364
26,45,-0.567232,-0.698132,-0.174533,-0.174533,-0.561948,-0.686913,-0.131913,-0.199631,-0.634045,-0.448741,-1.0655,0.627364
26,45,-0.567232,-0.698132,-0.174533,-0.174533,-0.561948,-0.686913,-0.131913,-0.199631,-0.634045,-0.448741,-1.0655,0.627364
26,45,-0.567232,-0.698132,-0.174533,-0.174533,-0.561948,-0.686913,-0.131913,-0.199631,-0.634045,-0.448741,-1.0655,0.627364
26,45,-0.567232,-0.698132,-0.174533,-0.174533,-0.561948,-0.686913,-0.131913,-0.199631,-0.634045,-0.448741,-1.0655,0.627364
26,45,-0.567232,-0.698132,-0.174533,-0.174533,-0.561948,-0.686913,-0.131913,-0.199631,-0.634045,-0.448741,-1.0655,0.627364
26,45,-0.567232,-0.698132,-0.174533,-0.174533,-0.561948,-0.686913,-0.131913,-0.199631,-0.634045,-0.448741,-1.0655,0.627364
26,45,-0.567232,-0.698132,-0.174533,-0.174533,-0.561948,-0.686913,-0.131913,-0.199631,-0.634045,-0.448741,-1.0655,0.627364
26,45,-0.567232,-0.698132,-0.174533,-0.174533,-0.561948,-0.686913,-0.131913,-0.199631,-0.634045,-0.448741,-1.0655,0.627364
26,45,-0.567232,-0.698132,-0.174533,-0.174533,-0.561948,-0.686913,-0.131913,-0.199631,-0.634045,-0.448741,-1.0655,0.627364
26,45,-0.567232,-0.698132,-0.174533,-0.174533,-0.561948,-0.686913,-0.131913,-0.199631,-0.634045,-0.448741,-1.0655,0.627364
26,45,-0.567232,-0.698132,-0.174533,-0.174533,-0.561948,-0.686913,-0.131913,-0.199631,-0.634045,-0.448741,-1.0655,0.627364
26,45,-0.567232,-0.698132,-0.174533,-0.174533,-0.561948,-0.686913,-0.131913,-0.199631,-0.634045,-0.448741,-1.0655,0.627364
26,45,-0.567232,-0.698132,-0.174533,-0.174533,-0.561948,-0.686913,-0.131913,-0.199631,-0.634045,-0.448741,-1.0655,0.627364
26,45,-0.567232,-0.698132,-0.174533,-0.174533,-0.561948,-0.686913,-0.131913,-0.199631,-0.634045,-0.448741,-1.0655,0.627364
26,45,-0.567232,-0.698132,-0.174533,-0.174533,-0.561948,-0.686913,-0.131913,-0.199631,-0.634045,-0.448741,-1.0655,0.627364
26,45,-0.567232,-0.698132,-0.174533,-0.174533,-0.561948,-0.686913,-0.131913,-0.199631,-0.634045,-0.448741,-1.0655,0.627364
26,45,-0.567232,-0.698132,-0.174533,-0.174533,-0.561948,-0.686913,-0.131913,-0.199631,-0.634045,-0.448741,-1.0655,0.627364
26,45,-0.567232,-0.698132,-0.174533,-0.174533,-0.561948,-0.686913,-0.131913,-0.199631,-0.634045,-0.448741,-1.0655,0.627364
26,45,-0.567232,-0.698132,-0.174533,-0.174533,-0.561948,-0.686913,-0.131913,-0.199631,-0.634045,-0.448741,-1.0655,0.627364
26,45,-0.567232,-0.698132,-0.174533,-0.174533,-0.561948,-0.686913,-0.131974,-0.199611,-0.634045,-0.448741,-1.06397,0.626866
26,45,-0.567232,-0.698132,-0.174533,-0.174533,-0.561948,-0.686913,-0.132039,-0.199652,-0.634045,-0.448741,-1.06235,0.627886
26,45,-0.567232,-0.698132,-0.174533,-0.174533,-0.561948,-0.686913,-0.132039,-0.199652,-0.634045,-0.448741,-1.06235,0.627886
26,45,-0.567232,-0.698132,-0.174533,-0.174533,-0.561948,-0.686913,-0.132039,-0.199652,-0.634045,-0.448741,-1.06235,0.627886
26,45,-0.567232,-0.698132,-0.174533,-0.174533,-0.561948,-0.686913,-0.132039,-0.199652,-0.634045,-0.448741,-1.06235,0.627886
26,45,-0.567232,-0.698132,-0.174533,-0.174533,-0.561948,-0.686913,-0.132039,-0.199652,-0.634045,-0.448741,-1.06235,0.627886
26,45,-0.567232,-0.698132,-0.174533,-0.174533,-0.561948,-0.686913,-0.132039,-0.199652,-0.634045,-0.448741,-1.06235,0.627886
26,45,-0.567232,-0.698132,-0.174533,-0.174533,-0.561948,-0.686913,-0.132039,-0.199652,-0.634045,-0.448741,-1.06235,0.627886
26,45,-0.567232,-0.698132,-0.174533,-0.174533,-0.561948,-0.686913,-0.132039,-0.199652,-0.634045,-0.448741,-1.06235,0.627886
26,45,-0.567232,-0.698132,-0.174533,-0.174533,-0.561948,-0.686913,-0.132039,-0.199652,-0.634045,-0.448741,-1.06235,0.627886
26,45,-0.567232,-0.698132,-0.174533,-0.174533,-0.561948,-0.686913,-0.132039,-0.199652,-0.634045,-0.448741,-1.06235,0.627886
26,45,-0.567232,-0.698132,-0.174533,-0.174533,-0.561948,-0.686913,-0.132039,-0.199652,-0.634045,-0.448741,-1.06235,0.627886
26,45,-0.567232,-0.698132,-0.174533,-0.174533,-0.561948,-0.686913,-0.132039,-0.199652,-0.634045,-0.448741,-1.06235,0.627888
26,45,-0.567232,-0.698132,-0.174533,-0.174533,-0.561948,-0.686913,-0.132039,-0.199652,-0.634045,-0.448741,-1.06235,0.62789
26,45,-0.567232,-0.698132,-0.174533,-0.174533,-0.561948,-0.686913,-0.132037,-0.199593,-0.634045,-0.448741,-1.06239,0.62651
26,45,-0.567232,-0.698132,-0.174533,-0.174533,-0.561948,-0.686913,-0.132037,-0.199593,-0.634045,-0.448741,-1.06239,0.62651
26,45,-0.567232,-0.698132,-0.174533,-0.174533,-0.561948,-0.686913,-0.132037,-0.199593,-0.634045,-0.448741,-1.06239,0.62651
26,45,-0.567232,-0.698132,-0.174533,-0.174533,-0.561948,-0.686913,-0.132037,-0.199593,-0.634045,-0.448741,-1.06239,0.62651
26,45,-0.567232,-0.698132,-0.174533,-0.174533,-0.561948,-0.686913,-0.132037,-0.199593,-0.634045,-0.448741,-1.06239,0.62651
26,45,-0.567232,-0.698132,-0.174533,-0.174533,-0.561948,-0.686913,-0.132037,-0.199593,-0.634045,-0.448741,-1.06239,0.62651
26,45,-0.567232,-0.698132,-0.174533,-0.174533,-0.561948,-0.686913,-0.132037,-0.199593,-0.634045,-0.448741,-1.06239,0.62651
26,45,-0.567232,-0.698132,-0.174533,-0.174533,-0.561948,-0.686913,-0.132037,-0.199593,-0.634045,-0.448741,-1.06239,0.62651
26,45,-0.567232,-0.698132,-0.174533,-0.174533,-0.561948,-0.686913,-0.132102,-0.199634,-0.634045,-0.448741,-1.06077,0.62753
26,45,-0.567232,-0.698132,-0.174533,-0.174533,-0.561948,-0.686913,-0.132102,-0.199634,-0.634045,-0.448741,-1.06077,0.62753
26,45,-0.567232,-0.698132,-0.174533,-0.174533,-0.561948,-0.686913,-0.132102,-0.199634,-0.634045,-0.448741,-1.06077,0.62753
26,45,-0.567232,-0.698132,-0.174533,-0.174533,-0.561948,-0.686913,-0.132102,-0.199634,-0.634045,-0.448741,-1.06077,0.62753
26,45,-0.567232,-0.698132,-0.174533,-0.174533,-0.561948,-0.686913,-0.132102,-0.199634,-0.634045,-0.448741,-1.06077,0.62753
26,45,-0.567232,-0.698132,-0.174533,-0.174533,-0.561948,-0.686913,-0.132102,-0.199634,-0.634045,-0.448741,-1.06077,0.62753
26,45,-0.567232,-0.698132,-0.174533,-0.174533,-0.561948,-0.686913,-0.132102,-0.199634,-0.634045,-0.448741,-1.06077,0.62753
26,45,-0.567232,-0.698132,-0.174533,-0.174533,-0.561948,-0.686913,-0.132102,-0.199634,-0.634045,-0.448741,-1.06077,0.62753
26,45,-0.567232,-0.698132,-0.174533,-0.174533,-0.561948,-0.686913,-0.132102,-0.199634,-0.634045,-0.448741,-1.06077,0.62753
26,45,-0.567232,-0.698132,-0.174533,-0.174533,-0.561948,-0.686913,-0.132167,-0.199675,-0.634045,-0.448741,-1.05915,0.62855
26,45,-0.567232,-0.698132,-0.174533,-0.174533,-0.561948,-0.686913,-0.132167,-0.199675,-0.634045,-0.448741,-1.05915,0.62855
26,45,-0.567232,-0.698132,-0.174533,-0.174533,-0.561948,-0.686913,-0.132167,-0.199675,-0.634045,-0.448741,-1.05915,0.62855
26,45,-0.567232,-0.698132,-0.174533,-0.174533,-0.561948,-0.686913,-0.132167,-0.199675,-0.634045,-0.448741,-1.05915,0.62855
26,45,-0.567232,-0.698132,-0.174533,-0.174533,-0.561948,-0.686913,-0.132167,-0.199675,-0.634045,-0.448741,-1.05915,0.62855
26,45,-0.567232,-0.698132,-0.174533,-0.174533,-0.561948,-0.686913,-0.132167,-0.199675,-0.634045,-0.448741,-1.05915,0.62855
26,45,-0.567232,-0.698132,-0.174533,-0.174533,-0.561948,-0.686913,-0.132167,-0.199675,-0.634045,-0.448741,-1.05915,0.62855
26,45,-0.567232,-0.698132,-0.174533,-0.174533,-0.561948,-0.686913,-0.132166,-0.199616,-0.634045,-0.448741,-1.05918,0.627076
26,45,-0.567232,-0.698132,-0.174533,-0.174533,-0.561948,-0.686913,-0.132166,-0.199616,-0.634045,-0.448741,-1.05918,0.627076
26,45,-0.567232,-0.698132,-0.174533,-0.174533,-0.561948,-0.686913,-0.132166,-0.199616,-0.634045,-0.448741,-1.05918,0.627076
26,45,-0.567232,-0.698132,-0.174533,-0.174533,-0.561948,-0.686913,-0.132166,-0.199616,-0.634045,-0.448741,-1.05918,0.627076
26,45,-0.567232,-0.698132,-0.174533,-0.174533,-0.561948,-0.686913,-0.132166,-0.199616,-0.634045,-0.448741,-1.05918,0.627076
26,45,-0.567232,-0.698132,-0.174533,-0.174533,-0.561948,-0.686913,-0.132166,-0.199616,-0.634045,-0.448741,-1.05918,0.627076
26,45,-0.567232,-0.698132,-0.174533,-0.174533,-0.561948,-0.686913,-0.132166,-0.199616,-0.634045,-0.448741,-1.05918,0.627076
26,45,-0.567232,-0.698132,-0.174533,-0.174533,-0.561948,-0.686913,-0.132227,-0.199596,-0.634045,-0.448741,-1.05766,0.626578
26,45,-0.567232,-0.698132,-0.174533,-0.174533,-0.561948,-0.686913,-0.132227,-0.199596,-0.634045,-0.448741,-1.05766,0.626578
26,45,-0.567232,-0.698132,-0.174533,-0.174533,-0.561948,-0.686913,-0.132291,-0.199637,-0.634045,-0.448741,-1.05597,0.627642
26,45,-0.567232,-0.698132,-0.174533,-0.174533,-0.561948,-0.686913,-0.132291,-0.199637,-0.634045,-0.448741,-1.05597,0.627642
26,45,-0.567232,-0.698132,-0.174533,-0.174533,-0.561948,-0.686913,-0.132291,-0.199637,-0.634045,-0.448741,-1.05597,0.627642
26,45,-0.567232,-0.698132,-0.174533,-0.174533,-0.561948,-0.686913,-0.132291,-0.199637,-0.634045,-0.448741,-1.05597,0.627642
26,45,-0.567232,-0.698132,-0.174533,-0.174533,-0.561948,-0.686913,-0.132291,-0.199637,-0.634045,-0.448741,-1.05597,0.627642
26,45,-0.567232,-0.698132,-0.174533,-0.174533,-0.561948,-0.686913,-0.132291,-0.199637,-0.634045,-0.448741,-1.05597,0.627642
26,45,-0.567232,-0.698132,-0.174533,-0.174533,-0.561948,-0.686913,-0.132291,-0.199637,-0.634045,-0.448741,-1.05597,0.627642
26,45,-0.567232,-0.698132,-0.174533,-0.174533,-0.561948,-0.686913,-0.132291,-0.199637,-0.634045,-0.448741,-1.05597,0.627642
26,45,-0.567232,-0.698132,-0.174533,-0.174533,-0.561948,-0.686913,-0.132291,-0.199637,-0.634045,-0.448741,-1.05597,0.627642
26,45,-0.567232,-0.698132,-0.174533,-0.174533,-0.561948,-0.686913,-0.132291,-0.199637,-0.634045,-0.448741,-1.05597,0.627642
26,45,-0.567232,-0.698132,-0.174533,-0.174533,-0.561948,-0.686913,-0.132291,-0.199637,-0.634045,-0.448741,-1.05597,0.627642
26,45,-0.567232,-0.698132,-0.174533,-0.174533,-0.561948,-0.686913,-0.132291,-0.199637,-0.634045,-0.448741,-1.05597,0.627642
26,45,-0.567232,-0.698132,-0.174533,-0.174533,-0.561948,-0.686913,-0.132291,-0.199637,-0.634045,-0.448741,-1.05597,0.627642
26,45,-0.567232,-0.698132,-0.174533,-0.174533,-0.561948,-0.686913,-0.132352,-0.199617,-0.634045,-0.448741,-1.05444,0.627143
26,45,-0.567232,-0.698132,-0.174533,-0.174533,-0.561948,-0.686913,-0.132352,-0.199617,-0.634045,-0.448741,-1.05444,0.627143
26,45,-0.567232,-0.698132,-0.174533,-0.174533,-0.561948,-0.686913,-0.132417,-0.199658,-0.634045,-0.448741,-1.0528,0.628174
26,45,-0.567232,-0.698132,-0.174533,-0.174533,-0.561948,-0.686913,-0.132417,-0.199658,-0.634045,-0.448741,-1.0528,0.628174
26,45,-0.567232,-0.698132,-0.174533,-0.174533,-0.561948,-0.686913,-0.132417,-0.199658,-0.634045,-0.448741,-1.0528,0.628174
26,45,-0.567232,-0.698132,-0.174533,-0.174533,-0.561948,-0.686913,-0.132417,-0.199658,-0.634045,-0.448741,-1.0528,0.628174
26,45,-0.567232,-0.698132,-0.174533,-0.174533,-0.561948,-0.686913,-0.132417,-0.199658,-0.634045,-0.448741,-1.0528,0.628174
26,45,-0.567232,-0.698132,-0.174533,-0.174533,-0.561948,-0.686913,-0.132417,-0.199658,-0.634045,-0.448741,-1.0528,0.628174
26,45,-0.567232,-0.698132,-0.174533,-0.174533,-0.561948,-0.686913,-0.132417,-0.199658,-0.634045,-0.448741,-1.0528,0.628174
26,45,-0.567232,-0.698132,-0.174533,-0.174533,-0.561948,-0.686913,-0.132417,-0.199658,-0.634045,-0.448741,-1.0528,0.628174
26,45,-0.567232,-0.698132,-0.174533,-0.174533,-0.561948,-0.686913,-0.132416,-0.199599,-0.634045,-0.448741,-1.05284,0.626701
26,45,-0.567232,-0.698132,-0.174533,-0.174533,-0.561948,-0.686913,-0.132416,-0.199599,-0.634045,-0.448741,-1.05284,0.626701
26,45,-0.567232,-0.698132,-0.174533,-0.174533,-0.561948,-0.686913,-0.132416,-0.199599,-0.634045,-0.448741,-1.05284,0.626701
26,45,-0.567232,-0.698132,-0.174533,-0.174533,-0.561948,-0.686913,-0.132477,-0.199579,-0.634045,-0.448741,-1.05132,0.626202
26,45,-0.567232,-0.698132,-0.174533,-0.174533,-0.561948,-0.686913,-0.132477,-0.199579,-0.634045,-0.448741,-1.05132,0.626202
26,45,-0.567232,-0.698132,-0.174533,-0.174533,-0.561948,-0.686913,-0.132477,-0.199579,-0.634045,-0.448741,-1.05132,0.626202
26,45,-0.567232,-0.698132,-0.174533,-0.174533,-0.561948,-0.686913,-0.132477,-0.199579,-0.634045,-0.448741,-1.05132,0.626202
26,45,-0.567232,-0.698132,-0.174533,-0.174533,-0.561948,-0.686913,-0.132538,-0.199559,-0.634045,-0.448741,-1.04973,0.625684
26,45,-0.567232,-0.698132,-0.174533,-0.174533,-0.561948,-0.686913,-0.132538,-0.199559,-0.634045,-0.448741,-1.04973,0.625684
26,45,-0.567232,-0.698132,-0.174533,-0.174533,-0.561948,-0.686913,-0.132538,-0.199559,-0.634045,-0.448741,-1.04973,0.625684
26,45,-0.567232,-0.698132,-0.174533,-0.174533,-0.561948,-0.686913,-0.132603,-0.1996,-0.634045,-0.448741,-1.0481,0.626706
26,45,-0.567232,-0.698132,-0.174533,-0.174533,-0.561948,-0.686913,-0.132603,-0.1996,-0.634045,-0.448741,-1.0481,0.626706
26,45,-0.567232,-0.698132,-0.174533,-0.174533,-0.561948,-0.686913,-0.132603,-0.1996,-0.634045,-0.448741,-1.0481,0.626706
26,45,-0.567232,-0.698132,-0.174533,-0.174533,-0.561948,-0.686913,-0.132603,-0.1996,-0.634045,-0.448741,-1.0481,0.626706
26,45,-0.567232,-0.698132,-0.174533,-0.174533,-0.561948,-0.686913,-0.132664,-0.19958,-0.634045,-0.448741,-1.04651,0.626188
26,45,-0.567232,-0.698132,-0.174533,-0.174533,-0.561948,-0.686913,-0.132664,-0.19958,-0.634045,-0.448741,-1.04651,0.626188
26,45,-0.567232,-0.698132,-0.174533,-0.174533,-0.561948,-0.686913,-0.132664,-0.19958,-0.634045,-0.448741,-1.04651,0.626188
26,45,-0.567232,-0.698132,-0.174533,-0.174533,-0.561948,-0.686913,-0.132725,-0.19956,-0.634045,-0.448741,-1.04494,0.625674
26,45,-0.567232,-0.698132,-0.174533,-0.174533,-0.561948,-0.686913,-0.132725,-0.19956,-0.634045,-0.448741,-1.04494,0.625674
26,45,-0.567232,-0.698132,-0.174533,-0.174533,-0.561948,-0.686913,-0.132725,-0.19956,-0.634045,-0.448741,-1.04494,0.625674
26,45,-0.567232,-0.698132,-0.174533,-0.174533,-0.561948,-0.686913,-0.132723,-0.199501,-0.634045,-0.448741,-1.04498,0.6242
26,45,-0.567232,-0.698132,-0.174533,-0.174533,-0.561948,-0.686913,-0.132723,-0.199501,-0.634045,-0.448741,-1.04498,0.6242
26,45,-0.567232,-0.698132,-0.174533,-0.174533,-0.561948,-0.686913,-0.132723,-0.199501,-0.634045,-0.448741,-1.04498,0.6242
26,45,-0.567232,-0.698132,-0.174533,-0.174533,-0.561948,-0.686913,-0.132788,-0.199542,-0.634045,-0.448741,-1.04336,0.625217
26,45,-0.567232,-0.698132,-0.174533,-0.174533,-0.561948,-0.686913,-0.132849,-0.199522,-0.634045,-0.448741,-1.04179,0.624703
26,45,-0.567232,-0.698132,-0.174533,-0.174533,-0.561948,-0.686913,-0.132849,-0.199522,-0.634045,-0.448741,-1.04179,0.624703
26,45,-0.567232,-0.698132,-0.174533,-0.174533,-0.561948,-0.686913,-0.132849,-0.199522,-0.634045,-0.448741,-1.04179,0.624703
26,45,-0.567232,-0.698132,-0.174533,-0.174533,-0.561948,-0.686913,-0.132849,-0.199522,-0.634045,-0.448741,-1.04179,0.624703
26,45,-0.567232,-0.698132,-0.174533,-0.174533,-0.561948,-0.686913,-0.132914,-0.199563,-0.634045,-0.448741,-1.04015,0.625736
26,45,-0.567232,-0.698132,-0.174533,-0.174533,-0.561948,-0.686913,-0.132914,-0.199563,-0.634045,-0.448741,-1.04015,0.625736
26,45,-0.567232,-0.698132,-0.174533,-0.174533,-0.561948,-0.686913,-0.132914,-0.199563,-0.634045,-0.448741,-1.04015,0.625736
26,45,-0.567232,-0.698132,-0.174533,-0.174533,-0.561948,-0.686913,-0.132975,-0.199543,-0.634045,-0.448741,-1.03864,0.625246
26,45,-0.567232,-0.698132,-0.174533,-0.174533,-0.561948,-0.686913,-0.132975,-0.199543,-0.634045,-0.448741,-1.03864,0.625246
26,45,-0.567232,-0.698132,-0.174533,-0.174533,-0.561948,-0.686913,-0.132975,-0.199543,-0.634045,-0.448741,-1.03864,0.625246
26,45,-0.567232,-0.698132,-0.174533,-0.174533,-0.561948,-0.686913,-0.132975,-0.199543,-0.634045,-0.448741,-1.03864,0.625246
26,45,-0.567232,-0.698132,-0.174533,-0.174533,-0.561948,-0.686913,-0.132975,-0.199543,-0.634045,-0.448741,-1.03864,0.625246
26,45,-0.567232,-0.698132,-0.174533,-0.174533,-0.561948,-0.686913,-0.132975,-0.199543,-0.634045,-0.448741,-1.03864,0.625246
26,45,-0.567232,-0.698132,-0.174533,-0.174533,-0.561948,-0.686913,-0.13304,-0.199584,-0.634045,-0.448741,-1.03701,0.626276
26,45,-0.567232,-0.698132,-0.174533,-0.174533,-0.561948,-0.686913,-0.13304,-0.199584,-0.634045,-0.448741,-1.03701,0.626276
26,45,-0.567232,-0.698132,-0.174533,-0.174533,-0.561948,-0.686913,-0.13304,-0.199584,-0.634045,-0.448741,-1.03701,0.626276
26,45,-0.567232,-0.698132,-0.174533,-0.174533,-0.561948,-0.686913,-0.13304,-0.199584,-0.634045,-0.448741,-1.03701,0.626276
26,45,-0.567232,-0.698132,-0.174533,-0.174533,-0.561948,-0.686913,-0.13304,-0.199584,-0.634045,-0.448741,-1.03701,0.626276
26,45,-0.567232,-0.698132,-0.174533,-0.174533,-0.561948,-0.686913,-0.133101,-0.199564,-0.634045,-0.448741,-1.03551,0.625786
26,45,-0.567232,-0.698132,-0.174533,-0.174533,-0.561948,-0.686913,-0.133101,-0.199564,-0.634045,-0.448741,-1.03551,0.625786
26,45,-0.567232,-0.698132,-0.174533,-0.174533,-0.561948,-0.686913,-0.133101,-0.199564,-0.634045,-0.448741,-1.03551,0.625786
26,45,-0.567232,-0.698132,-0.174533,-0.174533,-0.561948,-0.686913,-0.133101,-0.199564,-0.634045,-0.448741,-1.03551,0.625786
26,45,-0.567232,-0.698132,-0.174533,-0.174533,-0.561948,-0.686913,-0.133101,-0.199564,-0.634045,-0.448741,-1.03551,0.625786
26,45,-0.567232,-0.698132,-0.174533,-0.174533,-0.561948,-0.686913,-0.133101,-0.199564,-0.634045,-0.448741,-1.03551,0.625786
26,45,-0.567232,-0.698132,-0.174533,-0.174533,-0.561948,-0.686913,-0.133099,-0.199505,-0.634045,-0.448741,-1.03555,0.624312
26,45,-0.567232,-0.698132,-0.174533,-0.174533,-0.561948,-0.686913,-0.133099,-0.199505,-0.634045,-0.448741,-1.03555,0.624312
26,45,-0.567232,-0.698132,-0.174533,-0.174533,-0.561948,-0.686913,-0.133099,-0.199505,-0.634045,-0.448741,-1.03555,0.624312
26,45,-0.567232,-0.698132,-0.174533,-0.174533,-0.561948,-0.686913,-0.133099,-0.199505,-0.634045,-0.448741,-1.03555,0.624312
26,45,-0.567232,-0.698132,-0.174533,-0.174533,-0.561948,-0.686913,-0.133099,-0.199505,-0.634045,-0.448741,-1.03555,0.624312
26,45,-0.567232,-0.698132,-0.174533,-0.174533,-0.561948,-0.686913,-0.133099,-0.199505,-0.634045,-0.448741,-1.03555,0.624312
26,45,-0.567232,-0.698132,-0.174533,-0.174533,-0.561948,-0.686913,-0.133099,-0.199505,-0.634045,-0.448741,-1.03555,0.624312
26,45,-0.567232,-0.698132,-0.174533,-0.174533,-0.561948,-0.686913,-0.133099,-0.199505,-0.634045,-0.448741,-1.03555,0.624312
26,45,-0.567232,-0.698132,-0.174533,-0.174533,-0.561948,-0.686913,-0.133099,-0.199505,-0.634045,-0.448741,-1.03555,0.624312
26,45,-0.567232,-0.698132,-0.174533,-0.174533,-0.561948,-0.686913,-0.133099,-0.199505,-0.634045,-0.448741,-1.03555,0.624312
26,45,-0.567232,-0.698132,-0.174533,-0.174533,-0.561948,-0.686913,-0.133099,-0.199505,-0.634045,-0.448741,-1.03555,0.624312
26,45,-0.567232,-0.698132,-0.174533,-0.174533,-0.561948,-0.686913,-0.133099,-0.199505,-0.634045,-0.448741,-1.03555,0.624312
26,45,-0.567232,-0.698132,-0.174533,-0.174533,-0.561948,-0.686913,-0.133164,-0.199546,-0.634045,-0.448741,-1.03394,0.625326
26,45,-0.567232,-0.698132,-0.174533,-0.174533,-0.561948,-0.686913,-0.133164,-0.199546,-0.634045,-0.448741,-1.03394,0.625326
26,45,-0.567232,-0.698132,-0.174533,-0.174533,-0.561948,-0.686913,-0.133164,-0.199546,-0.634045,-0.448741,-1.03394,0.625326
26,45,-0.567232,-0.698132,-0.174533,-0.174533,-0.561948,-0.686913,-0.133225,-0.199526,-0.634045,-0.448741,-1.03248,0.62485
26,45,-0.567232,-0.698132,-0.174533,-0.174533,-0.561948,-0.686913,-0.133225,-0.199526,-0.634045,-0.448741,-1.03248,0.62485
26,45,-0.567232,-0.698132,-0.174533,-0.174533,-0.561948,-0.686913,-0.133225,-0.199526,-0.634045,-0.448741,-1.03248,0.62485
26,45,-0.567232,-0.698132,-0.174533,-0.174533,-0.561948,-0.686913,-0.133225,-0.199526,-0.634045,-0.448741,-1.03248,0.62485
26,45,-0.567232,-0.698132,-0.174533,-0.174533,-0.561948,-0.686913,-0.133225,-0.199526,-0.634045,-0.448741,-1.03248,0.62485
26,45,-0.567232,-0.698132,-0.174533,-0.174533,-0.561948,-0.686913,-0.133225,-0.199526,-0.634045,-0.448741,-1.03248,0.62485
26,45,-0.567232,-0.698132,-0.174533,-0.174533,-0.561948,-0.686913,-0.133225,-0.199526,-0.634045,-0.448741,-1.03248,0.62485
26,45,-0.567232,-0.698132,-0.174533,-0.174533,-0.561948,-0.686913,-0.133225,-0.199526,-0.634045,-0.448741,-1.03248,0.62485
26,45,-0.567232,-0.698132,-0.174533,-0.174533,-0.561948,-0.686913,-0.133225,-0.199526,-0.634045,-0.448741,-1.03248,0.62485
26,45,-0.567232,-0.698132,-0.174533,-0.174533,-0.561948,-0.686913,-0.133225,-0.199526,-0.634045,-0.448741,-1.03248,0.62485
26,45,-0.567232,-0.698132,-0.174533,-0.174533,-0.561948,-0.686913,-0.133225,-0.199526,-0.634045,-0.448741,-1.03248,0.62485
26,45,-0.567232,-0.698132,-0.174533,-0.174533,-0.561948,-0.686913,-0.133225,-0.199526,-0.634045,-0.448741,-1.03248,0.62485
26,45,-0.567232,-0.698132,-0.174533,-0.174533,-0.561948,-0.686913,-0.133225,-0.199526,-0.634045,-0.448741,-1.03248,0.62485
26,45,-0.567232,-0.698132,-0.174533,-0.174533,-0.561948,-0.686913,-0.133225,-0.199526,-0.634045,-0.448741,-1.03248,0.62485
26,45,-0.567232,-0.698132,-0.174533,-0.174533,-0.561948,-0.686913,-0.133225,-0.199526,-0.634045,-0.448741,-1.03248,0.62485
26,45,-0.567232,-0.698132,-0.174533,-0.174533,-0.561948,-0.686913,-0.133225,-0.199526,-0.634045,-0.448741,-1.03248,0.62485
26,45,-0.567232,-0.698132,-0.174533,-0.174533,-0.561948,-0.686913,-0.133225,-0.199526,-0.634045,-0.448741,-1.03248,0.62485
26,45,-0.567232,-0.698132,-0.174533,-0.174533,-0.561948,-0.686913,-0.133225,-0.199526,-0.634045,-0.448741,-1.03248,0.62485
26,45,-0.567232,-0.698132,-0.174533,-0.174533,-0.561948,-0.686913,-0.133225,-0.199526,-0.634045,-0.448741,-1.03248,0.62485
26,45,-0.567232,-0.698132,-0.174533,-0.174533,-0.561948,-0.686913,-0.133225,-0.199526,-0.634045,-0.448741,-1.03248,0.62485
26,45,-0.567232,-0.698132,-0.174533,-0.174533,-0.561948,-0.686913,-0.13329,-0.199567,-0.634045,-0.448741,-1.03087,0.625861
26,45,-0.567232,-0.698132,-0.174533,-0.174533,-0.561948,-0.686913,-0.13329,-0.199567,-0.634045,-0.448741,-1.03087,0.625861
26,45,-0.567232,-0.698132,-0.174533,-0.174533,-0.561948,-0.686913,-0.13329,-0.199567,-0.634045,-0.448741,-1.03087,0.625861
26,45,-0.567232,-0.698132,-0.174533,-0.174533,-0.561948,-0.686913,-0.13329,-0.199567,-0.634045,-0.448741,-1.03087,0.625861
26,45,-0.567232,-0.698132,-0.174533,-0.174533,-0.561948,-0.686913,-0.13329,-0.199567,-0.634045,-0.448741,-1.03087,0.625861
26,45,-0.567232,-0.698132,-0.174533,-0.174533,-0.561948,-0.686913,-0.13329,-0.199567,-0.634045,-0.448741,-1.03087,0.625861
26,45,-0.567232,-0.698132,-0.174533,-0.174533,-0.561948,-0.686913,-0.13329,-0.199567,-0.634045,-0.448741,-1.03087,0.625861
26,45,-0.567232,-0.698132,-0.174533,-0.174533,-0.561948,-0.686913,-0.13329,-0.199567,-0.634045,-0.448741,-1.03087,0.625861
26,45,-0.567232,-0.698132,-0.174533,-0.174533,-0.561948,-0.686913,-0.13329,-0.199567,-0.634045,-0.448741,-1.03087,0.625861
26,45,-0.567232,-0.698132,-0.174533,-0.174533,-0.561948,-0.686913,-0.13329,-0.199567,-0.634045,-0.448741,-1.03087,0.625861
26,45,-0.567232,-0.698132,-0.174533,-0.174533,-0.561948,-0.686913,-0.13329,-0.199567,-0.634045,-0.448741,-1.03087,0.625861
26,45,-0.567232,-0.698132,-0.174533,-0.174533,-0.561948,-0.686913,-0.13329,-0.199567,-0.634045,-0.448741,-1.03087,0.625861
26,45,-0.567232,-0.698132,-0.174533,-0.174533,-0.561948,-0.686913,-0.13329,-0.199567,-0.634045,-0.448741,-1.03087,0.625861
26,45,-0.567232,-0.698132,-0.174533,-0.174533,-0.561948,-0.686913,-0.13329,-0.199567,-0.634045,-0.448741,-1.03087,0.625861
26,45,-0.567232,-0.698132,-0.174533,-0.174533,-0.561948,-0.686913,-0.13329,-0.199567,-0.634045,-0.448741,-1.03087,0.625861
26,45,-0.567232,-0.698132,-0.174533,-0.174533,-0.561948,-0.686913,-0.13329,-0.199567,-0.634045,-0.448741,-1.03087,0.625861
26,45,-0.567232,-0.698132,-0.174533,-0.174533,-0.561948,-0.686913,-0.13329,-0.199567,-0.634045,-0.448741,-1.03087,0.625861
26,45,-0.567232,-0.698132,-0.174533,-0.174533,-0.561948,-0.686913,-0.13329,-0.199567,-0.634045,-0.448741,-1.03087,0.625861
26,45,-0.567232,-0.698132,-0.174533,-0.174533,-0.561948,-0.686913,-0.13329,-0.199567,-0.634045,-0.448741,-1.03087,0.625861
26,45,-0.567232,-0.698132,-0.174533,-0.174533,-0.561948,-0.686913,-0.13329,-0.199567,-0.634045,-0.448741,-1.03087,0.625861
26,45,-0.567232,-0.698132,-0.174533,-0.174533,-0.561948,-0.686913,-0.13329,-0.199567,-0.634045,-0.448741,-1.03087,0.625861
26,45,-0.567232,-0.698132,-0.174533,-0.174533,-0.561948,-0.686913,-0.13329,-0.199567,-0.634045,-0.448741,-1.03087,0.625861
26,45,-0.567232,-0.698132,-0.174533,-0.174533,-0.561948,-0.686913,-0.13329,-0.199567,-0.634045,-0.448741,-1.03087,0.625861
26,45,-0.567232,-0.698132,-0.174533,-0.174533,-0.561948,-0.686913,-0.13329,-0.199567,-0.634045,-0.448741,-1.03087,0.625861
26,45,-0.567232,-0.698132,-0.174533,-0.174533,-0.561948,-0.686913,-0.13329,-0.199567,-0.634045,-0.448741,-1.03087,0.625861
26,45,-0.567232,-0.698132,-0.174533,-0.174533,-0.561948,-0.686913,-0.133355,-0.199607,-0.634045,-0.448741,-1.02928,0.626869
26,45,-0.567232,-0.698132,-0.174533,-0.174533,-0.561948,-0.686913,-0.133355,-0.199607,-0.634045,-0.448741,-1.02928,0.62687
26,45,-0.567232,-0.698132,-0.174533,-0.174533,-0.561948,-0.686913,-0.133355,-0.199607,-0.634045,-0.448741,-1.02928,0.62687
26,45,-0.567232,-0.698132,-0.174533,-0.174533,-0.561948,-0.686913,-0.133355,-0.199607,-0.634045,-0.448741,-1.02928,0.626871
26,45,-0.567232,-0.698132,-0.174533,-0.174533,-0.561948,-0.686913,-0.133355,-0.199607,-0.634045,-0.448741,-1.02928,0.626872
26,45,-0.567232,-0.698132,-0.174533,-0.174533,-0.561948,-0.686913,-0.133355,-0.199607,-0.634045,-0.448741,-1.02929,0.626872
26,45,-0.567232,-0.698132,-0.174533,-0.174533,-0.561948,-0.686913,-0.133355,-0.199607,-0.634045,-0.448741,-1.02929,0.626873
26,45,-0.567232,-0.698132,-0.174533,-0.174533,-0.561948,-0.686913,-0.133355,-0.199607,-0.634045,-0.448741,-1.02929,0.626874
26,45,-0.567232,-0.698132,-0.174533,-0.174533,-0.561948,-0.686913,-0.133355,-0.199607,-0.634045,-0.448741,-1.02929,0.626874
26,45,-0.567232,-0.698132,-0.174533,-0.174533,-0.561948,-0.686913,-0.133355,-0.199607,-0.634045,-0.448741,-1.02929,0.626875
26,45,-0.567232,-0.698132,-0.174533,-0.174533,-0.561948,-0.686913,-0.133355,-0.199607,-0.634045,-0.448741,-1.02929,0.626875
26,45,-0.567232,-0.698132,-0.174533,-0.174533,-0.561948,-0.686913,-0.133355,-0.199607,-0.634045,-0.448741,-1.0293,0.626876
26,45,-0.567232,-0.698132,-0.174533,-0.174533,-0.561948,-0.686913,-0.133355,-0.199607,-0.634045,-0.448741,-1.0293,0.626876
26,45,-0.567232,-0.698132,-0.174533,-0.174533,-0.561948,-0.686913,-0.133355,-0.199607,-0.634045,-0.448741,-1.0293,0.626877
26,45,-0.567232,-0.698132,-0.174533,-0.174533,-0.561948,-0.686913,-0.133355,-0.199607,-0.634045,-0.448741,-1.0293,0.626877
26,45,-0.567232,-0.698132,-0.174533,-0.174533,-0.561948,-0.686913,-0.133355,-0.199607,-0.634045,-0.448741,-1.0293,0.626877
26,45,-0.567232,-0.698132,-0.174533,-0.174533,-0.561948,-0.686913,-0.133355,-0.199607,-0.634045,-0.448741,-1.0293,0.626878
26,45,-0.567232,-0.698132,-0.174533,-0.174533,-0.561948,-0.686913,-0.133355,-0.199607,-0.634045,-0.448741,-1.0293,0.626878
26,45,-0.567232,-0.698132,-0.174533,-0.174533,-0.561948,-0.686913,-0.133355,-0.199607,-0.634045,-0.448741,-1.02931,0.626879
26,45,-0.567232,-0.698132,-0.174533,-0.174533,-0.561948,-0.686913,-0.133355,-0.199607,-0.634045,-0.448741,-1.02931,0.626879
26,45,-0.567232,-0.698132,-0.174533,-0.174533,-0.561948,-0.686913,-0.133355,-0.199607,-0.634045,-0.448741,-1.02931,0.626879
26,45,-0.567232,-0.698132,-0.174533,-0.174533,-0.561948,-0.686913,-0.133355,-0.199607,-0.634045,-0.448741,-1.02931,0.62688
26,45,-0.567232,-0.698132,-0.174533,-0.174533,-0.561948,-0.686913,-0.133355,-0.199607,-0.634045,-0.448741,-1.02931,0.62688
26,45,-0.567232,-0.698132,-0.174533,-0.174533,-0.561948,-0.686913,-0.13342,-0.199648,-0.634045,-0.448741,-1.02775,0.627861
26,45,-0.567232,-0.698132,-0.174533,-0.174533,-0.561948,-0.686913,-0.13342,-0.199648,-0.634045,-0.448741,-1.02776,0.627862
26,45,-0.567232,-0.698132,-0.174533,-0.174533,-0.561948,-0.686913,-0.13342,-0.199648,-0.634045,-0.448741,-1.02776,0.627862
26,45,-0.567232,-0.698132,-0.174533,-0.174533,-0.561948,-0.686913,-0.13342,-0.199648,-0.634045,-0.448741,-1.02776,0.627862
26,45,-0.567232,-0.698132,-0.174533,-0.174533,-0.561948,-0.686913,-0.13342,-0.199648,-0.634045,-0.448741,-1.02776,0.627863
26,45,-0.567232,-0.698132,-0.174533,-0.174533,-0.561948,-0.686913,-0.13342,-0.199648,-0.634045,-0.448741,-1.02776,0.627863
26,45,-0.567232,-0.698132,-0.174533,-0.174533,-0.561948,-0.686913,-0.13342,-0.199648,-0.634045,-0.448741,-1.02776,0.627863
26,45,-0.567232,-0.698132,-0.174533,-0.174533,-0.561948,-0.686913,-0.13342,-0.199648,-0.634045,-0.448741,-1.02776,0.627863
26,45,-0.567232,-0.698132,-0.174533,-0.174533,-0.561948,-0.686913,-0.13342,-0.199648,-0.634045,-0.448741,-1.02776,0.627864
26,45,-0.567232,-0.698132,-0.174533,-0.174533,-0.561948,-0.686913,-0.13342,-0.199648,-0.634045,-0.448741,-1.02776,0.627864
26,45,-0.567232,-0.698132,-0.174533,-0.174533,-0.561948,-0.686913,-0.13342,-0.199648,-0.634045,-0.448741,-1.02776,0.627864
26,45,-0.567232,-0.698132,-0.174533,-0.174533,-0.561948,-0.686913,-0.13342,-0.199648,-0.634045,-0.448741,-1.02776,0.627864
26,45,-0.567232,-0.698132,-0.174533,-0.174533,-0.561948,-0.686913,-0.13342,-0.199648,-0.634045,-0.448741,-1.02776,0.627865
26,45,-0.567232,-0.698132,-0.174533,-0.174533,-0.561948,-0.686913,-0.13342,-0.199648,-0.634045,-0.448741,-1.02777,0.627865
26,45,-0.567232,-0.698132,-0.174533,-0.174533,-0.561948,-0.686913,-0.13342,-0.199648,-0.634045,-0.448741,-1.02777,0.627865
26,45,-0.567232,-0.698132,-0.174533,-0.174533,-0.561948,-0.686913,-0.13342,-0.199648,-0.634045,-0.448741,-1.02777,0.627865
26,45,-0.567232,-0.698132,-0.174533,-0.174533,-0.561948,-0.686913,-0.13342,-0.199648,-0.634045,-0.448741,-1.02783,0.627884
26,45,-0.567232,-0.698132,-0.174533,-0.174533,-0.561948,-0.686913,-0.13342,-0.199648,-0.634045,-0.448741,-1.02783,0.627884
26,45,-0.567232,-0.698132,-0.174533,-0.174533,-0.561948,-0.686913,-0.13342,-0.199648,-0.634045,-0.448741,-1.02783,0.627884
26,45,-0.567232,-0.698132,-0.174533,-0.174533,-0.561948,-0.686913,-0.13342,-0.199648,-0.634045,-0.448741,-1.02783,0.627884
26,45,-0.567232,-0.698132,-0.174533,-0.174533,-0.561948,-0.686913,-0.13342,-0.199648,-0.634045,-0.448741,-1.02783,0.627884
26,45,-0.567232,-0.698132,-0.174533,-0.174533,-0.561948,-0.686913,-0.13342,-0.199648,-0.634045,-0.448741,-1.02783,0.627884
26,45,-0.567232,-0.698132,-0.174533,-0.174533,-0.561948,-0.686913,-0.13342,-0.199648,-0.634045,-0.448741,-1.02783,0.627884
26,45,-0.567232,-0.698132,-0.174533,-0.174533,-0.561948,-0.686913,-0.13342,-0.199648,-0.634045,-0.448741,-1.02783,0.627884
26,45,-0.567232,-0.698132,-0.174533,-0.174533,-0.561948,-0.686913,-0.13342,-0.199648,-0.634045,-0.448741,-1.02783,0.627884
26,45,-0.567232,-0.698132,-0.174533,-0.174533,-0.561948,-0.686913,-0.133485,-0.199689,-0.634045,-0.448741,-1.0262,0.628906
26,45,-0.567232,-0.698132,-0.174533,-0.174533,-0.561948,-0.686913,-0.133485,-0.199689,-0.634045,-0.448741,-1.0262,0.628906
26,45,-0.567232,-0.698132,-0.174533,-0.174533,-0.561948,-0.686913,-0.133485,-0.199689,-0.634045,-0.448741,-1.0262,0.628906
26,45,-0.567232,-0.698132,-0.174533,-0.174533,-0.561948,-0.686913,-0.133485,-0.199689,-0.634045,-0.448741,-1.0262,0.628906
26,45,-0.567232,-0.698132,-0.174533,-0.174533,-0.561948,-0.686913,-0.133485,-0.199689,-0.634045,-0.448741,-1.0262,0.628906
26,45,-0.567232,-0.698132,-0.174533,-0.174533,-0.561948,-0.686913,-0.133485,-0.199689,-0.634045,-0.448741,-1.0262,0.628906
26,45,-0.567232,-0.698132,-0.174533,-0.174533,-0.561948,-0.686913,-0.133485,-0.199689,-0.634045,-0.448741,-1.0262,0.628906
26,45,-0.567232,-0.698132,-0.174533,-0.174533,-0.561948,-0.686913,-0.133485,-0.199689,-0.634045,-0.448741,-1.0262,0.628906
26,45,-0.567232,-0.698132,-0.174533,-0.174533,-0.561948,-0.686913,-0.133485,-0.199689,-0.634045,-0.448741,-1.0262,0.628906
26,45,-0.567232,-0.698132,-0.174533,-0.174533,-0.561948,-0.686913,-0.133485,-0.199689,-0.634045,-0.448741,-1.0262,0.628906
26,45,-0.567232,-0.698132,-0.174533,-0.174533,-0.561948,-0.686913,-0.133485,-0.199689,-0.634045,-0.448741,-1.0262,0.628906
26,45,-0.567232,-0.698132,-0.174533,-0.174533,-0.561948,-0.686913,-0.133485,-0.199689,-0.634045,-0.448741,-1.0262,0.628906
26,45,-0.567232,-0.698132,-0.174533,-0.174533,-0.561948,-0.686913,-0.133485,-0.199689,-0.634045,-0.448741,-1.0262,0.628906
26,45,-0.567232,-0.698132,-0.174533,-0.174533,-0.561948,-0.686913,-0.133485,-0.199689,-0.634045,-0.448741,-1.0262,0.628906
26,45,-0.567232,-0.698132,-0.174533,-0.174533,-0.561948,-0.686913,-0.133485,-0.199689,-0.634045,-0.448741,-1.0262,0.628906
26,45,-0.567232,-0.698132,-0.174533,-0.174533,-0.561948,-0.686913,-0.133485,-0.199689,-0.634045,-0.448741,-1.0262,0.628906
26,45,-0.567232,-0.698132,-0.174533,-0.174533,-0.561948,-0.686913,-0.133485,-0.199689,-0.634045,-0.448741,-1.0262,0.628906
26,45,-0.567232,-0.698132,-0.174533,-0.174533,-0.561948,-0.686913,-0.133485,-0.199689,-0.634045,-0.448741,-1.0262,0.628906
26,45,-0.567232,-0.698132,-0.174533,-0.174533,-0.561948,-0.686913,-0.133485,-0.199689,-0.634045,-0.448741,-1.0262,0.628906
26,45,-0.567232,-0.698132,-0.174533,-0.174533,-0.561948,-0.686913,-0.133485,-0.199689,-0.634045,-0.448741,-1.0262,0.628906
26,45,-0.567232,-0.698132,-0.174533,-0.174533,-0.561948,-0.686913,-0.133485,-0.199689,-0.634045,-0.448741,-1.0262,0.628906
26,45,-0.567232,-0.698132,-0.174533,-0.174533,-0.561948,-0.686913,-0.133485,-0.199689,-0.634045,-0.448741,-1.0262,0.628906
26,45,-0.567232,-0.698132,-0.174533,-0.174533,-0.561948,-0.686913,-0.133485,-0.199689,-0.634045,-0.448741,-1.0262,0.628906
26,45,-0.567232,-0.698132,-0.174533,-0.174533,-0.561948,-0.686913,-0.133485,-0.199689,-0.634045,-0.448741,-1.0262,0.628906
26,45,-0.567232,-0.698132,-0.174533,-0.174533,-0.561948,-0.686913,-0.133485,-0.199689,-0.634045,-0.448741,-1.0262,0.628906
26,45,-0.567232,-0.698132,-0.174533,-0.174533,-0.561948,-0.686913,-0.133485,-0.199689,-0.634045,-0.448741,-1.0262,0.628906
26,45,-0.567232,-0.698132,-0.174533,-0.174533,-0.561948,-0.686913,-0.133485,-0.199689,-0.634045,-0.448741,-1.0262,0.628906
26,45,-0.567232,-0.698132,-0.174533,-0.174533,-0.561948,-0.686913,-0.133485,-0.199689,-0.634045,-0.448741,-1.0262,0.628906
26,45,-0.567232,-0.698132,-0.174533,-0.174533,-0.561948,-0.686913,-0.133485,-0.199689,-0.634045,-0.448741,-1.0262,0.628906
26,45,-0.567232,-0.698132,-0.174533,-0.174533,-0.561948,-0.686913,-0.133485,-0.199689,-0.634045,-0.448741,-1.0262,0.628906
26,45,-0.567232,-0.698132,-0.174533,-0.174533,-0.561948,-0.686913,-0.133485,-0.199689,-0.634045,-0.448741,-1.0262,0.628906
26,45,-0.567232,-0.698132,-0.174533,-0.174533,-0.561948,-0.686913,-0.133485,-0.199689,-0.634045,-0.448741,-1.0262,0.628906
26,45,-0.567232,-0.698132,-0.174533,-0.174533,-0.561948,-0.686913,-0.133485,-0.199689,-0.634045,-0.448741,-1.0262,0.628906
26,45,-0.567232,-0.698132,-0.174533,-0.174533,-0.561948,-0.686862,-0.133485,-0.199689,-0.634045,-0.450774,-1.0262,0.628906
26,45,-0.567232,-0.698132,-0.174533,-0.174533,-0.561948,-0.686862,-0.133485,-0.199689,-0.634045,-0.450774,-1.0262,0.628906
26,45,-0.567232,-0.698132,-0.174533,-0.174533,-0.561948,-0.686862,-0.133485,-0.199689,-0.634045,-0.450774,-1.0262,0.628906
26,45,-0.567232,-0.698132,-0.174533,-0.174533,-0.561948,-0.686862,-0.133485,-0.199689,-0.634045,-0.450774,-1.0262,0.628906
26,45,-0.567232,-0.698132,-0.174533,-0.174533,-0.561948,-0.686862,-0.13355,-0.19973,-0.634045,-0.450774,-1.02458,0.629928
26,45,-0.567232,-0.698132,-0.174533,-0.174533,-0.561948,-0.686862,-0.13355,-0.19973,-0.634045,-0.450774,-1.02458,0.629928
26,45,-0.567232,-0.698132,-0.174533,-0.174533,-0.561948,-0.686862,-0.13355,-0.19973,-0.634045,-0.450774,-1.02458,0.629928
26,45,-0.567232,-0.698132,-0.174533,-0.174533,-0.561948,-0.686862,-0.13355,-0.19973,-0.634045,-0.450774,-1.02458,0.629928
26,45,-0.567232,-0.698132,-0.174533,-0.174533,-0.561948,-0.686862,-0.13355,-0.19973,-0.634045,-0.450774,-1.02458,0.629928
26,45,-0.567232,-0.698132,-0.174533,-0.174533,-0.561948,-0.686862,-0.13355,-0.19973,-0.634045,-0.450774,-1.02458,0.629928
26,45,-0.567232,-0.698132,-0.174533,-0.174533,-0.561948,-0.686862,-0.13355,-0.19973,-0.634045,-0.450774,-1.02458,0.629928
26,45,-0.567232,-0.698132,-0.174533,-0.174533,-0.561948,-0.686862,-0.13355,-0.19973,-0.634045,-0.450774,-1.02458,0.629928
26,45,-0.567232,-0.698132,-0.174533,-0.174533,-0.561948,-0.686862,-0.13355,-0.19973,-0.634045,-0.450774,-1.02458,0.629928
26,45,-0.567232,-0.698132,-0.174533,-0.174533,-0.561948,-0.686862,-0.13355,-0.19973,-0.634045,-0.450774,-1.02458,0.629928
26,45,-0.567232,-0.698132,-0.174533,-0.174533,-0.561948,-0.686862,-0.13355,-0.19973,-0.634045,-0.450774,-1.02458,0.629928
26,45,-0.567232,-0.698132,-0.174533,-0.174533,-0.561948,-0.686862,-0.13355,-0.19973,-0.634045,-0.450774,-1.02458,0.629928
26,45,-0.567232,-0.698132,-0.174533,-0.174533,-0.561948,-0.686862,-0.13355,-0.19973,-0.634045,-0.450774,-1.02458,0.629928
26,45,-0.567232,-0.698132,-0.174533,-0.174533,-0.561948,-0.686862,-0.13355,-0.19973,-0.634045,-0.450774,-1.02458,0.629928
26,45,-0.567232,-0.698132,-0.174533,-0.174533,-0.561948,-0.686862,-0.13355,-0.19973,-0.634045,-0.450774,-1.02458,0.629928
26,45,-0.567232,-0.698132,-0.174533,-0.174533,-0.561948,-0.686862,-0.13355,-0.19973,-0.634045,-0.450774,-1.02458,0.629928
26,45,-0.567232,-0.698132,-0.174533,-0.174533,-0.561948,-0.686862,-0.13355,-0.19973,-0.634045,-0.450774,-1.02458,0.629928
26,45,-0.567232,-0.698132,-0.174533,-0.174533,-0.561948,-0.686862,-0.13355,-0.19973,-0.634045,-0.450774,-1.02458,0.629928
26,45,-0.567232,-0.698132,-0.174533,-0.174533,-0.561948,-0.686862,-0.13355,-0.19973,-0.634045,-0.450774,-1.02458,0.629928
26,45,-0.567232,-0.698132,-0.174533,-0.174533,-0.561948,-0.686862,-0.13355,-0.19973,-0.634045,-0.450774,-1.02458,0.629928
26,45,-0.567232,-0.698132,-0.174533,-0.174533,-0.561948,-0.686862,-0.13355,-0.19973,-0.634045,-0.450774,-1.02458,0.629928
26,45,-0.567232,-0.698132,-0.174533,-0.174533,-0.561948,-0.686862,-0.13355,-0.19973,-0.634045,-0.450774,-1.02458,0.629928
26,45,-0.567232,-0.698132,-0.174533,-0.174533,-0.561948,-0.686862,-0.13355,-0.19973,-0.634045,-0.450774,-1.02458,0.629928
26,45,-0.567232,-0.698132,-0.174533,-0.174533,-0.561948,-0.686862,-0.13355,-0.19973,-0.634045,-0.450774,-1.02458,0.629928
26,45,-0.567232,-0.698132,-0.174533,-0.174533,-0.561948,-0.686862,-0.13355,-0.19973,-0.634045,-0.450774,-1.02458,0.629928
26,45,-0.567232,-0.698132,-0.174533,-0.174533,-0.561948,-0.686862,-0.13355,-0.19973,-0.634045,-0.450774,-1.02458,0.629928
26,45,-0.567232,-0.698132,-0.174533,-0.174533,-0.561948,-0.686862,-0.13355,-0.19973,-0.634045,-0.450774,-1.02458,0.629928
26,45,-0.567232,-0.698132,-0.174533,-0.174533,-0.561948,-0.686862,-0.13355,-0.19973,-0.634045,-0.450774,-1.02458,0.629928
26,45,-0.567232,-0.698132,-0.174533,-0.174533,-0.561948,-0.686862,-0.13355,-0.19973,-0.634045,-0.450774,-1.02458,0.629928
26,45,-0.567232,-0.698132,-0.174533,-0.174533,-0.561948,-0.686862,-0.13355,-0.19973,-0.634045,-0.450774,-1.02458,0.629928
26,45,-0.567232,-0.698132,-0.174533,-0.174533,-0.561948,-0.686862,-0.13355,-0.19973,-0.634045,-0.450774,-1.02458,0.629928
26,45,-0.567232,-0.698132,-0.174533,-0.174533,-0.561948,-0.686862,-0.13355,-0.19973,-0.634045,-0.450774,-1.02458,0.629928
26,45,-0.567232,-0.698132,-0.174533,-0.174533,-0.561948,-0.686862,-0.13355,-0.19973,-0.634045,-0.450774,-1.02458,0.629928
26,45,-0.567232,-0.698132,-0.174533,-0.174533,-0.561948,-0.686862,-0.13355,-0.19973,-0.634045,-0.450774,-1.02458,0.629928
26,45,-0.567232,-0.698132,-0.174533,-0.174533,-0.561948,-0.686862,-0.13355,-0.19973,-0.634045,-0.450774,-1.02458,0.629928
26,45,-0.567232,-0.698132,-0.174533,-0.174533,-0.561948,-0.686862,-0.13355,-0.19973,-0.634045,-0.450774,-1.02458,0.629928
26,45,-0.567232,-0.698132,-0.174533,-0.174533,-0.561948,-0.686862,-0.13355,-0.19973,-0.634045,-0.450774,-1.02458,0.629928
26,45,-0.567232,-0.698132,-0.174533,-0.174533,-0.561948,-0.686862,-0.13355,-0.19973,-0.634045,-0.450774,-1.02458,0.629928
26,45,-0.567232,-0.698132,-0.174533,-0.174533,-0.561948,-0.686862,-0.13355,-0.19973,-0.634045,-0.450774,-1.02458,0.629928
26,45,-0.567232,-0.698132,-0.174533,-0.174533,-0.561948,-0.686862,-0.13355,-0.19973,-0.634045,-0.450774,-1.02458,0.629928
26,45,-0.567232,-0.698132,-0.174533,-0.174533,-0.561948,-0.686862,-0.13355,-0.19973,-0.634045,-0.450774,-1.02458,0.629928
26,45,-0.567232,-0.698132,-0.174533,-0.174533,-0.561948,-0.686862,-0.13355,-0.19973,-0.634045,-0.450774,-1.02458,0.629928
26,45,-0.567232,-0.698132,-0.174533,-0.174533,-0.561948,-0.686862,-0.13355,-0.19973,-0.634045,-0.450774,-1.02458,0.629928
26,45,-0.567232,-0.698132,-0.174533,-0.174533,-0.561948,-0.686862,-0.13355,-0.19973,-0.634045,-0.450774,-1.02458,0.629928
26,45,-0.567232,-0.698132,-0.174533,-0.174533,-0.561948,-0.686862,-0.13355,-0.19973,-0.634045,-0.450774,-1.02458,0.629928
26,45,-0.567232,-0.698132,-0.174533,-0.174533,-0.561948,-0.686862,-0.13355,-0.19973,-0.634045,-0.450774,-1.02458,0.629928
26,45,-0.567232,-0.698132,-0.174533,-0.174533,-0.561948,-0.686862,-0.13355,-0.19973,-0.634045,-0.450774,-1.02458,0.629928
26,45,-0.567232,-0.698132,-0.174533,-0.174533,-0.561948,-0.686862,-0.13355,-0.19973,-0.634045,-0.450774,-1.02458,0.629928
26,45,-0.567232,-0.698132,-0.174533,-0.174533,-0.561948,-0.686862,-0.13355,-0.19973,-0.634045,-0.450774,-1.02458,0.629928
26,45,-0.567232,-0.698132,-0.174533,-0.174533,-0.561948,-0.686862,-0.13355,-0.19973,-0.634045,-0.450774,-1.02458,0.629928
26,45,-0.567232,-0.698132,-0.174533,-0.174533,-0.561948,-0.686862,-0.13355,-0.19973,-0.634045,-0.450774,-1.02458,0.629928
26,45,-0.567232,-0.698132,-0.174533,-0.174533,-0.561948,-0.686862,-0.13355,-0.19973,-0.634045,-0.450774,-1.02458,0.629928
26,45,-0.567232,-0.698132,-0.174533,-0.174533,-0.561948,-0.686862,-0.13355,-0.19973,-0.634045,-0.450774,-1.02458,0.629928
26,45,-0.567232,-0.698132,-0.174533,-0.174533,-0.561948,-0.686862,-0.13355,-0.19973,-0.634045,-0.450774,-1.02458,0.629928
26,45,-0.567232,-0.698132,-0.174533,-0.174533,-0.561948,-0.686862,-0.13355,-0.19973,-0.634045,-0.450774,-1.02458,0.629928
26,45,-0.567232,-0.698132,-0.174533,-0.174533,-0.561948,-0.686862,-0.13355,-0.19973,-0.634045,-0.450774,-1.02458,0.629928
26,45,-0.567232,-0.698132,-0.174533,-0.174533,-0.561948,-0.686862,-0.13355,-0.19973,-0.634045,-0.450774,-1.02458,0.629928
26,45,-0.567232,-0.698132,-0.174533,-0.174533,-0.561948,-0.686862,-0.13355,-0.19973,-0.634045,-0.450774,-1.02458,0.629928
26,45,-0.567232,-0.698132,-0.174533,-0.174533,-0.561948,-0.686862,-0.13355,-0.19973,-0.634045,-0.450774,-1.02458,0.629928
26,45,-0.567232,-0.698132,-0.174533,-0.174533,-0.561948,-0.686862,-0.13355,-0.19973,-0.634045,-0.450774,-1.02458,0.629928
26,45,-0.567232,-0.698132,-0.174533,-0.174533,-0.561948,-0.686862,-0.13355,-0.19973,-0.634045,-0.450774,-1.02458,0.629928
26,45,-0.567232,-0.698132,-0.174533,-0.174533,-0.561948,-0.686862,-0.13355,-0.19973,-0.634045,-0.450774,-1.02458,0.629928
26,45,-0.567232,-0.698132,-0.174533,-0.174533,-0.561948,-0.686862,-0.13355,-0.19973,-0.634045,-0.450774,-1.02458,0.629928
26,45,-0.567232,-0.698132,-0.174533,-0.174533,-0.561948,-0.686862,-0.13355,-0.19973,-0.634045,-0.450774,-1.02458,0.629928
26,45,-0.567232,-0.698132,-0.174533,-0.174533,-0.561948,-0.686862,-0.13355,-0.19973,-0.634045,-0.450774,-1.02458,0.629928
26,45,-0.567232,-0.698132,-0.174533,-0.174533,-0.561948,-0.686862,-0.13355,-0.19973,-0.634045,-0.450774,-1.02458,0.629928
26,45,-0.567232,-0.698132,-0.174533,-0.174533,-0.561948,-0.686862,-0.13355,-0.19973,-0.634045,-0.450774,-1.02458,0.629928
26,45,-0.567232,-0.698132,-0.174533,-0.174533,-0.561948,-0.686862,-0.13355,-0.19973,-0.634045,-0.450774,-1.02458,0.629928
26,45,-0.567232,-0.698132,-0.174533,-0.174533,-0.561948,-0.686862,-0.13355,-0.19973,-0.634045,-0.450774,-1.02458,0.629928
26,45,-0.567232,-0.698132,-0.174533,-0.174533,-0.561948,-0.686862,-0.13355,-0.19973,-0.634045,-0.450774,-1.02458,0.629928
26,45,-0.567232,-0.698132,-0.174533,-0.174533,-0.561948,-0.686862,-0.13355,-0.19973,-0.634045,-0.450774,-1.02458,0.629928
26,45,-0.567232,-0.698132,-0.174533,-0.174533,-0.561948,-0.686862,-0.13355,-0.19973,-0.634045,-0.450774,-1.02458,0.629928
26,45,-0.567232,-0.698132,-0.174533,-0.174533,-0.561948,-0.686862,-0.13355,-0.19973,-0.634045,-0.450774,-1.02458,0.629928
26,45,-0.567232,-0.698132,-0.174533,-0.174533,-0.561948,-0.686862,-0.13355,-0.19973,-0.634045,-0.450774,-1.02458,0.629928
26,45,-0.567232,-0.698132,-0.174533,-0.174533,-0.561948,-0.686862,-0.13355,-0.19973,-0.634045,-0.450774,-1.02458,0.629928
26,45,-0.567232,-0.698132,-0.174533,-0.174533,-0.561948,-0.686862,-0.13355,-0.19973,-0.634045,-0.450774,-1.02458,0.629928
26,45,-0.567232,-0.698132,-0.174533,-0.174533,-0.561948,-0.686862,-0.13355,-0.19973,-0.634045,-0.450774,-1.02458,0.629928
26,45,-0.567232,-0.698132,-0.174533,-0.174533,-0.561948,-0.686862,-0.13355,-0.19973,-0.634045,-0.450774,-1.02458,0.629928
26,45,-0.567232,-0.698132,-0.174533,-0.174533,-0.561948,-0.686862,-0.13355,-0.19973,-0.634045,-0.450774,-1.02458,0.629928
26,45,-0.567232,-0.698132,-0.174533,-0.174533,-0.561948,-0.686862,-0.133615,-0.199771,-0.634045,-0.450774,-1.02296,0.630949
26,45,-0.567232,-0.698132,-0.174533,-0.174533,-0.561948,-0.686862,-0.133615,-0.199771,-0.634045,-0.450774,-1.02296,0.630949
26,45,-0.567232,-0.698132,-0.174533,-0.174533,-0.561948,-0.686862,-0.133615,-0.199771,-0.634045,-0.450774,-1.02296,0.630949
26,45,-0.567232,-0.698132,-0.174533,-0.174533,-0.561948,-0.686862,-0.133615,-0.199771,-0.634045,-0.450774,-1.02296,0.630949
26,45,-0.567232,-0.698132,-0.174533,-0.174533,-0.561948,-0.686862,-0.133615,-0.199771,-0.634045,-0.450774,-1.02296,0.630949
26,45,-0.567232,-0.698132,-0.174533,-0.174533,-0.561948,-0.686862,-0.133615,-0.199771,-0.634045,-0.450774,-1.02296,0.630949
26,45,-0.567232,-0.698132,-0.174533,-0.174533,-0.561948,-0.686862,-0.133615,-0.199771,-0.634045,-0.450774,-1.02296,0.630949
26,45,-0.567232,-0.698132,-0.174533,-0.174533,-0.561948,-0.686862,-0.133615,-0.199771,-0.634045,-0.450774,-1.02296,0.630949
26,45,-0.567232,-0.698132,-0.174533,-0.174533,-0.561948,-0.686862,-0.133615,-0.199771,-0.634045,-0.450774,-1.02296,0.630949
26,45,-0.567232,-0.698132,-0.174533,-0.174533,-0.561948,-0.686862,-0.133615,-0.199771,-0.634045,-0.450774,-1.02296,0.630949
26,45,-0.567232,-0.698132,-0.174533,-0.174533,-0.561948,-0.686862,-0.133615,-0.199771,-0.634045,-0.450774,-1.02296,0.630949
26,45,-0.567232,-0.698132,-0.174533,-0.174533,-0.561948,-0.686862,-0.133615,-0.199771,-0.634045,-0.450774,-1.02296,0.630949
26,45,-0.567232,-0.698132,-0.174533,-0.174533,-0.561948,-0.686862,-0.133615,-0.199771,-0.634045,-0.450774,-1.02296,0.630949
26,45,-0.567232,-0.698132,-0.174533,-0.174533,-0.561948,-0.686862,-0.133615,-0.199771,-0.634045,-0.450774,-1.02296,0.630949
26,45,-0.567232,-0.698132,-0.174533,-0.174533,-0.561948,-0.686862,-0.133615,-0.199771,-0.634045,-0.450774,-1.02296,0.630949
26,45,-0.567232,-0.698132,-0.174533,-0.174533,-0.561948,-0.686862,-0.133679,-0.199812,-0.634045,-0.450774,-1.02134,0.631971
26,45,-0.567232,-0.698132,-0.174533,-0.174533,-0.561948,-0.686862,-0.133679,-0.199812,-0.634045,-0.450774,-1.02134,0.631971
26,45,-0.567232,-0.698132,-0.174533,-0.174533,-0.561948,-0.686862,-0.133679,-0.199812,-0.634045,-0.450774,-1.02134,0.631971
26,45,-0.567232,-0.698132,-0.174533,-0.174533,-0.561948,-0.686862,-0.133679,-0.199812,-0.634045,-0.450774,-1.02134,0.631971
26,45,-0.567232,-0.698132,-0.174533,-0.174533,-0.561948,-0.686862,-0.133679,-0.199812,-0.634045,-0.450774,-1.02134,0.631971
26,45,-0.567232,-0.698132,-0.174533,-0.174533,-0.561948,-0.686862,-0.133744,-0.199853,-0.634045,-0.450774,-1.01971,0.632993
26,45,-0.567232,-0.698132,-0.174533,-0.174533,-0.561948,-0.686862,-0.133744,-0.199853,-0.634045,-0.450774,-1.01971,0.632993
26,45,-0.567232,-0.698132,-0.174533,-0.174533,-0.561948,-0.686862,-0.133744,-0.199853,-0.634045,-0.450774,-1.01971,0.632993
26,45,-0.567232,-0.698132,-0.174533,-0.174533,-0.561948,-0.686862,-0.133744,-0.199853,-0.634045,-0.450774,-1.01971,0.632993
26,45,-0.567232,-0.698132,-0.174533,-0.174533,-0.561948,-0.686862,-0.133744,-0.199853,-0.634045,-0.450774,-1.01971,0.632993
26,45,-0.567232,-0.698132,-0.174533,-0.174533,-0.561948,-0.686862,-0.133744,-0.199853,-0.634045,-0.450774,-1.01971,0.632993
26,45,-0.567232,-0.698132,-0.174533,-0.174533,-0.561948,-0.686862,-0.133744,-0.199853,-0.634045,-0.450774,-1.01971,0.632993
26,45,-0.567232,-0.698132,-0.174533,-0.174533,-0.561948,-0.686862,-0.133809,-0.199894,-0.634045,-0.450774,-1.01809,0.634015
26,45,-0.567232,-0.698132,-0.174533,-0.174533,-0.561948,-0.686862,-0.133809,-0.199894,-0.634045,-0.450774,-1.01809,0.634015
26,45,-0.567232,-0.698132,-0.174533,-0.174533,-0.561948,-0.686862,-0.133809,-0.199894,-0.634045,-0.450774,-1.01809,0.634015
26,45,-0.567232,-0.698132,-0.174533,-0.174533,-0.561948,-0.686862,-0.133809,-0.199894,-0.634045,-0.450774,-1.01809,0.634015
26,45,-0.567232,-0.698132,-0.174533,-0.174533,-0.561948,-0.686862,-0.133809,-0.199894,-0.634045,-0.450774,-1.01809,0.634015
26,45,-0.567232,-0.698132,-0.174533,-0.174533,-0.561948,-0.686862,-0.133809,-0.199894,-0.634045,-0.450774,-1.01809,0.634015
26,45,-0.567232,-0.698132,-0.174533,-0.174533,-0.561948,-0.686862,-0.13387,-0.199874,-0.634045,-0.450774,-1.01656,0.633518
26,45,-0.567232,-0.698132,-0.174533,-0.174533,-0.561948,-0.686862,-0.133935,-0.199915,-0.634045,-0.450774,-1.01479,0.634637
26,45,-0.567232,-0.698132,-0.174533,-0.174533,-0.561948,-0.686862,-0.133935,-0.199915,-0.634045,-0.450774,-1.01479,0.634637
26,45,-0.567232,-0.698132,-0.174533,-0.174533,-0.561948,-0.686862,-0.133935,-0.199915,-0.634045,-0.450774,-1.01479,0.634637
26,45,-0.567232,-0.698132,-0.174533,-0.174533,-0.561948,-0.686862,-0.133996,-0.199895,-0.634045,-0.450774,-1.01326,0.63414
26,45,-0.567232,-0.698132,-0.174533,-0.174533,-0.561948,-0.686862,-0.133996,-0.199895,-0.634045,-0.450774,-1.01326,0.63414
26,45,-0.567232,-0.698132,-0.174533,-0.174533,-0.561948,-0.686862,-0.133996,-0.199895,-0.634045,-0.450774,-1.01326,0.63414
26,45,-0.567232,-0.698132,-0.174533,-0.174533,-0.561948,-0.686862,-0.133996,-0.199895,-0.634045,-0.450774,-1.01326,0.63414
26,45,-0.567232,-0.698132,-0.174533,-0.174533,-0.561948,-0.686862,-0.134061,-0.199936,-0.634045,-0.450774,-1.0116,0.635188
26,45,-0.567232,-0.698132,-0.174533,-0.174533,-0.561948,-0.686862,-0.134061,-0.199936,-0.634045,-0.450774,-1.0116,0.635188
26,45,-0.567232,-0.698132,-0.174533,-0.174533,-0.561948,-0.686862,-0.134121,-0.199857,-0.634045,-0.450774,-1.01011,0.633217
26,45,-0.567232,-0.698132,-0.174533,-0.174533,-0.561948,-0.686862,-0.134182,-0.199837,-0.634045,-0.450774,-1.00859,0.63272
26,45,-0.567232,-0.698132,-0.174533,-0.174533,-0.561948,-0.686862,-0.134182,-0.199837,-0.634045,-0.450774,-1.00859,0.63272
26,45,-0.567232,-0.698132,-0.174533,-0.174533,-0.561948,-0.686862,-0.134182,-0.199837,-0.634045,-0.450774,-1.00859,0.63272
26,45,-0.567232,-0.698132,-0.174533,-0.174533,-0.561948,-0.686862,-0.134182,-0.199837,-0.634045,-0.450774,-1.00859,0.63272
26,45,-0.567232,-0.698132,-0.174533,-0.174533,-0.561948,-0.686862,-0.134182,-0.199837,-0.634045,-0.450774,-1.00859,0.63272
26,45,-0.567232,-0.698132,-0.174533,-0.174533,-0.561948,-0.686862,-0.134182,-0.199837,-0.634045,-0.450774,-1.00859,0.63272
26,45,-0.567232,-0.698132,-0.174533,-0.174533,-0.561948,-0.686862,-0.134243,-0.199817,-0.634045,-0.450774,-1.00677,0.632128
26,45,-0.567232,-0.698132,-0.174533,-0.174533,-0.561948,-0.686862,-0.134243,-0.199817,-0.634045,-0.450774,-1.00677,0.632128
26,45,-0.567232,-0.698132,-0.174533,-0.174533,-0.561948,-0.686862,-0.134243,-0.199817,-0.634045,-0.450774,-1.00677,0.632128
26,45,-0.567232,-0.698132,-0.174533,-0.174533,-0.561948,-0.686862,-0.134304,-0.199797,-0.634045,-0.450774,-1.00524,0.63163
26,45,-0.567232,-0.698132,-0.174533,-0.174533,-0.561948,-0.686862,-0.134304,-0.199797,-0.634045,-0.450774,-1.00524,0.63163
26,45,-0.567232,-0.698132,-0.174533,-0.174533,-0.561948,-0.686862,-0.134302,-0.199738,-0.634045,-0.450774,-1.00528,0.630155
26,45,-0.567232,-0.698132,-0.174533,-0.174533,-0.561948,-0.686862,-0.134302,-0.199738,-0.634045,-0.450774,-1.00528,0.630155
26,45,-0.567232,-0.698132,-0.174533,-0.174533,-0.561948,-0.686862,-0.134302,-0.199738,-0.634045,-0.450774,-1.00528,0.630155
26,45,-0.567232,-0.698132,-0.174533,-0.174533,-0.561948,-0.686862,-0.134363,-0.199718,-0.634045,-0.450774,-1.00372,0.629649
26,45,-0.567232,-0.698132,-0.174533,-0.174533,-0.561948,-0.686862,-0.134363,-0.199718,-0.634045,-0.450774,-1.00372,0.629649
26,45,-0.567232,-0.698132,-0.174533,-0.174533,-0.561948,-0.686862,-0.134428,-0.199759,-0.634045,-0.450774,-1.00216,0.630632
26,45,-0.567232,-0.698132,-0.174533,-0.174533,-0.561948,-0.686862,-0.134489,-0.199739,-0.634045,-0.450774,-1.00068,0.630149
26,45,-0.567232,-0.698132,-0.174533,-0.174533,-0.561948,-0.686862,-0.134489,-0.199739,-0.634045,-0.450774,-1.00068,0.630149
26,45,-0.567232,-0.698132,-0.174533,-0.174533,-0.561948,-0.686862,-0.134489,-0.199739,-0.634045,-0.450774,-1.00068,0.630149
26,45,-0.567232,-0.698132,-0.174533,-0.174533,-0.561948,-0.686862,-0.134489,-0.199739,-0.634045,-0.450774,-1.00068,0.630149
26,45,-0.567232,-0.698132,-0.174533,-0.174533,-0.561948,-0.686862,-0.134489,-0.199739,-0.634045,-0.450774,-1.00068,0.630149
26,45,-0.567232,-0.698132,-0.174533,-0.174533,-0.561948,-0.686862,-0.134489,-0.199739,-0.634045,-0.450774,-1.00068,0.630149
26,45,-0.567232,-0.698132,-0.174533,-0.174533,-0.561948,-0.686862,-0.134489,-0.199739,-0.634045,-0.450774,-1.00068,0.630149
26,45,-0.567232,-0.698132,-0.174533,-0.174533,-0.561948,-0.686862,-0.13455,-0.199719,-0.634045,-0.450774,-0.99916,0.629655
26,45,-0.567232,-0.698132,-0.174533,-0.174533,-0.561948,-0.686862,-0.134549,-0.19966,-0.634045,-0.450774,-0.9992,0.628181
26,45,-0.567232,-0.698132,-0.174533,-0.174533,-0.561948,-0.686862,-0.134549,-0.19966,-0.634045,-0.450774,-0.9992,0.628181
26,45,-0.567232,-0.698132,-0.174533,-0.174533,-0.561948,-0.686862,-0.134549,-0.19966,-0.634045,-0.450774,-0.9992,0.628181
26,45,-0.567232,-0.698132,-0.174533,-0.174533,-0.561948,-0.686862,-0.134549,-0.19966,-0.634045,-0.450774,-0.9992,0.628181
26,45,-0.567232,-0.698132,-0.174533,-0.174533,-0.561948,-0.686862,-0.134549,-0.19966,-0.634045,-0.450774,-0.9992,0.628181
26,45,-0.567232,-0.698132,-0.174533,-0.174533,-0.561948,-0.686862,-0.13461,-0.199641,-0.634045,-0.450774,-0.997717,0.627698
26,45,-0.567232,-0.698132,-0.174533,-0.174533,-0.561948,-0.686862,-0.13461,-0.199641,-0.634045,-0.450774,-0.997717,0.627698
26,45,-0.567232,-0.698132,-0.174533,-0.174533,-0.561948,-0.686862,-0.13461,-0.199641,-0.634045,-0.450774,-0.997717,0.627698
26,45,-0.567232,-0.698132,-0.174533,-0.174533,-0.561948,-0.686862,-0.13461,-0.199641,-0.634045,-0.450774,-0.997717,0.627698
26,45,-0.567232,-0.698132,-0.174533,-0.174533,-0.561948,-0.686862,-0.13461,-0.199641,-0.634045,-0.450774,-0.997717,0.627698
26,45,-0.567232,-0.698132,-0.174533,-0.174533,-0.561948,-0.686862,-0.13461,-0.199641,-0.634045,-0.450774,-0.997717,0.627698
26,45,-0.567232,-0.698132,-0.174533,-0.174533,-0.561948,-0.686862,-0.13461,-0.199641,-0.634045,-0.450774,-0.997717,0.627698
26,45,-0.567232,-0.698132,-0.174533,-0.174533,-0.561948,-0.686862,-0.13461,-0.199641,-0.634045,-0.450774,-0.997717,0.627698
26,45,-0.567232,-0.698132,-0.174533,-0.174533,-0.561948,-0.686862,-0.13461,-0.199641,-0.634045,-0.450774,-0.997717,0.627698
26,45,-0.567232,-0.698132,-0.174533,-0.174533,-0.561948,-0.686862,-0.134671,-0.199621,-0.634045,-0.450774,-0.996226,0.627213
26,45,-0.567232,-0.698132,-0.174533,-0.174533,-0.561948,-0.686862,-0.134671,-0.199621,-0.634045,-0.450774,-0.996226,0.627213
26,45,-0.567232,-0.698132,-0.174533,-0.174533,-0.561948,-0.686862,-0.134671,-0.199621,-0.634045,-0.450774,-0.996226,0.627213
26,45,-0.567232,-0.698132,-0.174533,-0.174533,-0.561948,-0.686862,-0.134671,-0.199621,-0.634045,-0.450774,-0.996226,0.627213
26,45,-0.567232,-0.698132,-0.174533,-0.174533,-0.561948,-0.686862,-0.134671,-0.199621,-0.634045,-0.450774,-0.996226,0.627213
26,45,-0.567232,-0.698132,-0.174533,-0.174533,-0.561948,-0.686862,-0.134671,-0.199621,-0.634045,-0.450774,-0.996226,0.627213
26,45,-0.567232,-0.698132,-0.174533,-0.174533,-0.561948,-0.686862,-0.134671,-0.199621,-0.634045,-0.450774,-0.996226,0.627213
26,45,-0.567232,-0.698132,-0.174533,-0.174533,-0.561948,-0.686862,-0.134671,-0.199621,-0.634045,-0.450774,-0.996226,0.627213
26,45,-0.567232,-0.698132,-0.174533,-0.174533,-0.561948,-0.686862,-0.134671,-0.199621,-0.634045,-0.450774,-0.996226,0.627213
26,45,-0.567232,-0.698132,-0.174533,-0.174533,-0.561948,-0.686862,-0.134671,-0.199621,-0.634045,-0.450774,-0.996226,0.627213
26,45,-0.567232,-0.698132,-0.174533,-0.174533,-0.561948,-0.686862,-0.134671,-0.199621,-0.634045,-0.450774,-0.996226,0.627213
26,45,-0.567232,-0.698132,-0.174533,-0.174533,-0.561948,-0.686862,-0.134671,-0.199621,-0.634045,-0.450774,-0.996226,0.627213
26,45,-0.567232,-0.698132,-0.174533,-0.174533,-0.561948,-0.686862,-0.134671,-0.199621,-0.634045,-0.450774,-0.996226,0.627213
26,45,-0.567232,-0.698132,-0.174533,-0.174533,-0.561948,-0.686862,-0.134671,-0.199621,-0.634045,-0.450774,-0.996226,0.627213
26,45,-0.567232,-0.698132,-0.174533,-0.174533,-0.561948,-0.686862,-0.134736,-0.199662,-0.634045,-0.450774,-0.994657,0.628201
26,45,-0.567232,-0.698132,-0.174533,-0.174533,-0.561948,-0.686862,-0.134736,-0.199662,-0.634045,-0.450774,-0.994657,0.628201
26,45,-0.567232,-0.698132,-0.174533,-0.174533,-0.561948,-0.686862,-0.134736,-0.199662,-0.634045,-0.450774,-0.994657,0.628201
26,45,-0.567232,-0.698132,-0.174533,-0.174533,-0.561948,-0.686862,-0.134736,-0.199662,-0.634045,-0.450774,-0.994657,0.628201
26,45,-0.567232,-0.698132,-0.174533,-0.174533,-0.561948,-0.686862,-0.134736,-0.199662,-0.634045,-0.450774,-0.994657,0.628201
26,45,-0.567232,-0.698132,-0.174533,-0.174533,-0.561948,-0.686862,-0.134736,-0.199662,-0.634045,-0.450774,-0.994657,0.628201
26,45,-0.567232,-0.698132,-0.174533,-0.174533,-0.561948,-0.686862,-0.134734,-0.199603,-0.634045,-0.450774,-0.994697,0.626727
26,45,-0.567232,-0.698132,-0.174533,-0.174533,-0.561948,-0.686862,-0.134734,-0.199603,-0.634045,-0.450774,-0.994697,0.626727
26,45,-0.567232,-0.698132,-0.174533,-0.174533,-0.561948,-0.686862,-0.134734,-0.199603,-0.634045,-0.450774,-0.994697,0.626727
26,45,-0.567232,-0.698132,-0.174533,-0.174533,-0.561948,-0.686862,-0.134734,-0.199603,-0.634045,-0.450774,-0.994697,0.626727
26,45,-0.567232,-0.698132,-0.174533,-0.174533,-0.561948,-0.686862,-0.134734,-0.199603,-0.634045,-0.450774,-0.9947,0.626728
26,45,-0.567232,-0.698132,-0.174533,-0.174533,-0.561948,-0.686862,-0.134734,-0.199603,-0.634045,-0.450774,-0.994707,0.62673
26,45,-0.567232,-0.698132,-0.174533,-0.174533,-0.561948,-0.686862,-0.134734,-0.199603,-0.634045,-0.450774,-0.994714,0.626732
26,45,-0.567232,-0.698132,-0.174533,-0.174533,-0.561948,-0.686862,-0.134734,-0.199603,-0.634045,-0.450774,-0.994721,0.626735
26,45,-0.567232,-0.698132,-0.174533,-0.174533,-0.561948,-0.686862,-0.134734,-0.199603,-0.634045,-0.450774,-0.994727,0.626736
26,45,-0.567232,-0.698132,-0.174533,-0.174533,-0.561948,-0.686862,-0.134734,-0.199603,-0.634045,-0.450774,-0.994732,0.626738
26,45,-0.567232,-0.698132,-0.174533,-0.174533,-0.561948,-0.686862,-0.134734,-0.199603,-0.634045,-0.450774,-0.994738,0.62674
26,45,-0.567232,-0.698132,-0.174533,-0.174533,-0.561948,-0.686862,-0.134734,-0.199603,-0.634045,-0.450774,-0.994742,0.626742
26,45,-0.567232,-0.698132,-0.174533,-0.174533,-0.561948,-0.686862,-0.134734,-0.199603,-0.634045,-0.450774,-0.994747,0.626743
26,45,-0.567232,-0.698132,-0.174533,-0.174533,-0.561948,-0.686862,-0.134734,-0.199603,-0.634045,-0.450774,-0.994751,0.626744
26,45,-0.567232,-0.698132,-0.174533,-0.174533,-0.561948,-0.686862,-0.134734,-0.199603,-0.634045,-0.450774,-0.994755,0.626746
26,45,-0.567232,-0.698132,-0.174533,-0.174533,-0.561948,-0.686862,-0.134734,-0.199603,-0.634045,-0.450774,-0.994759,0.626747
26,45,-0.567232,-0.698132,-0.174533,-0.174533,-0.561948,-0.686862,-0.134734,-0.199603,-0.634045,-0.450774,-0.994763,0.626748
26,45,-0.567232,-0.698132,-0.174533,-0.174533,-0.561948,-0.686862,-0.134734,-0.199603,-0.634045,-0.450774,-0.994766,0.626749
26,45,-0.567232,-0.698132,-0.174533,-0.174533,-0.561948,-0.686862,-0.134734,-0.199603,-0.634045,-0.450774,-0.99477,0.62675
26,45,-0.567232,-0.698132,-0.174533,-0.174533,-0.561948,-0.686862,-0.134734,-0.199603,-0.634045,-0.450774,-0.994772,0.626751
26,45,-0.567232,-0.698132,-0.174533,-0.174533,-0.561948,-0.686862,-0.134734,-0.199603,-0.634045,-0.450774,-0.994775,0.626752
26,45,-0.567232,-0.698132,-0.174533,-0.174533,-0.561948,-0.686862,-0.134733,-0.199544,-0.634045,-0.450774,-0.99482,0.625221
26,45,-0.567232,-0.698132,-0.174533,-0.174533,-0.561948,-0.686862,-0.134733,-0.199544,-0.634045,-0.450774,-0.994823,0.625222
26,45,-0.567232,-0.698132,-0.174533,-0.174533,-0.561948,-0.686862,-0.134733,-0.199544,-0.634045,-0.450774,-0.994825,0.625222
26,45,-0.567232,-0.698132,-0.174533,-0.174533,-0.561948,-0.686862,-0.134733,-0.199544,-0.634045,-0.450774,-0.994828,0.625223
26,45,-0.567232,-0.698132,-0.174533,-0.174533,-0.561948,-0.686862,-0.134733,-0.199544,-0.634045,-0.450774,-0.99483,0.625224
26,45,-0.567232,-0.698132,-0.174533,-0.174533,-0.561948,-0.686862,-0.134733,-0.199544,-0.634045,-0.450774,-0.994832,0.625225
26,45,-0.567232,-0.698132,-0.174533,-0.174533,-0.561948,-0.686862,-0.134733,-0.199544,-0.634045,-0.450774,-0.994835,0.625225
26,45,-0.567232,-0.698132,-0.174533,-0.174533,-0.561948,-0.686862,-0.134733,-0.199544,-0.634045,-0.450774,-0.994837,0.625226
26,45,-0.567232,-0.698132,-0.174533,-0.174533,-0.561948,-0.686862,-0.134733,-0.199544,-0.634045,-0.450774,-0.994839,0.625227
26,45,-0.567232,-0.698132,-0.174533,-0.174533,-0.561948,-0.686862,-0.134733,-0.199544,-0.634045,-0.450774,-0.994841,0.625227
26,45,-0.567232,-0.698132,-0.174533,-0.174533,-0.561948,-0.686862,-0.134733,-0.199544,-0.634045,-0.450774,-0.994842,0.625228
26,45,-0.567232,-0.698132,-0.174533,-0.174533,-0.561948,-0.686862,-0.134733,-0.199544,-0.634045,-0.450774,-0.994844,0.625229
26,45,-0.567232,-0.698132,-0.174533,-0.174533,-0.561948,-0.686862,-0.134733,-0.199544,-0.634045,-0.450774,-0.994846,0.625229
26,45,-0.567232,-0.698132,-0.174533,-0.174533,-0.561948,-0.686862,-0.134733,-0.199544,-0.634045,-0.450774,-0.994847,0.62523
26,45,-0.567232,-0.698132,-0.174533,-0.174533,-0.561948,-0.686862,-0.134733,-0.199544,-0.634045,-0.450774,-0.994849,0.62523
26,45,-0.567232,-0.698132,-0.174533,-0.174533,-0.561948,-0.686862,-0.134733,-0.199544,-0.634045,-0.450774,-0.994851,0.625231
26,45,-0.567232,-0.698132,-0.174533,-0.174533,-0.561948,-0.686862,-0.134733,-0.199544,-0.634045,-0.450774,-0.994852,0.625231
26,45,-0.567232,-0.698132,-0.174533,-0.174533,-0.561948,-0.686862,-0.134733,-0.199544,-0.634045,-0.450774,-0.994853,0.625232
26,45,-0.567232,-0.698132,-0.174533,-0.174533,-0.561948,-0.686862,-0.134733,-0.199544,-0.634045,-0.450774,-0.994855,0.625232
26,45,-0.567232,-0.698132,-0.174533,-0.174533,-0.561948,-0.686862,-0.134731,-0.199485,-0.634045,-0.450774,-0.994895,0.623816
26,45,-0.567232,-0.698132,-0.174533,-0.174533,-0.561948,-0.686862,-0.134731,-0.199485,-0.634045,-0.450774,-0.994896,0.623816
26,45,-0.567232,-0.698132,-0.174533,-0.174533,-0.561948,-0.686862,-0.134731,-0.199485,-0.634045,-0.450774,-0.994897,0.623817
26,45,-0.567232,-0.698132,-0.174533,-0.174533,-0.561948,-0.686862,-0.134731,-0.199485,-0.634045,-0.450774,-0.994898,0.623817
26,45,-0.567232,-0.698132,-0.174533,-0.174533,-0.561948,-0.686862,-0.134731,-0.199485,-0.634045,-0.450774,-0.994899,0.623817
26,45,-0.567232,-0.698132,-0.174533,-0.174533,-0.561948,-0.686862,-0.134731,-0.199485,-0.634045,-0.450774,-0.994901,0.623818
26,45,-0.567232,-0.698132,-0.174533,-0.174533,-0.561948,-0.686862,-0.134731,-0.199485,-0.634045,-0.450774,-0.994902,0.623818
26,45,-0.567232,-0.698132,-0.174533,-0.174533,-0.561948,-0.686862,-0.134731,-0.199485,-0.634045,-0.450774,-0.994903,0.623819
26,45,-0.567232,-0.698132,-0.174533,-0.174533,-0.561948,-0.686862,-0.134731,-0.199485,-0.634045,-0.450774,-0.994904,0.623819
26,45,-0.567232,-0.698132,-0.174533,-0.174533,-0.561948,-0.686862,-0.134731,-0.199485,-0.634045,-0.450774,-0.994905,0.623819
26,45,-0.567232,-0.698132,-0.174533,-0.174533,-0.561948,-0.686862,-0.134731,-0.199485,-0.634045,-0.450774,-0.994906,0.62382
26,45,-0.567232,-0.698132,-0.174533,-0.174533,-0.561948,-0.686862,-0.134731,-0.199485,-0.634045,-0.450774,-0.994907,0.62382
26,45,-0.567232,-0.698132,-0.174533,-0.174533,-0.561948,-0.686862,-0.134731,-0.199485,-0.634045,-0.450774,-0.994908,0.62382
26,45,-0.567232,-0.698132,-0.174533,-0.174533,-0.561948,-0.686862,-0.134731,-0.199485,-0.634045,-0.450774,-0.994909,0.62382
26,45,-0.567232,-0.698132,-0.174533,-0.174533,-0.561948,-0.686862,-0.134731,-0.199485,-0.634045,-0.450774,-0.994909,0.623821
26,45,-0.567232,-0.698132,-0.174533,-0.174533,-0.561948,-0.686862,-0.134731,-0.199485,-0.634045,-0.450774,-0.99491,0.623821
26,45,-0.567232,-0.698132,-0.174533,-0.174533,-0.561948,-0.686862,-0.134731,-0.199485,-0.634045,-0.450774,-0.994911,0.623821
26,45,-0.567232,-0.698132,-0.174533,-0.174533,-0.561948,-0.686862,-0.134731,-0.199485,-0.634045,-0.450774,-0.994912,0.623822
26,45,-0.567232,-0.698132,-0.174533,-0.174533,-0.561948,-0.686862,-0.134731,-0.199485,-0.634045,-0.450774,-0.994913,0.623822
26,45,-0.567232,-0.698132,-0.174533,-0.174533,-0.561948,-0.686862,-0.134729,-0.199426,-0.634045,-0.450774,-0.994953,0.622347
26,45,-0.567232,-0.698132,-0.174533,-0.174533,-0.561948,-0.686862,-0.134729,-0.199426,-0.634045,-0.450774,-0.994954,0.622348
26,45,-0.567232,-0.698132,-0.174533,-0.174533,-0.561948,-0.686862,-0.134729,-0.199426,-0.634045,-0.450774,-0.994955,0.622348
26,45,-0.567232,-0.698132,-0.174533,-0.174533,-0.561948,-0.686862,-0.134729,-0.199426,-0.634045,-0.450774,-0.994956,0.622348
26,45,-0.567232,-0.698132,-0.174533,-0.174533,-0.561948,-0.686862,-0.134729,-0.199426,-0.634045,-0.450774,-0.994957,0.622348
26,45,-0.567232,-0.698132,-0.174533,-0.174533,-0.561948,-0.686862,-0.134729,-0.199426,-0.634045,-0.450774,-0.995016,0.622367
26,45,-0.567232,-0.698132,-0.174533,-0.174533,-0.561948,-0.686862,-0.134729,-0.199426,-0.634045,-0.450774,-0.995017,0.622366
26,45,-0.567232,-0.698132,-0.174533,-0.174533,-0.561948,-0.686862,-0.134729,-0.199426,-0.634045,-0.450774,-0.995018,0.622365
26,45,-0.567232,-0.698132,-0.174533,-0.174533,-0.561948,-0.686862,-0.134729,-0.199426,-0.634045,-0.450774,-0.995019,0.622365
26,45,-0.567232,-0.698132,-0.174533,-0.174533,-0.561948,-0.686862,-0.134729,-0.199426,-0.634045,-0.450774,-0.99502,0.622364
26,45,-0.567232,-0.698132,-0.174533,-0.174533,-0.561948,-0.686862,-0.134729,-0.199426,-0.634045,-0.450774,-0.995021,0.622363
26,45,-0.567232,-0.698132,-0.174533,-0.174533,-0.561948,-0.686862,-0.134729,-0.199426,-0.634045,-0.450774,-0.995021,0.622363
26,45,-0.567232,-0.698132,-0.174533,-0.174533,-0.561948,-0.686862,-0.134729,-0.199426,-0.634045,-0.450774,-0.995022,0.622362
26,45,-0.567232,-0.698132,-0.174533,-0.174533,-0.561948,-0.686862,-0.134729,-0.199426,-0.634045,-0.450774,-0.995023,0.622362
26,45,-0.567232,-0.698132,-0.174533,-0.174533,-0.561948,-0.686862,-0.134729,-0.199426,-0.634045,-0.450774,-0.995024,0.622361
26,45,-0.567232,-0.698132,-0.174533,-0.174533,-0.561948,-0.686862,-0.134729,-0.199426,-0.634045,-0.450774,-0.995025,0.622361
26,45,-0.567232,-0.698132,-0.174533,-0.174533,-0.561948,-0.686862,-0.134729,-0.199426,-0.634045,-0.450774,-0.995026,0.62236
26,45,-0.567232,-0.698132,-0.174533,-0.174533,-0.561948,-0.686862,-0.134729,-0.199426,-0.634045,-0.450774,-0.995026,0.62236
26,45,-0.567232,-0.698132,-0.174533,-0.174533,-0.561948,-0.686862,-0.134729,-0.199426,-0.634045,-0.450774,-0.995027,0.622359
26,45,-0.567232,-0.698132,-0.174533,-0.174533,-0.561948,-0.686862,-0.134729,-0.199426,-0.634045,-0.450774,-0.995089,0.62232
26,45,-0.567232,-0.698132,-0.174533,-0.174533,-0.561948,-0.686862,-0.134729,-0.199426,-0.634045,-0.450774,-0.995089,0.62232
26,45,-0.567232,-0.698132,-0.174533,-0.174533,-0.561948,-0.686862,-0.134729,-0.199426,-0.634045,-0.450774,-0.995089,0.62232
26,45,-0.567232,-0.698132,-0.174533,-0.174533,-0.561948,-0.686862,-0.134729,-0.199426,-0.634045,-0.450774,-0.995089,0.62232
26,45,-0.567232,-0.698132,-0.174533,-0.174533,-0.561948,-0.686862,-0.134729,-0.199426,-0.634045,-0.450774,-0.995089,0.62232
26,45,-0.567232,-0.698132,-0.174533,-0.174533,-0.561948,-0.686862,-0.134729,-0.199426,-0.634045,-0.450774,-0.995089,0.62232
26,45,-0.567232,-0.698132,-0.174533,-0.174533,-0.561948,-0.686862,-0.134729,-0.199426,-0.634045,-0.450774,-0.995089,0.62232
26,45,-0.567232,-0.698132,-0.174533,-0.174533,-0.561948,-0.686862,-0.134729,-0.199426,-0.634045,-0.450774,-0.995089,0.62232
26,45,-0.567232,-0.698132,-0.174533,-0.174533,-0.561948,-0.686862,-0.134729,-0.199426,-0.634045,-0.450774,-0.995089,0.62232
26,45,-0.567232,-0.698132,-0.174533,-0.174533,-0.561948,-0.686862,-0.134729,-0.199426,-0.634045,-0.450774,-0.995089,0.62232
26,45,-0.567232,-0.698132,-0.174533,-0.174533,-0.561948,-0.686862,-0.134729,-0.199426,-0.634045,-0.450774,-0.995089,0.62232
26,45,-0.567232,-0.698132,-0.174533,-0.174533,-0.561948,-0.686862,-0.134728,-0.199367,-0.634045,-0.450774,-0.995129,0.620846
26,45,-0.567232,-0.698132,-0.174533,-0.174533,-0.561948,-0.686862,-0.134728,-0.199367,-0.634045,-0.450774,-0.995129,0.620846
26,45,-0.567232,-0.698132,-0.174533,-0.174533,-0.561948,-0.686862,-0.134728,-0.199367,-0.634045,-0.450774,-0.995129,0.620846
26,45,-0.567232,-0.698132,-0.174533,-0.174533,-0.561948,-0.686862,-0.134728,-0.199367,-0.634045,-0.450774,-0.995129,0.620846
26,45,-0.567232,-0.698132,-0.174533,-0.174533,-0.561948,-0.686862,-0.134728,-0.199367,-0.634045,-0.450774,-0.995129,0.620846
26,45,-0.567232,-0.698132,-0.174533,-0.174533,-0.561948,-0.686862,-0.134728,-0.199367,-0.634045,-0.450774,-0.995129,0.620846
26,45,-0.567232,-0.698132,-0.174533,-0.174533,-0.561948,-0.686862,-0.134728,-0.199367,-0.634045,-0.450774,-0.995129,0.620846
26,45,-0.567232,-0.698132,-0.174533,-0.174533,-0.561948,-0.686862,-0.134728,-0.199367,-0.634045,-0.450774,-0.995129,0.620846
26,45,-0.567232,-0.698132,-0.174533,-0.174533,-0.561948,-0.686862,-0.134728,-0.199367,-0.634045,-0.450774,-0.995129,0.620846
26,45,-0.567232,-0.698132,-0.174533,-0.174533,-0.561948,-0.686862,-0.134728,-0.199367,-0.634045,-0.450774,-0.995129,0.620846
26,45,-0.567232,-0.698132,-0.174533,-0.174533,-0.561948,-0.686862,-0.134728,-0.199367,-0.634045,-0.450774,-0.995129,0.620846
26,45,-0.567232,-0.698132,-0.174533,-0.174533,-0.561948,-0.686862,-0.134728,-0.199367,-0.634045,-0.450774,-0.995129,0.620846
26,45,-0.567232,-0.698132,-0.174533,-0.174533,-0.561948,-0.686862,-0.134728,-0.199367,-0.634045,-0.450774,-0.995129,0.620846
26,45,-0.567232,-0.698132,-0.174533,-0.174533,-0.561948,-0.686862,-0.134728,-0.199367,-0.634045,-0.450774,-0.995129,0.620846
26,45,-0.567232,-0.698132,-0.174533,-0.174533,-0.561948,-0.686862,-0.134728,-0.199367,-0.634045,-0.450774,-0.995129,0.620846
26,45,-0.567232,-0.698132,-0.174533,-0.174533,-0.561948,-0.686862,-0.134728,-0.199367,-0.634045,-0.450774,-0.995129,0.620846
26,45,-0.567232,-0.698132,-0.174533,-0.174533,-0.561948,-0.686862,-0.134728,-0.199367,-0.634045,-0.450774,-0.995129,0.620846
26,45,-0.567232,-0.698132,-0.174533,-0.174533,-0.561948,-0.686862,-0.134728,-0.199367,-0.634045,-0.450774,-0.995129,0.620846
26,45,-0.567232,-0.698132,-0.174533,-0.174533,-0.561948,-0.686862,-0.134728,-0.199367,-0.634045,-0.450774,-0.995129,0.620846
26,45,-0.567232,-0.698132,-0.174533,-0.174533,-0.561948,-0.686862,-0.134728,-0.199367,-0.634045,-0.450774,-0.995129,0.620846
26,45,-0.567232,-0.698132,-0.174533,-0.174533,-0.561948,-0.686862,-0.134728,-0.199367,-0.634045,-0.450774,-0.995129,0.620846
26,45,-0.567232,-0.698132,-0.174533,-0.174533,-0.561948,-0.686862,-0.134728,-0.199367,-0.634045,-0.450774,-0.995129,0.620846
26,45,-0.567232,-0.698132,-0.174533,-0.174533,-0.561948,-0.686862,-0.134728,-0.199367,-0.634045,-0.450774,-0.995129,0.620846
26,45,-0.567232,-0.698132,-0.174533,-0.174533,-0.561948,-0.686862,-0.134728,-0.199367,-0.634045,-0.450774,-0.995129,0.620846
26,45,-0.567232,-0.698132,-0.174533,-0.174533,-0.561948,-0.686862,-0.134728,-0.199367,-0.634045,-0.450774,-0.995129,0.620846
26,45,-0.567232,-0.698132,-0.174533,-0.174533,-0.561948,-0.686862,-0.134728,-0.199367,-0.634045,-0.450774,-0.995129,0.620846
26,45,-0.567232,-0.698132,-0.174533,-0.174533,-0.561948,-0.686862,-0.134728,-0.199367,-0.634045,-0.450774,-0.995129,0.620846
26,45,-0.567232,-0.698132,-0.174533,-0.174533,-0.561948,-0.686862,-0.134728,-0.199367,-0.634045,-0.450774,-0.995129,0.620846
26,45,-0.567232,-0.698132,-0.174533,-0.174533,-0.561948,-0.686862,-0.134728,-0.199367,-0.634045,-0.450774,-0.995129,0.620846
26,45,-0.567232,-0.698132,-0.174533,-0.174533,-0.561948,-0.686862,-0.134728,-0.199367,-0.634045,-0.450774,-0.995129,0.620846
26,45,-0.567232,-0.698132,-0.174533,-0.174533,-0.561948,-0.686862,-0.134728,-0.199367,-0.634045,-0.450774,-0.995129,0.620846
26,45,-0.567232,-0.698132,-0.174533,-0.174533,-0.561948,-0.686862,-0.134728,-0.199367,-0.634045,-0.450774,-0.995129,0.620846
26,45,-0.567232,-0.698132,-0.174533,-0.174533,-0.561948,-0.686862,-0.134728,-0.199367,-0.634045,-0.450774,-0.995129,0.620846
26,45,-0.567232,-0.698132,-0.174533,-0.174533,-0.561948,-0.686862,-0.134728,-0.199367,-0.634045,-0.450774,-0.995129,0.620846
26,45,-0.567232,-0.698132,-0.174533,-0.174533,-0.561948,-0.686862,-0.134728,-0.199367,-0.634045,-0.450774,-0.995129,0.620846
26,45,-0.567232,-0.698132,-0.174533,-0.174533,-0.561948,-0.686862,-0.134728,-0.199367,-0.634045,-0.450774,-0.995129,0.620846
26,45,-0.567232,-0.698132,-0.174533,-0.174533,-0.561948,-0.686862,-0.134728,-0.199367,-0.634045,-0.450774,-0.995129,0.620846
26,45,-0.567232,-0.698132,-0.174533,-0.174533,-0.561948,-0.686862,-0.134728,-0.199367,-0.634045,-0.450774,-0.995129,0.620846
26,45,-0.567232,-0.698132,-0.174533,-0.174533,-0.561948,-0.686862,-0.134728,-0.199367,-0.634045,-0.450774,-0.995129,0.620846
26,45,-0.567232,-0.698132,-0.174533,-0.174533,-0.561948,-0.686862,-0.134728,-0.199367,-0.634045,-0.450774,-0.995129,0.620846
26,45,-0.567232,-0.698132,-0.174533,-0.174533,-0.561948,-0.686862,-0.134728,-0.199367,-0.634045,-0.450774,-0.995129,0.620846
26,45,-0.567232,-0.698132,-0.174533,-0.174533,-0.561948,-0.686862,-0.134728,-0.199367,-0.634045,-0.450774,-0.995129,0.620846
26,45,-0.567232,-0.698132,-0.174533,-0.174533,-0.561948,-0.686862,-0.134728,-0.199367,-0.634045,-0.450774,-0.995129,0.620846
26,45,-0.567232,-0.698132,-0.174533,-0.174533,-0.561948,-0.686862,-0.134728,-0.199367,-0.634045,-0.450774,-0.995129,0.620846
26,45,-0.567232,-0.698132,-0.174533,-0.174533,-0.561948,-0.686862,-0.134728,-0.199367,-0.634045,-0.450774,-0.995129,0.620846
26,45,-0.567232,-0.698132,-0.174533,-0.174533,-0.561948,-0.686862,-0.134728,-0.199367,-0.634045,-0.450774,-0.995129,0.620846
26,45,-0.567232,-0.698132,-0.174533,-0.174533,-0.561948,-0.686862,-0.134728,-0.199367,-0.634045,-0.450774,-0.995129,0.620846
26,45,-0.567232,-0.698132,-0.174533,-0.174533,-0.561948,-0.686862,-0.134728,-0.199367,-0.634045,-0.450774,-0.995129,0.620846
26,45,-0.567232,-0.698132,-0.174533,-0.174533,-0.561948,-0.686862,-0.134728,-0.199367,-0.634045,-0.450774,-0.995129,0.620846
26,45,-0.567232,-0.698132,-0.174533,-0.174533,-0.561948,-0.686862,-0.134728,-0.199367,-0.634045,-0.450774,-0.995129,0.620846
26,45,-0.567232,-0.698132,-0.174533,-0.174533,-0.561948,-0.686862,-0.134728,-0.199367,-0.634045,-0.450774,-0.995129,0.620846
26,45,-0.567232,-0.698132,-0.174533,-0.174533,-0.561948,-0.686862,-0.134728,-0.199367,-0.634045,-0.450774,-0.995129,0.620846
26,45,-0.567232,-0.698132,-0.174533,-0.174533,-0.561948,-0.686862,-0.134728,-0.199367,-0.634045,-0.450774,-0.995129,0.620846
26,45,-0.567232,-0.698132,-0.174533,-0.174533,-0.561948,-0.686862,-0.134728,-0.199367,-0.634045,-0.450774,-0.995129,0.620846
26,45,-0.567232,-0.698132,-0.174533,-0.174533,-0.561948,-0.686862,-0.134728,-0.199367,-0.634045,-0.450774,-0.995129,0.620846
26,45,-0.567232,-0.698132,-0.174533,-0.174533,-0.561948,-0.686862,-0.134728,-0.199367,-0.634045,-0.450774,-0.995129,0.620846
26,45,-0.567232,-0.698132,-0.174533,-0.174533,-0.561948,-0.686862,-0.134728,-0.199367,-0.634045,-0.450774,-0.995129,0.620846
26,45,-0.567232,-0.698132,-0.174533,-0.174533,-0.561948,-0.686862,-0.134728,-0.199367,-0.634045,-0.450774,-0.995129,0.620846
26,45,-0.567232,-0.698132,-0.174533,-0.174533,-0.561948,-0.686862,-0.134728,-0.199367,-0.634045,-0.450774,-0.995129,0.620846
26,45,-0.567232,-0.698132,-0.174533,-0.174533,-0.561948,-0.686862,-0.134728,-0.199367,-0.634045,-0.450774,-0.995129,0.620846
26,45,-0.567232,-0.698132,-0.174533,-0.174533,-0.561948,-0.686862,-0.134728,-0.199367,-0.634045,-0.450774,-0.995129,0.620846
26,45,-0.567232,-0.698132,-0.174533,-0.174533,-0.561948,-0.686862,-0.134728,-0.199367,-0.634045,-0.450774,-0.995129,0.620846
26,45,-0.567232,-0.698132,-0.174533,-0.174533,-0.561948,-0.686862,-0.134728,-0.199367,-0.634045,-0.450774,-0.995129,0.620846
26,45,-0.567232,-0.698132,-0.174533,-0.174533,-0.561948,-0.686812,-0.134728,-0.199367,-0.634045,-0.452808,-0.995129,0.620846
26,45,-0.567232,-0.698132,-0.174533,-0.174533,-0.561948,-0.686812,-0.134728,-0.199367,-0.634045,-0.452808,-0.995129,0.620846
26,45,-0.567232,-0.698132,-0.174533,-0.174533,-0.561948,-0.686812,-0.134728,-0.199367,-0.634045,-0.452808,-0.995129,0.620846
26,45,-0.567232,-0.698132,-0.174533,-0.174533,-0.561948,-0.686812,-0.134728,-0.199367,-0.634045,-0.452808,-0.995129,0.620846
26,45,-0.567232,-0.698132,-0.174533,-0.174533,-0.561948,-0.686812,-0.134728,-0.199367,-0.634045,-0.452808,-0.995129,0.620846
26,45,-0.567232,-0.698132,-0.174533,-0.174533,-0.561948,-0.686812,-0.134728,-0.199367,-0.634045,-0.452808,-0.995129,0.620846
26,45,-0.567232,-0.698132,-0.174533,-0.174533,-0.561948,-0.686812,-0.134728,-0.199367,-0.634045,-0.452808,-0.995129,0.620846
26,45,-0.567232,-0.698132,-0.174533,-0.174533,-0.561948,-0.686812,-0.134728,-0.199367,-0.634045,-0.452808,-0.995129,0.620846
26,45,-0.567232,-0.698132,-0.174533,-0.174533,-0.561948,-0.686812,-0.134728,-0.199367,-0.634045,-0.452808,-0.995129,0.620846
