stim_pw [us],stim_amp [mA],com_elbow_fe [rad],com_forearm_ps [rad],com_wrist_fe [rad],com_wrist_ru [rad],act_elbow_fe [rad],act_forearm_ps [rad],act_wrist_fe [rad],act_wrist_ru [rad],elbow_fe_trq [Nm],forearm_ps_trq [Nm],wrist_fe_trq [Nm],wrist_ru_trq [Nm]
26,65,-0.0872665,-0.698132,-0.174533,0.174533,-0.0796034,-0.690675,-0.156499,0.151623,-0.91957,-0.298251,-0.450851,0.572738
26,65,-0.0872665,-0.698132,-0.174533,0.174533,-0.0796034,-0.690675,-0.156499,0.151623,-0.91957,-0.298251,-0.450851,0.572738
26,65,-0.0872665,-0.698132,-0.174533,0.174533,-0.0796034,-0.690675,-0.156499,0.151623,-0.91957,-0.298251,-0.450851,0.572738
26,65,-0.0872665,-0.698132,-0.174533,0.174533,-0.0796034,-0.690675,-0.156499,0.151623,-0.91957,-0.298251,-0.450851,0.572738
26,65,-0.0872665,-0.698132,-0.174533,0.174533,-0.0796034,-0.690675,-0.156499,0.151623,-0.91957,-0.298251,-0.450851,0.572738
26,65,-0.0872665,-0.698132,-0.174533,0.174533,-0.0796034,-0.690675,-0.156499,0.151623,-0.91957,-0.298251,-0.450851,0.572738
26,65,-0.0872665,-0.698132,-0.174533,0.174533,-0.0796034,-0.690675,-0.156499,0.151623,-0.91957,-0.298251,-0.450851,0.572738
26,65,-0.0872665,-0.698132,-0.174533,0.174533,-0.0796034,-0.690675,-0.156499,0.151623,-0.91957,-0.298251,-0.450851,0.572738
26,65,-0.0872665,-0.698132,-0.174533,0.174533,-0.0796034,-0.690675,-0.156499,0.151623,-0.91957,-0.298251,-0.450851,0.572738
26,65,-0.0872665,-0.698132,-0.174533,0.174533,-0.0796034,-0.690675,-0.156499,0.151623,-0.91957,-0.298251,-0.450851,0.572738
26,65,-0.0872665,-0.698132,-0.174533,0.174533,-0.0796034,-0.690675,-0.156499,0.151623,-0.91957,-0.298251,-0.450851,0.572738
26,65,-0.0872665,-0.698132,-0.174533,0.174533,-0.0796034,-0.690675,-0.156499,0.151623,-0.91957,-0.298251,-0.450851,0.572738
26,65,-0.0872665,-0.698132,-0.174533,0.174533,-0.0796034,-0.690675,-0.156499,0.151623,-0.91957,-0.298251,-0.450851,0.572738
26,65,-0.0872665,-0.698132,-0.174533,0.174533,-0.0796034,-0.690675,-0.156499,0.151623,-0.91957,-0.298251,-0.450851,0.572738
26,65,-0.0872665,-0.698132,-0.174533,0.174533,-0.0796034,-0.690675,-0.156499,0.151623,-0.91957,-0.298251,-0.450851,0.572738
26,65,-0.0872665,-0.698132,-0.174533,0.174533,-0.0796034,-0.690675,-0.156499,0.151623,-0.91957,-0.298251,-0.450851,0.572738
26,65,-0.0872665,-0.698132,-0.174533,0.174533,-0.0796034,-0.690675,-0.156499,0.151623,-0.91957,-0.298251,-0.450851,0.572738
26,65,-0.0872665,-0.698132,-0.174533,0.174533,-0.0796034,-0.690675,-0.156499,0.151623,-0.91957,-0.298251,-0.450851,0.572738
26,65,-0.0872665,-0.698132,-0.174533,0.174533,-0.0796034,-0.690675,-0.156499,0.151623,-0.91957,-0.298251,-0.450851,0.572738
26,65,-0.0872665,-0.698132,-0.174533,0.174533,-0.0796034,-0.690675,-0.156499,0.151623,-0.91957,-0.298251,-0.450851,0.572738
26,65,-0.0872665,-0.698132,-0.174533,0.174533,-0.0796034,-0.690675,-0.156499,0.151623,-0.91957,-0.298251,-0.450851,0.572738
26,65,-0.0872665,-0.698132,-0.174533,0.174533,-0.0796034,-0.690675,-0.156499,0.151623,-0.91957,-0.298251,-0.450851,0.572738
26,65,-0.0872665,-0.698132,-0.174533,0.174533,-0.0796034,-0.690675,-0.156499,0.151623,-0.91957,-0.298251,-0.450851,0.572738
26,65,-0.0872665,-0.698132,-0.174533,0.174533,-0.0796034,-0.690675,-0.156499,0.151623,-0.91957,-0.298251,-0.450851,0.572738
26,65,-0.0872665,-0.698132,-0.174533,0.174533,-0.0796034,-0.690675,-0.156499,0.151623,-0.91957,-0.298251,-0.450851,0.572738
26,65,-0.0872665,-0.698132,-0.174533,0.174533,-0.0796034,-0.690675,-0.156499,0.151623,-0.91957,-0.298251,-0.450851,0.572738
26,65,-0.0872665,-0.698132,-0.174533,0.174533,-0.0796034,-0.690675,-0.156499,0.151623,-0.91957,-0.298251,-0.450851,0.572738
26,65,-0.0872665,-0.698132,-0.174533,0.174533,-0.0796034,-0.690675,-0.156499,0.151623,-0.91957,-0.298251,-0.450851,0.572738
26,65,-0.0872665,-0.698132,-0.174533,0.174533,-0.0796034,-0.690675,-0.156499,0.151623,-0.91957,-0.298251,-0.450851,0.572738
26,65,-0.0872665,-0.698132,-0.174533,0.174533,-0.0796034,-0.690675,-0.156499,0.151623,-0.91957,-0.298251,-0.450851,0.572738
26,65,-0.0872665,-0.698132,-0.174533,0.174533,-0.0796034,-0.690675,-0.156499,0.151623,-0.91957,-0.298251,-0.450851,0.572738
26,65,-0.0872665,-0.698132,-0.174533,0.174533,-0.0796034,-0.690675,-0.156499,0.151623,-0.91957,-0.298251,-0.450851,0.572738
26,65,-0.0872665,-0.698132,-0.174533,0.174533,-0.0796034,-0.690675,-0.156499,0.151623,-0.91957,-0.298251,-0.450851,0.572738
26,65,-0.0872665,-0.698132,-0.174533,0.174533,-0.0796034,-0.690675,-0.156499,0.151623,-0.91957,-0.298251,-0.450851,0.572738
26,65,-0.0872665,-0.698132,-0.174533,0.174533,-0.0796034,-0.690675,-0.156499,0.151623,-0.91957,-0.298251,-0.450851,0.572738
26,65,-0.0872665,-0.698132,-0.174533,0.174533,-0.0796034,-0.690675,-0.156499,0.151623,-0.91957,-0.298251,-0.450851,0.572738
26,65,-0.0872665,-0.698132,-0.174533,0.174533,-0.0796034,-0.690675,-0.156499,0.151623,-0.91957,-0.298251,-0.450851,0.572738
26,65,-0.0872665,-0.698132,-0.174533,0.174533,-0.0796034,-0.690675,-0.156499,0.151623,-0.91957,-0.298251,-0.450851,0.572738
26,65,-0.0872665,-0.698132,-0.174533,0.174533,-0.0796034,-0.690675,-0.156499,0.151623,-0.91957,-0.298251,-0.450851,0.572738
26,65,-0.0872665,-0.698132,-0.174533,0.174533,-0.0796034,-0.690675,-0.156499,0.151623,-0.91957,-0.298251,-0.450851,0.572738
26,65,-0.0872665,-0.698132,-0.174533,0.174533,-0.0796034,-0.690675,-0.156499,0.151623,-0.91957,-0.298251,-0.450851,0.572738
26,65,-0.0872665,-0.698132,-0.174533,0.174533,-0.0796034,-0.690675,-0.156499,0.151623,-0.91957,-0.298251,-0.450851,0.572738
26,65,-0.0872665,-0.698132,-0.174533,0.174533,-0.0796034,-0.690675,-0.156499,0.151623,-0.91957,-0.298251,-0.450851,0.572738
26,65,-0.0872665,-0.698132,-0.174533,0.174533,-0.0796034,-0.690675,-0.156499,0.151623,-0.91957,-0.298251,-0.450851,0.572738
26,65,-0.0872665,-0.698132,-0.174533,0.174533,-0.0796034,-0.690675,-0.156499,0.151623,-0.91957,-0.298251,-0.450851,0.572738
26,65,-0.0872665,-0.698132,-0.174533,0.174533,-0.0796034,-0.690675,-0.156499,0.151623,-0.91957,-0.298251,-0.450851,0.572738
26,65,-0.0872665,-0.698132,-0.174533,0.174533,-0.0796034,-0.690675,-0.156499,0.151623,-0.91957,-0.298251,-0.450851,0.572738
26,65,-0.0872665,-0.698132,-0.174533,0.174533,-0.0796034,-0.690675,-0.156499,0.151623,-0.91957,-0.298251,-0.450851,0.572738
26,65,-0.0872665,-0.698132,-0.174533,0.174533,-0.0796034,-0.690675,-0.156499,0.151623,-0.91957,-0.298251,-0.450851,0.572738
26,65,-0.0872665,-0.698132,-0.174533,0.174533,-0.0796034,-0.690675,-0.156499,0.151623,-0.91957,-0.298251,-0.450851,0.572738
26,65,-0.0872665,-0.698132,-0.174533,0.174533,-0.0796034,-0.690675,-0.156499,0.151623,-0.91957,-0.298251,-0.450851,0.572738
26,65,-0.0872665,-0.698132,-0.174533,0.174533,-0.0796034,-0.690675,-0.156499,0.151623,-0.91957,-0.298251,-0.450851,0.572738
26,65,-0.0872665,-0.698132,-0.174533,0.174533,-0.0796034,-0.690675,-0.156499,0.151623,-0.91957,-0.298251,-0.450851,0.572738
26,65,-0.0872665,-0.698132,-0.174533,0.174533,-0.0796034,-0.690675,-0.156499,0.151623,-0.91957,-0.298251,-0.450851,0.572738
26,65,-0.0872665,-0.698132,-0.174533,0.174533,-0.0796034,-0.690675,-0.156499,0.151623,-0.91957,-0.298251,-0.450851,0.572738
26,65,-0.0872665,-0.698132,-0.174533,0.174533,-0.0796034,-0.690675,-0.156499,0.151623,-0.91957,-0.298251,-0.450851,0.572738
26,65,-0.0872665,-0.698132,-0.174533,0.174533,-0.0796034,-0.690675,-0.156499,0.151623,-0.91957,-0.298251,-0.450851,0.572738
26,65,-0.0872665,-0.698132,-0.174533,0.174533,-0.0796034,-0.690675,-0.156499,0.151623,-0.91957,-0.298251,-0.450851,0.572738
26,65,-0.0872665,-0.698132,-0.174533,0.174533,-0.0796034,-0.690675,-0.156499,0.151623,-0.91957,-0.298251,-0.450851,0.572738
26,65,-0.0872665,-0.698132,-0.174533,0.174533,-0.0796034,-0.690675,-0.156499,0.151623,-0.91957,-0.298251,-0.450851,0.572738
26,65,-0.0872665,-0.698132,-0.174533,0.174533,-0.0796034,-0.690675,-0.156499,0.151623,-0.91957,-0.298251,-0.450851,0.572738
26,65,-0.0872665,-0.698132,-0.174533,0.174533,-0.0796034,-0.690675,-0.156499,0.151623,-0.91957,-0.298251,-0.450851,0.572738
26,65,-0.0872665,-0.698132,-0.174533,0.174533,-0.0796034,-0.690675,-0.156499,0.151623,-0.91957,-0.298251,-0.450851,0.572738
26,65,-0.0872665,-0.698132,-0.174533,0.174533,-0.0796034,-0.690675,-0.156499,0.151623,-0.91957,-0.298251,-0.450851,0.572738
26,65,-0.0872665,-0.698132,-0.174533,0.174533,-0.0796034,-0.690675,-0.156499,0.151623,-0.91957,-0.298251,-0.450851,0.572738
26,65,-0.0872665,-0.698132,-0.174533,0.174533,-0.0796034,-0.690675,-0.156499,0.151623,-0.91957,-0.298251,-0.450851,0.572738
26,65,-0.0872665,-0.698132,-0.174533,0.174533,-0.0796034,-0.690675,-0.156499,0.151623,-0.91957,-0.298251,-0.450851,0.572738
26,65,-0.0872665,-0.698132,-0.174533,0.174533,-0.0796034,-0.690675,-0.156499,0.151623,-0.91957,-0.298251,-0.450851,0.572738
26,65,-0.0872665,-0.698132,-0.174533,0.174533,-0.0796034,-0.690675,-0.156499,0.151623,-0.91957,-0.298251,-0.450851,0.572738
26,65,-0.0872665,-0.698132,-0.174533,0.174533,-0.0796034,-0.690675,-0.156499,0.151623,-0.91957,-0.298251,-0.450851,0.572738
26,65,-0.0872665,-0.698132,-0.174533,0.174533,-0.0796034,-0.690675,-0.156499,0.151623,-0.91957,-0.298251,-0.450851,0.572738
26,65,-0.0872665,-0.698132,-0.174533,0.174533,-0.0796034,-0.690675,-0.156447,0.151597,-0.91957,-0.298251,-0.452159,0.573403
26,65,-0.0872665,-0.698132,-0.174533,0.174533,-0.0796034,-0.690675,-0.156447,0.151597,-0.91957,-0.298251,-0.452159,0.573403
26,65,-0.0872665,-0.698132,-0.174533,0.174533,-0.0796034,-0.690675,-0.156447,0.151597,-0.91957,-0.298251,-0.452159,0.573403
26,65,-0.0872665,-0.698132,-0.174533,0.174533,-0.0796034,-0.690675,-0.156447,0.151597,-0.91957,-0.298251,-0.452159,0.573403
26,65,-0.0872665,-0.698132,-0.174533,0.174533,-0.0796034,-0.690675,-0.156447,0.151597,-0.91957,-0.298251,-0.452159,0.573403
26,65,-0.0872665,-0.698132,-0.174533,0.174533,-0.0796034,-0.690675,-0.156447,0.151597,-0.91957,-0.298251,-0.452159,0.573403
26,65,-0.0872665,-0.698132,-0.174533,0.174533,-0.0796034,-0.690675,-0.156447,0.151597,-0.91957,-0.298251,-0.452159,0.573403
26,65,-0.0872665,-0.698132,-0.174533,0.174533,-0.0796034,-0.690675,-0.156447,0.151597,-0.91957,-0.298251,-0.452159,0.573403
26,65,-0.0872665,-0.698132,-0.174533,0.174533,-0.0796034,-0.690675,-0.156447,0.151597,-0.91957,-0.298251,-0.452159,0.573403
26,65,-0.0872665,-0.698132,-0.174533,0.174533,-0.0796034,-0.690675,-0.156447,0.151597,-0.91957,-0.298251,-0.452159,0.573403
26,65,-0.0872665,-0.698132,-0.174533,0.174533,-0.0796034,-0.690675,-0.156447,0.151597,-0.91957,-0.298251,-0.452159,0.573403
26,65,-0.0872665,-0.698132,-0.174533,0.174533,-0.0796034,-0.690675,-0.156447,0.151597,-0.91957,-0.298251,-0.452159,0.573403
26,65,-0.0872665,-0.698132,-0.174533,0.174533,-0.0796034,-0.690675,-0.156447,0.151597,-0.91957,-0.298251,-0.452159,0.573403
26,65,-0.0872665,-0.698132,-0.174533,0.174533,-0.0796034,-0.690675,-0.156447,0.151597,-0.91957,-0.298251,-0.452159,0.573403
26,65,-0.0872665,-0.698132,-0.174533,0.174533,-0.0796034,-0.690675,-0.156447,0.151597,-0.91957,-0.298251,-0.452159,0.573403
26,65,-0.0872665,-0.698132,-0.174533,0.174533,-0.0796034,-0.690675,-0.156447,0.151597,-0.91957,-0.298251,-0.452159,0.573403
26,65,-0.0872665,-0.698132,-0.174533,0.174533,-0.0796034,-0.690675,-0.156447,0.151597,-0.91957,-0.298251,-0.452159,0.573403
26,65,-0.0872665,-0.698132,-0.174533,0.174533,-0.0796034,-0.690675,-0.156447,0.151597,-0.91957,-0.298251,-0.452159,0.573403
26,65,-0.0872665,-0.698132,-0.174533,0.174533,-0.0796034,-0.690675,-0.156447,0.151597,-0.91957,-0.298251,-0.452159,0.573403
26,65,-0.0872665,-0.698132,-0.174533,0.174533,-0.0796034,-0.690675,-0.156447,0.151597,-0.91957,-0.298251,-0.452159,0.573403
26,65,-0.0872665,-0.698132,-0.174533,0.174533,-0.0796034,-0.690675,-0.156447,0.151597,-0.91957,-0.298251,-0.452159,0.573403
26,65,-0.0872665,-0.698132,-0.174533,0.174533,-0.0796034,-0.690675,-0.156447,0.151597,-0.91957,-0.298251,-0.452159,0.573403
26,65,-0.0872665,-0.698132,-0.174533,0.174533,-0.0796034,-0.690675,-0.156447,0.151597,-0.91957,-0.298251,-0.452159,0.573403
26,65,-0.0872665,-0.698132,-0.174533,0.174533,-0.0796034,-0.690675,-0.156447,0.151597,-0.91957,-0.298251,-0.452159,0.573403
26,65,-0.0872665,-0.698132,-0.174533,0.174533,-0.0796034,-0.690675,-0.156447,0.151597,-0.91957,-0.298251,-0.452159,0.573403
26,65,-0.0872665,-0.698132,-0.174533,0.174533,-0.0796034,-0.690675,-0.156447,0.151597,-0.91957,-0.298251,-0.452159,0.573403
26,65,-0.0872665,-0.698132,-0.174533,0.174533,-0.0796034,-0.690675,-0.156447,0.151597,-0.91957,-0.298251,-0.452159,0.573403
26,65,-0.0872665,-0.698132,-0.174533,0.174533,-0.0796034,-0.690675,-0.156447,0.151597,-0.91957,-0.298251,-0.452159,0.573403
26,65,-0.0872665,-0.698132,-0.174533,0.174533,-0.0796034,-0.690675,-0.156447,0.151597,-0.91957,-0.298251,-0.452159,0.573403
26,65,-0.0872665,-0.698132,-0.174533,0.174533,-0.0796034,-0.690675,-0.156447,0.151597,-0.91957,-0.298251,-0.452159,0.573403
26,65,-0.0872665,-0.698132,-0.174533,0.174533,-0.0796034,-0.690675,-0.156447,0.151597,-0.91957,-0.298251,-0.452159,0.573403
26,65,-0.0872665,-0.698132,-0.174533,0.174533,-0.0796034,-0.690675,-0.156447,0.151597,-0.91957,-0.298251,-0.452159,0.573403
26,65,-0.0872665,-0.698132,-0.174533,0.174533,-0.0796034,-0.690675,-0.156447,0.151597,-0.91957,-0.298251,-0.452159,0.573403
26,65,-0.0872665,-0.698132,-0.174533,0.174533,-0.0796034,-0.690675,-0.156447,0.151597,-0.91957,-0.298251,-0.452159,0.573403
26,65,-0.0872665,-0.698132,-0.174533,0.174533,-0.0796034,-0.690675,-0.156447,0.151597,-0.91957,-0.298251,-0.452159,0.573403
26,65,-0.0872665,-0.698132,-0.174533,0.174533,-0.0796034,-0.690675,-0.156447,0.151597,-0.91957,-0.298251,-0.452159,0.573403
26,65,-0.0872665,-0.698132,-0.174533,0.174533,-0.0796034,-0.690675,-0.156447,0.151597,-0.91957,-0.298251,-0.452159,0.573403
26,65,-0.0872665,-0.698132,-0.174533,0.174533,-0.0796034,-0.690675,-0.156447,0.151597,-0.91957,-0.298251,-0.452159,0.573403
26,65,-0.0872665,-0.698132,-0.174533,0.174533,-0.0796034,-0.690675,-0.156447,0.151597,-0.91957,-0.298251,-0.452159,0.573403
26,65,-0.0872665,-0.698132,-0.174533,0.174533,-0.0796034,-0.690675,-0.156447,0.151597,-0.91957,-0.298251,-0.452159,0.573403
26,65,-0.0872665,-0.698132,-0.174533,0.174533,-0.0796034,-0.690675,-0.156447,0.151597,-0.91957,-0.298251,-0.452159,0.573403
26,65,-0.0872665,-0.698132,-0.174533,0.174533,-0.0796034,-0.690675,-0.156447,0.151597,-0.91957,-0.298251,-0.452159,0.573403
26,65,-0.0872665,-0.698132,-0.174533,0.174533,-0.0796034,-0.690675,-0.156447,0.151597,-0.91957,-0.298251,-0.452159,0.573403
26,65,-0.0872665,-0.698132,-0.174533,0.174533,-0.0796034,-0.690675,-0.156447,0.151597,-0.91957,-0.298251,-0.452159,0.573403
26,65,-0.0872665,-0.698132,-0.174533,0.174533,-0.0796034,-0.690675,-0.156447,0.151597,-0.91957,-0.298251,-0.452159,0.573403
26,65,-0.0872665,-0.698132,-0.174533,0.174533,-0.0796034,-0.690675,-0.156447,0.151597,-0.91957,-0.298251,-0.452159,0.573403
26,65,-0.0872665,-0.698132,-0.174533,0.174533,-0.0796034,-0.690675,-0.156447,0.151597,-0.91957,-0.298251,-0.452159,0.573403
26,65,-0.0872665,-0.698132,-0.174533,0.174533,-0.0796034,-0.690675,-0.156447,0.151597,-0.91957,-0.298251,-0.452159,0.573403
26,65,-0.0872665,-0.698132,-0.174533,0.174533,-0.0796034,-0.690675,-0.156447,0.151597,-0.91957,-0.298251,-0.452159,0.573403
26,65,-0.0872665,-0.698132,-0.174533,0.174533,-0.0796034,-0.690675,-0.156447,0.151597,-0.91957,-0.298251,-0.452159,0.573403
26,65,-0.0872665,-0.698132,-0.174533,0.174533,-0.0796034,-0.690675,-0.156447,0.151597,-0.91957,-0.298251,-0.452159,0.573403
26,65,-0.0872665,-0.698132,-0.174533,0.174533,-0.0796034,-0.690675,-0.156447,0.151597,-0.91957,-0.298251,-0.452159,0.573403
26,65,-0.0872665,-0.698132,-0.174533,0.174533,-0.0796034,-0.690675,-0.156447,0.151597,-0.91957,-0.298251,-0.452159,0.573403
26,65,-0.0872665,-0.698132,-0.174533,0.174533,-0.0796034,-0.690675,-0.156447,0.151597,-0.91957,-0.298251,-0.452159,0.573403
26,65,-0.0872665,-0.698132,-0.174533,0.174533,-0.0796034,-0.690675,-0.156447,0.151597,-0.91957,-0.298251,-0.452159,0.573403
26,65,-0.0872665,-0.698132,-0.174533,0.174533,-0.0796034,-0.690675,-0.156447,0.151597,-0.91957,-0.298251,-0.452159,0.573403
26,65,-0.0872665,-0.698132,-0.174533,0.174533,-0.0796034,-0.690675,-0.156447,0.151597,-0.91957,-0.298251,-0.452159,0.573403
26,65,-0.0872665,-0.698132,-0.174533,0.174533,-0.0796034,-0.690675,-0.156447,0.151597,-0.91957,-0.298251,-0.452159,0.573403
26,65,-0.0872665,-0.698132,-0.174533,0.174533,-0.0796034,-0.690675,-0.156447,0.151597,-0.91957,-0.298251,-0.452159,0.573403
26,65,-0.0872665,-0.698132,-0.174533,0.174533,-0.0796034,-0.690675,-0.156447,0.151597,-0.91957,-0.298251,-0.452159,0.573403
26,65,-0.0872665,-0.698132,-0.174533,0.174533,-0.0796034,-0.690675,-0.156447,0.151597,-0.91957,-0.298251,-0.452159,0.573403
26,65,-0.0872665,-0.698132,-0.174533,0.174533,-0.0796034,-0.690675,-0.156447,0.151597,-0.91957,-0.298251,-0.452159,0.573403
26,65,-0.0872665,-0.698132,-0.174533,0.174533,-0.0796034,-0.690675,-0.156447,0.151597,-0.91957,-0.298251,-0.452159,0.573403
26,65,-0.0872665,-0.698132,-0.174533,0.174533,-0.0796034,-0.690675,-0.156447,0.151597,-0.91957,-0.298251,-0.452159,0.573403
26,65,-0.0872665,-0.698132,-0.174533,0.174533,-0.0796034,-0.690675,-0.156447,0.151597,-0.91957,-0.298251,-0.452159,0.573403
26,65,-0.0872665,-0.698132,-0.174533,0.174533,-0.0796034,-0.690675,-0.156447,0.151597,-0.91957,-0.298251,-0.452159,0.573403
26,65,-0.0872665,-0.698132,-0.174533,0.174533,-0.0796034,-0.690675,-0.156447,0.151597,-0.91957,-0.298251,-0.452159,0.573403
26,65,-0.0872665,-0.698132,-0.174533,0.174533,-0.0796034,-0.690675,-0.156447,0.151597,-0.91957,-0.298251,-0.452159,0.573403
26,65,-0.0872665,-0.698132,-0.174533,0.174533,-0.0796034,-0.690675,-0.156447,0.151597,-0.91957,-0.298251,-0.452159,0.573403
26,65,-0.0872665,-0.698132,-0.174533,0.174533,-0.0796034,-0.690675,-0.156447,0.151597,-0.91957,-0.298251,-0.452159,0.573403
26,65,-0.0872665,-0.698132,-0.174533,0.174533,-0.0796034,-0.690675,-0.156447,0.151597,-0.91957,-0.298251,-0.452159,0.573403
26,65,-0.0872665,-0.698132,-0.174533,0.174533,-0.0796034,-0.690675,-0.156447,0.151597,-0.91957,-0.298251,-0.452159,0.573403
26,65,-0.0872665,-0.698132,-0.174533,0.174533,-0.0796034,-0.690675,-0.156447,0.151597,-0.91957,-0.298251,-0.452159,0.573403
26,65,-0.0872665,-0.698132,-0.174533,0.174533,-0.0796034,-0.690675,-0.156447,0.151597,-0.91957,-0.298251,-0.452159,0.573403
26,65,-0.0872665,-0.698132,-0.174533,0.174533,-0.0796034,-0.690675,-0.156447,0.151597,-0.91957,-0.298251,-0.452159,0.573403
26,65,-0.0872665,-0.698132,-0.174533,0.174533,-0.0796034,-0.690675,-0.156447,0.151597,-0.91957,-0.298251,-0.452159,0.573403
26,65,-0.0872665,-0.698132,-0.174533,0.174533,-0.0796034,-0.690675,-0.156447,0.151597,-0.91957,-0.298251,-0.452159,0.573403
26,65,-0.0872665,-0.698132,-0.174533,0.174533,-0.0796034,-0.690675,-0.156447,0.151597,-0.91957,-0.298251,-0.452159,0.573403
26,65,-0.0872665,-0.698132,-0.174533,0.174533,-0.0796034,-0.690675,-0.156447,0.151597,-0.91957,-0.298251,-0.452159,0.573403
26,65,-0.0872665,-0.698132,-0.174533,0.174533,-0.0796034,-0.690675,-0.156447,0.151597,-0.91957,-0.298251,-0.452159,0.573403
26,65,-0.0872665,-0.698132,-0.174533,0.174533,-0.0796034,-0.690675,-0.156447,0.151597,-0.91957,-0.298251,-0.452159,0.573403
26,65,-0.0872665,-0.698132,-0.174533,0.174533,-0.0796034,-0.690675,-0.156447,0.151597,-0.91957,-0.298251,-0.452159,0.573403
26,65,-0.0872665,-0.698132,-0.174533,0.174533,-0.0796034,-0.690675,-0.156447,0.151597,-0.91957,-0.298251,-0.452159,0.573403
26,65,-0.0872665,-0.698132,-0.174533,0.174533,-0.0796034,-0.690675,-0.156447,0.151597,-0.91957,-0.298251,-0.452159,0.573403
26,65,-0.0872665,-0.698132,-0.174533,0.174533,-0.0796034,-0.690675,-0.156447,0.151597,-0.91957,-0.298251,-0.452159,0.573403
26,65,-0.0872665,-0.698132,-0.174533,0.174533,-0.0796034,-0.690675,-0.156447,0.151597,-0.91957,-0.298251,-0.452159,0.573403
26,65,-0.0872665,-0.698132,-0.174533,0.174533,-0.0796034,-0.690675,-0.156447,0.151597,-0.91957,-0.298251,-0.452159,0.573403
26,65,-0.0872665,-0.698132,-0.174533,0.174533,-0.0796034,-0.690675,-0.156447,0.151597,-0.91957,-0.298251,-0.452159,0.573403
26,65,-0.0872665,-0.698132,-0.174533,0.174533,-0.0796034,-0.690675,-0.156447,0.151597,-0.91957,-0.298251,-0.452159,0.573403
26,65,-0.0872665,-0.698132,-0.174533,0.174533,-0.0796034,-0.690675,-0.156447,0.151597,-0.91957,-0.298251,-0.452159,0.573403
26,65,-0.0872665,-0.698132,-0.174533,0.174533,-0.0796034,-0.690675,-0.156496,0.151553,-0.91957,-0.298251,-0.450919,0.57449
26,65,-0.0872665,-0.698132,-0.174533,0.174533,-0.0796034,-0.690675,-0.156496,0.151553,-0.91957,-0.298251,-0.450919,0.57449
26,65,-0.0872665,-0.698132,-0.174533,0.174533,-0.0796034,-0.690675,-0.156496,0.151553,-0.91957,-0.298251,-0.450919,0.57449
26,65,-0.0872665,-0.698132,-0.174533,0.174533,-0.0796034,-0.690675,-0.156496,0.151553,-0.91957,-0.298251,-0.450919,0.57449
26,65,-0.0872665,-0.698132,-0.174533,0.174533,-0.0796034,-0.690675,-0.156496,0.151553,-0.91957,-0.298251,-0.450919,0.57449
26,65,-0.0872665,-0.698132,-0.174533,0.174533,-0.0796034,-0.690675,-0.156496,0.151553,-0.91957,-0.298251,-0.450919,0.57449
26,65,-0.0872665,-0.698132,-0.174533,0.174533,-0.0796034,-0.690675,-0.156496,0.151553,-0.91957,-0.298251,-0.450919,0.57449
26,65,-0.0872665,-0.698132,-0.174533,0.174533,-0.0796034,-0.690675,-0.156496,0.151553,-0.91957,-0.298251,-0.450919,0.57449
26,65,-0.0872665,-0.698132,-0.174533,0.174533,-0.0796034,-0.690675,-0.156496,0.151553,-0.91957,-0.298251,-0.450919,0.57449
26,65,-0.0872665,-0.698132,-0.174533,0.174533,-0.0796034,-0.690675,-0.156496,0.151553,-0.91957,-0.298251,-0.450919,0.57449
26,65,-0.0872665,-0.698132,-0.174533,0.174533,-0.0796034,-0.690675,-0.156496,0.151553,-0.91957,-0.298251,-0.450919,0.57449
26,65,-0.0872665,-0.698132,-0.174533,0.174533,-0.0796034,-0.690675,-0.156496,0.151553,-0.91957,-0.298251,-0.450919,0.57449
26,65,-0.0872665,-0.698132,-0.174533,0.174533,-0.0796034,-0.690675,-0.156496,0.151553,-0.91957,-0.298251,-0.450919,0.57449
26,65,-0.0872665,-0.698132,-0.174533,0.174533,-0.0796034,-0.690675,-0.156496,0.151553,-0.91957,-0.298251,-0.450919,0.57449
26,65,-0.0872665,-0.698132,-0.174533,0.174533,-0.0796034,-0.690675,-0.156496,0.151553,-0.91957,-0.298251,-0.450919,0.57449
26,65,-0.0872665,-0.698132,-0.174533,0.174533,-0.0796034,-0.690675,-0.156496,0.151553,-0.91957,-0.298251,-0.450919,0.57449
26,65,-0.0872665,-0.698132,-0.174533,0.174533,-0.0796034,-0.690675,-0.156496,0.151553,-0.91957,-0.298251,-0.450919,0.57449
26,65,-0.0872665,-0.698132,-0.174533,0.174533,-0.0796034,-0.690675,-0.156496,0.151553,-0.91957,-0.298251,-0.450919,0.57449
26,65,-0.0872665,-0.698132,-0.174533,0.174533,-0.0796034,-0.690675,-0.156496,0.151553,-0.91957,-0.298251,-0.450919,0.57449
26,65,-0.0872665,-0.698132,-0.174533,0.174533,-0.0796034,-0.690675,-0.156496,0.151553,-0.91957,-0.298251,-0.450919,0.57449
26,65,-0.0872665,-0.698132,-0.174533,0.174533,-0.0796034,-0.690675,-0.156496,0.151553,-0.91957,-0.298251,-0.450919,0.57449
26,65,-0.0872665,-0.698132,-0.174533,0.174533,-0.0796034,-0.690675,-0.156496,0.151553,-0.91957,-0.298251,-0.450919,0.57449
26,65,-0.0872665,-0.698132,-0.174533,0.174533,-0.0796034,-0.690675,-0.156496,0.151553,-0.91957,-0.298251,-0.450919,0.57449
26,65,-0.0872665,-0.698132,-0.174533,0.174533,-0.0796034,-0.690675,-0.156496,0.151553,-0.91957,-0.298251,-0.450919,0.57449
26,65,-0.0872665,-0.698132,-0.174533,0.174533,-0.0796034,-0.690675,-0.156496,0.151553,-0.91957,-0.298251,-0.450919,0.57449
26,65,-0.0872665,-0.698132,-0.174533,0.174533,-0.0796034,-0.690675,-0.156496,0.151553,-0.91957,-0.298251,-0.450919,0.57449
26,65,-0.0872665,-0.698132,-0.174533,0.174533,-0.0796034,-0.690675,-0.156496,0.151553,-0.91957,-0.298251,-0.450919,0.57449
26,65,-0.0872665,-0.698132,-0.174533,0.174533,-0.0796034,-0.690675,-0.156496,0.151553,-0.91957,-0.298251,-0.450919,0.57449
26,65,-0.0872665,-0.698132,-0.174533,0.174533,-0.0796034,-0.690675,-0.156496,0.151553,-0.91957,-0.298251,-0.450919,0.57449
26,65,-0.0872665,-0.698132,-0.174533,0.174533,-0.0796034,-0.690675,-0.156496,0.151553,-0.91957,-0.298251,-0.450919,0.57449
26,65,-0.0872665,-0.698132,-0.174533,0.174533,-0.0796034,-0.690675,-0.156496,0.151553,-0.91957,-0.298251,-0.450919,0.57449
26,65,-0.0872665,-0.698132,-0.174533,0.174533,-0.0796034,-0.690675,-0.156496,0.151553,-0.91957,-0.298251,-0.450919,0.57449
26,65,-0.0872665,-0.698132,-0.174533,0.174533,-0.0796034,-0.690675,-0.156496,0.151553,-0.91957,-0.298251,-0.450919,0.57449
26,65,-0.0872665,-0.698132,-0.174533,0.174533,-0.0796034,-0.690675,-0.156496,0.151553,-0.91957,-0.298251,-0.450919,0.57449
26,65,-0.0872665,-0.698132,-0.174533,0.174533,-0.0796034,-0.690675,-0.156496,0.151553,-0.91957,-0.298251,-0.450919,0.57449
26,65,-0.0872665,-0.698132,-0.174533,0.174533,-0.0796034,-0.690675,-0.156496,0.151553,-0.91957,-0.298251,-0.450919,0.57449
26,65,-0.0872665,-0.698132,-0.174533,0.174533,-0.0796034,-0.690675,-0.156496,0.151553,-0.91957,-0.298251,-0.450919,0.57449
26,65,-0.0872665,-0.698132,-0.174533,0.174533,-0.0796034,-0.690675,-0.156496,0.151553,-0.91957,-0.298251,-0.450919,0.57449
26,65,-0.0872665,-0.698132,-0.174533,0.174533,-0.0796034,-0.690675,-0.156496,0.151553,-0.91957,-0.298251,-0.450919,0.57449
26,65,-0.0872665,-0.698132,-0.174533,0.174533,-0.0796034,-0.690675,-0.156496,0.151553,-0.91957,-0.298251,-0.450919,0.57449
26,65,-0.0872665,-0.698132,-0.174533,0.174533,-0.0796034,-0.690675,-0.156496,0.151553,-0.91957,-0.298251,-0.450919,0.57449
26,65,-0.0872665,-0.698132,-0.174533,0.174533,-0.0796034,-0.690675,-0.156496,0.151553,-0.91957,-0.298251,-0.450919,0.57449
26,65,-0.0872665,-0.698132,-0.174533,0.174533,-0.0796034,-0.690675,-0.156496,0.151553,-0.91957,-0.298251,-0.450919,0.57449
26,65,-0.0872665,-0.698132,-0.174533,0.174533,-0.0796034,-0.690675,-0.156444,0.151527,-0.91957,-0.298251,-0.452227,0.575154
26,65,-0.0872665,-0.698132,-0.174533,0.174533,-0.0796034,-0.690675,-0.156444,0.151527,-0.91957,-0.298251,-0.452227,0.575154
26,65,-0.0872665,-0.698132,-0.174533,0.174533,-0.0796034,-0.690675,-0.156444,0.151527,-0.91957,-0.298251,-0.452227,0.575154
26,65,-0.0872665,-0.698132,-0.174533,0.174533,-0.0796034,-0.690675,-0.156444,0.151527,-0.91957,-0.298251,-0.452227,0.575154
26,65,-0.0872665,-0.698132,-0.174533,0.174533,-0.0796034,-0.690675,-0.156444,0.151527,-0.91957,-0.298251,-0.452227,0.575154
26,65,-0.0872665,-0.698132,-0.174533,0.174533,-0.0796034,-0.690675,-0.156444,0.151527,-0.91957,-0.298251,-0.452227,0.575154
26,65,-0.0872665,-0.698132,-0.174533,0.174533,-0.0796034,-0.690675,-0.156444,0.151527,-0.91957,-0.298251,-0.452227,0.575154
26,65,-0.0872665,-0.698132,-0.174533,0.174533,-0.0796034,-0.690675,-0.156444,0.151527,-0.91957,-0.298251,-0.452227,0.575154
26,65,-0.0872665,-0.698132,-0.174533,0.174533,-0.0796034,-0.690675,-0.156444,0.151527,-0.91957,-0.298251,-0.452227,0.575154
26,65,-0.0872665,-0.698132,-0.174533,0.174533,-0.0796034,-0.690675,-0.156444,0.151527,-0.91957,-0.298251,-0.452227,0.575154
26,65,-0.0872665,-0.698132,-0.174533,0.174533,-0.0796034,-0.690675,-0.156444,0.151527,-0.91957,-0.298251,-0.452227,0.575154
26,65,-0.0872665,-0.698132,-0.174533,0.174533,-0.0796034,-0.690675,-0.156444,0.151527,-0.91957,-0.298251,-0.452227,0.575154
26,65,-0.0872665,-0.698132,-0.174533,0.174533,-0.0796034,-0.690675,-0.156444,0.151527,-0.91957,-0.298251,-0.452227,0.575154
26,65,-0.0872665,-0.698132,-0.174533,0.174533,-0.0796034,-0.690675,-0.156444,0.151527,-0.91957,-0.298251,-0.452227,0.575154
26,65,-0.0872665,-0.698132,-0.174533,0.174533,-0.0796034,-0.690675,-0.156444,0.151527,-0.91957,-0.298251,-0.452227,0.575154
26,65,-0.0872665,-0.698132,-0.174533,0.174533,-0.0796034,-0.690675,-0.156444,0.151527,-0.91957,-0.298251,-0.452227,0.575154
26,65,-0.0872665,-0.698132,-0.174533,0.174533,-0.0796034,-0.690675,-0.156444,0.151527,-0.91957,-0.298251,-0.452227,0.575154
26,65,-0.0872665,-0.698132,-0.174533,0.174533,-0.0796034,-0.690675,-0.156444,0.151527,-0.91957,-0.298251,-0.452227,0.575154
26,65,-0.0872665,-0.698132,-0.174533,0.174533,-0.0796034,-0.690675,-0.156444,0.151527,-0.91957,-0.298251,-0.452227,0.575154
26,65,-0.0872665,-0.698132,-0.174533,0.174533,-0.0796034,-0.690675,-0.156444,0.151527,-0.91957,-0.298251,-0.452227,0.575154
26,65,-0.0872665,-0.698132,-0.174533,0.174533,-0.0796034,-0.690675,-0.156444,0.151527,-0.91957,-0.298251,-0.452227,0.575154
26,65,-0.0872665,-0.698132,-0.174533,0.174533,-0.0796034,-0.690675,-0.156444,0.151527,-0.91957,-0.298251,-0.452227,0.575154
26,65,-0.0872665,-0.698132,-0.174533,0.174533,-0.0796034,-0.690675,-0.156444,0.151527,-0.91957,-0.298251,-0.452227,0.575154
26,65,-0.0872665,-0.698132,-0.174533,0.174533,-0.0796034,-0.690675,-0.156444,0.151527,-0.91957,-0.298251,-0.452227,0.575154
26,65,-0.0872665,-0.698132,-0.174533,0.174533,-0.0796034,-0.690675,-0.156444,0.151527,-0.91957,-0.298251,-0.452227,0.575154
26,65,-0.0872665,-0.698132,-0.174533,0.174533,-0.0796034,-0.690675,-0.156444,0.151527,-0.91957,-0.298251,-0.452227,0.575154
26,65,-0.0872665,-0.698132,-0.174533,0.174533,-0.0796034,-0.690675,-0.156444,0.151527,-0.91957,-0.298251,-0.452227,0.575154
26,65,-0.0872665,-0.698132,-0.174533,0.174533,-0.0796034,-0.690675,-0.156444,0.151527,-0.91957,-0.298251,-0.452227,0.575154
26,65,-0.0872665,-0.698132,-0.174533,0.174533,-0.0796034,-0.690675,-0.156444,0.151527,-0.91957,-0.298251,-0.452227,0.575154
26,65,-0.0872665,-0.698132,-0.174533,0.174533,-0.0796034,-0.690675,-0.156444,0.151527,-0.91957,-0.298251,-0.452227,0.575154
26,65,-0.0872665,-0.698132,-0.174533,0.174533,-0.0796034,-0.690675,-0.156444,0.151527,-0.91957,-0.298251,-0.452227,0.575154
26,65,-0.0872665,-0.698132,-0.174533,0.174533,-0.0796034,-0.690675,-0.156444,0.151527,-0.91957,-0.298251,-0.452227,0.575154
26,65,-0.0872665,-0.698132,-0.174533,0.174533,-0.0796034,-0.690675,-0.156444,0.151527,-0.91957,-0.298251,-0.452227,0.575154
26,65,-0.0872665,-0.698132,-0.174533,0.174533,-0.0796034,-0.690675,-0.156444,0.151527,-0.91957,-0.298251,-0.452227,0.575154
26,65,-0.0872665,-0.698132,-0.174533,0.174533,-0.0796034,-0.690675,-0.156444,0.151527,-0.91957,-0.298251,-0.452227,0.575154
26,65,-0.0872665,-0.698132,-0.174533,0.174533,-0.0796034,-0.690675,-0.156444,0.151527,-0.91957,-0.298251,-0.452227,0.575154
26,65,-0.0872665,-0.698132,-0.174533,0.174533,-0.0796034,-0.690675,-0.156444,0.151527,-0.91957,-0.298251,-0.452227,0.575154
26,65,-0.0872665,-0.698132,-0.174533,0.174533,-0.0796034,-0.690675,-0.156444,0.151527,-0.91957,-0.298251,-0.452227,0.575154
26,65,-0.0872665,-0.698132,-0.174533,0.174533,-0.0796034,-0.690675,-0.156444,0.151527,-0.91957,-0.298251,-0.452227,0.575154
26,65,-0.0872665,-0.698132,-0.174533,0.174533,-0.0796034,-0.690675,-0.156444,0.151527,-0.91957,-0.298251,-0.452227,0.575154
26,65,-0.0872665,-0.698132,-0.174533,0.174533,-0.0796034,-0.690675,-0.156444,0.151527,-0.91957,-0.298251,-0.452227,0.575154
26,65,-0.0872665,-0.698132,-0.174533,0.174533,-0.0796034,-0.690675,-0.156444,0.151527,-0.91957,-0.298251,-0.452227,0.575154
26,65,-0.0872665,-0.698132,-0.174533,0.174533,-0.0796034,-0.690675,-0.156444,0.151527,-0.91957,-0.298251,-0.452227,0.575154
26,65,-0.0872665,-0.698132,-0.174533,0.174533,-0.0796034,-0.690675,-0.156444,0.151527,-0.91957,-0.298251,-0.452227,0.575154
26,65,-0.0872665,-0.698132,-0.174533,0.174533,-0.0796034,-0.690675,-0.156444,0.151527,-0.91957,-0.298251,-0.452227,0.575154
26,65,-0.0872665,-0.698132,-0.174533,0.174533,-0.0796034,-0.690675,-0.156444,0.151527,-0.91957,-0.298251,-0.452227,0.575154
26,65,-0.0872665,-0.698132,-0.174533,0.174533,-0.0796034,-0.690675,-0.156444,0.151527,-0.91957,-0.298251,-0.452227,0.575154
26,65,-0.0872665,-0.698132,-0.174533,0.174533,-0.0796034,-0.690675,-0.156444,0.151527,-0.91957,-0.298251,-0.452227,0.575154
26,65,-0.0872665,-0.698132,-0.174533,0.174533,-0.0796034,-0.690675,-0.156444,0.151527,-0.91957,-0.298251,-0.452227,0.575154
26,65,-0.0872665,-0.698132,-0.174533,0.174533,-0.0796034,-0.690675,-0.156444,0.151527,-0.91957,-0.298251,-0.452227,0.575154
26,65,-0.0872665,-0.698132,-0.174533,0.174533,-0.0796034,-0.690675,-0.156444,0.151527,-0.91957,-0.298251,-0.452227,0.575154
26,65,-0.0872665,-0.698132,-0.174533,0.174533,-0.0796034,-0.690675,-0.156444,0.151527,-0.91957,-0.298251,-0.452227,0.575154
26,65,-0.0872665,-0.698132,-0.174533,0.174533,-0.0796034,-0.690675,-0.156444,0.151527,-0.91957,-0.298251,-0.452227,0.575154
26,65,-0.0872665,-0.698132,-0.174533,0.174533,-0.0796034,-0.690675,-0.156444,0.151527,-0.91957,-0.298251,-0.452227,0.575154
26,65,-0.0872665,-0.698132,-0.174533,0.174533,-0.0796034,-0.690675,-0.156444,0.151527,-0.91957,-0.298251,-0.452227,0.575154
26,65,-0.0872665,-0.698132,-0.174533,0.174533,-0.0796034,-0.690675,-0.156444,0.151527,-0.91957,-0.298251,-0.452227,0.575154
26,65,-0.0872665,-0.698132,-0.174533,0.174533,-0.0796034,-0.690675,-0.156444,0.151527,-0.91957,-0.298251,-0.452227,0.575154
26,65,-0.0872665,-0.698132,-0.174533,0.174533,-0.0796034,-0.690675,-0.156444,0.151527,-0.91957,-0.298251,-0.452227,0.575154
26,65,-0.0872665,-0.698132,-0.174533,0.174533,-0.0796034,-0.690675,-0.156444,0.151527,-0.91957,-0.298251,-0.452227,0.575154
26,65,-0.0872665,-0.698132,-0.174533,0.174533,-0.0796034,-0.690675,-0.156444,0.151527,-0.91957,-0.298251,-0.452227,0.575154
26,65,-0.0872665,-0.698132,-0.174533,0.174533,-0.0796034,-0.690675,-0.156444,0.151527,-0.91957,-0.298251,-0.452227,0.575154
26,65,-0.0872665,-0.698132,-0.174533,0.174533,-0.0796034,-0.690675,-0.156444,0.151527,-0.91957,-0.298251,-0.452227,0.575154
26,65,-0.0872665,-0.698132,-0.174533,0.174533,-0.0796034,-0.690675,-0.156444,0.151527,-0.91957,-0.298251,-0.452227,0.575154
26,65,-0.0872665,-0.698132,-0.174533,0.174533,-0.0796034,-0.690675,-0.156444,0.151527,-0.91957,-0.298251,-0.452227,0.575154
26,65,-0.0872665,-0.698132,-0.174533,0.174533,-0.0796034,-0.690675,-0.156444,0.151527,-0.91957,-0.298251,-0.452227,0.575154
26,65,-0.0872665,-0.698132,-0.174533,0.174533,-0.0796034,-0.690675,-0.156444,0.151527,-0.91957,-0.298251,-0.452227,0.575154
26,65,-0.0872665,-0.698132,-0.174533,0.174533,-0.0796034,-0.690675,-0.156444,0.151527,-0.91957,-0.298251,-0.452227,0.575154
26,65,-0.0872665,-0.698132,-0.174533,0.174533,-0.0796034,-0.690675,-0.156444,0.151527,-0.91957,-0.298251,-0.452227,0.575154
26,65,-0.0872665,-0.698132,-0.174533,0.174533,-0.0796034,-0.690675,-0.156444,0.151527,-0.91957,-0.298251,-0.452227,0.575154
26,65,-0.0872665,-0.698132,-0.174533,0.174533,-0.0796034,-0.690675,-0.156444,0.151527,-0.91957,-0.298251,-0.452227,0.575154
26,65,-0.0872665,-0.698132,-0.174533,0.174533,-0.0796034,-0.690675,-0.156444,0.151527,-0.91957,-0.298251,-0.452227,0.575154
26,65,-0.0872665,-0.698132,-0.174533,0.174533,-0.0796034,-0.690675,-0.156444,0.151527,-0.91957,-0.298251,-0.452227,0.575154
26,65,-0.0872665,-0.698132,-0.174533,0.174533,-0.0796034,-0.690675,-0.156444,0.151527,-0.91957,-0.298251,-0.452227,0.575154
26,65,-0.0872665,-0.698132,-0.174533,0.174533,-0.0796034,-0.690675,-0.156444,0.151527,-0.91957,-0.298251,-0.452227,0.575154
26,65,-0.0872665,-0.698132,-0.174533,0.174533,-0.0796034,-0.690675,-0.156444,0.151527,-0.91957,-0.298251,-0.452227,0.575154
26,65,-0.0872665,-0.698132,-0.174533,0.174533,-0.0796034,-0.690675,-0.156444,0.151527,-0.91957,-0.298251,-0.452227,0.575154
26,65,-0.0872665,-0.698132,-0.174533,0.174533,-0.0796034,-0.690675,-0.156444,0.151527,-0.91957,-0.298251,-0.452227,0.575154
26,65,-0.0872665,-0.698132,-0.174533,0.174533,-0.0796034,-0.690675,-0.156444,0.151527,-0.91957,-0.298251,-0.452227,0.575154
26,65,-0.0872665,-0.698132,-0.174533,0.174533,-0.0796034,-0.690675,-0.156444,0.151527,-0.91957,-0.298251,-0.452227,0.575154
26,65,-0.0872665,-0.698132,-0.174533,0.174533,-0.0796034,-0.690675,-0.156444,0.151527,-0.91957,-0.298251,-0.452227,0.575154
26,65,-0.0872665,-0.698132,-0.174533,0.174533,-0.0796034,-0.690675,-0.156444,0.151527,-0.91957,-0.298251,-0.452227,0.575154
26,65,-0.0872665,-0.698132,-0.174533,0.174533,-0.0796034,-0.690675,-0.156444,0.151527,-0.91957,-0.298251,-0.452227,0.575154
26,65,-0.0872665,-0.698132,-0.174533,0.174533,-0.0796034,-0.690675,-0.156444,0.151527,-0.91957,-0.298251,-0.452227,0.575154
26,65,-0.0872665,-0.698132,-0.174533,0.174533,-0.0796034,-0.690675,-0.156444,0.151527,-0.91957,-0.298251,-0.452227,0.575154
26,65,-0.0872665,-0.698132,-0.174533,0.174533,-0.0796034,-0.690675,-0.156444,0.151527,-0.91957,-0.298251,-0.452227,0.575154
26,65,-0.0872665,-0.698132,-0.174533,0.174533,-0.0796034,-0.690675,-0.156444,0.151527,-0.91957,-0.298251,-0.452227,0.575154
26,65,-0.0872665,-0.698132,-0.174533,0.174533,-0.0796034,-0.690675,-0.156444,0.151527,-0.91957,-0.298251,-0.452227,0.575154
26,65,-0.0872665,-0.698132,-0.174533,0.174533,-0.0796034,-0.690675,-0.156444,0.151527,-0.91957,-0.298251,-0.452227,0.575154
26,65,-0.0872665,-0.698132,-0.174533,0.174533,-0.0796034,-0.690675,-0.156444,0.151527,-0.91957,-0.298251,-0.452227,0.575154
26,65,-0.0872665,-0.698132,-0.174533,0.174533,-0.0796034,-0.690675,-0.156444,0.151527,-0.91957,-0.298251,-0.452227,0.575154
26,65,-0.0872665,-0.698132,-0.174533,0.174533,-0.0796034,-0.690675,-0.156392,0.1515,-0.91957,-0.298251,-0.453535,0.575818
26,65,-0.0872665,-0.698132,-0.174533,0.174533,-0.0796034,-0.690675,-0.156392,0.1515,-0.91957,-0.298251,-0.453535,0.575818
26,65,-0.0872665,-0.698132,-0.174533,0.174533,-0.0796034,-0.690675,-0.156392,0.1515,-0.91957,-0.298251,-0.453535,0.575818
26,65,-0.0872665,-0.698132,-0.174533,0.174533,-0.0796034,-0.690675,-0.156392,0.1515,-0.91957,-0.298251,-0.453535,0.575818
26,65,-0.0872665,-0.698132,-0.174533,0.174533,-0.0796034,-0.690675,-0.156392,0.1515,-0.91957,-0.298251,-0.453535,0.575818
26,65,-0.0872665,-0.698132,-0.174533,0.174533,-0.0796034,-0.690675,-0.156392,0.1515,-0.91957,-0.298251,-0.453535,0.575818
26,65,-0.0872665,-0.698132,-0.174533,0.174533,-0.0796034,-0.690675,-0.156392,0.1515,-0.91957,-0.298251,-0.453535,0.575818
26,65,-0.0872665,-0.698132,-0.174533,0.174533,-0.0796034,-0.690675,-0.156392,0.1515,-0.91957,-0.298251,-0.453535,0.575818
26,65,-0.0872665,-0.698132,-0.174533,0.174533,-0.0796034,-0.690675,-0.156392,0.1515,-0.91957,-0.298251,-0.453535,0.575818
26,65,-0.0872665,-0.698132,-0.174533,0.174533,-0.0796034,-0.690675,-0.156392,0.1515,-0.91957,-0.298251,-0.453535,0.575818
26,65,-0.0872665,-0.698132,-0.174533,0.174533,-0.0796034,-0.690675,-0.156392,0.1515,-0.91957,-0.298251,-0.453535,0.575818
26,65,-0.0872665,-0.698132,-0.174533,0.174533,-0.0796034,-0.690675,-0.156392,0.1515,-0.91957,-0.298251,-0.453535,0.575818
26,65,-0.0872665,-0.698132,-0.174533,0.174533,-0.0796034,-0.690675,-0.156392,0.1515,-0.91957,-0.298251,-0.453535,0.575818
26,65,-0.0872665,-0.698132,-0.174533,0.174533,-0.0796034,-0.690675,-0.156392,0.1515,-0.91957,-0.298251,-0.453535,0.575818
26,65,-0.0872665,-0.698132,-0.174533,0.174533,-0.0796034,-0.690675,-0.156392,0.1515,-0.91957,-0.298251,-0.453535,0.575818
26,65,-0.0872665,-0.698132,-0.174533,0.174533,-0.0796034,-0.690675,-0.156392,0.1515,-0.91957,-0.298251,-0.453535,0.575818
26,65,-0.0872665,-0.698132,-0.174533,0.174533,-0.0796034,-0.690675,-0.156392,0.1515,-0.91957,-0.298251,-0.453535,0.575818
26,65,-0.0872665,-0.698132,-0.174533,0.174533,-0.0796034,-0.690675,-0.156392,0.1515,-0.91957,-0.298251,-0.453535,0.575818
26,65,-0.0872665,-0.698132,-0.174533,0.174533,-0.0796034,-0.690675,-0.156392,0.1515,-0.91957,-0.298251,-0.453535,0.575818
26,65,-0.0872665,-0.698132,-0.174533,0.174533,-0.0796034,-0.690675,-0.156392,0.1515,-0.91957,-0.298251,-0.453535,0.575818
26,65,-0.0872665,-0.698132,-0.174533,0.174533,-0.0796034,-0.690675,-0.156392,0.1515,-0.91957,-0.298251,-0.453535,0.575818
26,65,-0.0872665,-0.698132,-0.174533,0.174533,-0.0796034,-0.690675,-0.156392,0.1515,-0.91957,-0.298251,-0.453535,0.575818
26,65,-0.0872665,-0.698132,-0.174533,0.174533,-0.0796034,-0.690675,-0.156392,0.1515,-0.91957,-0.298251,-0.453535,0.575818
26,65,-0.0872665,-0.698132,-0.174533,0.174533,-0.0796034,-0.690675,-0.156392,0.1515,-0.91957,-0.298251,-0.453535,0.575818
26,65,-0.0872665,-0.698132,-0.174533,0.174533,-0.0796034,-0.690675,-0.156392,0.1515,-0.91957,-0.298251,-0.453535,0.575818
26,65,-0.0872665,-0.698132,-0.174533,0.174533,-0.0796034,-0.690675,-0.156392,0.1515,-0.91957,-0.298251,-0.453535,0.575818
26,65,-0.0872665,-0.698132,-0.174533,0.174533,-0.0796034,-0.690675,-0.156392,0.1515,-0.91957,-0.298251,-0.453535,0.575818
26,65,-0.0872665,-0.698132,-0.174533,0.174533,-0.0796034,-0.690675,-0.156392,0.1515,-0.91957,-0.298251,-0.453535,0.575818
26,65,-0.0872665,-0.698132,-0.174533,0.174533,-0.0796034,-0.690675,-0.156392,0.1515,-0.91957,-0.298251,-0.453535,0.575818
26,65,-0.0872665,-0.698132,-0.174533,0.174533,-0.0796034,-0.690675,-0.156392,0.1515,-0.91957,-0.298251,-0.453535,0.575818
26,65,-0.0872665,-0.698132,-0.174533,0.174533,-0.0796034,-0.690675,-0.156392,0.1515,-0.91957,-0.298251,-0.453535,0.575818
26,65,-0.0872665,-0.698132,-0.174533,0.174533,-0.0796034,-0.690675,-0.156392,0.1515,-0.91957,-0.298251,-0.453535,0.575818
26,65,-0.0872665,-0.698132,-0.174533,0.174533,-0.0796034,-0.690675,-0.156392,0.1515,-0.91957,-0.298251,-0.453535,0.575818
26,65,-0.0872665,-0.698132,-0.174533,0.174533,-0.0796034,-0.690675,-0.156392,0.1515,-0.91957,-0.298251,-0.453535,0.575818
26,65,-0.0872665,-0.698132,-0.174533,0.174533,-0.0796034,-0.690675,-0.156392,0.1515,-0.91957,-0.298251,-0.453535,0.575818
26,65,-0.0872665,-0.698132,-0.174533,0.174533,-0.0796034,-0.690675,-0.156392,0.1515,-0.91957,-0.298251,-0.453535,0.575818
26,65,-0.0872665,-0.698132,-0.174533,0.174533,-0.0796034,-0.690675,-0.156392,0.1515,-0.91957,-0.298251,-0.453535,0.575818
26,65,-0.0872665,-0.698132,-0.174533,0.174533,-0.0796034,-0.690675,-0.156392,0.1515,-0.91957,-0.298251,-0.453535,0.575818
26,65,-0.0872665,-0.698132,-0.174533,0.174533,-0.0796034,-0.690675,-0.156392,0.1515,-0.91957,-0.298251,-0.453535,0.575818
26,65,-0.0872665,-0.698132,-0.174533,0.174533,-0.0796034,-0.690675,-0.156392,0.1515,-0.91957,-0.298251,-0.453535,0.575818
26,65,-0.0872665,-0.698132,-0.174533,0.174533,-0.0796034,-0.690675,-0.156392,0.1515,-0.91957,-0.298251,-0.453535,0.575818
26,65,-0.0872665,-0.698132,-0.174533,0.174533,-0.0796034,-0.690675,-0.156392,0.1515,-0.91957,-0.298251,-0.453535,0.575818
26,65,-0.0872665,-0.698132,-0.174533,0.174533,-0.0796034,-0.690675,-0.156392,0.1515,-0.91957,-0.298251,-0.453535,0.575818
26,65,-0.0872665,-0.698132,-0.174533,0.174533,-0.0796034,-0.690675,-0.156392,0.1515,-0.91957,-0.298251,-0.453535,0.575818
26,65,-0.0872665,-0.698132,-0.174533,0.174533,-0.0796034,-0.690675,-0.156392,0.1515,-0.91957,-0.298251,-0.453535,0.575818
26,65,-0.0872665,-0.698132,-0.174533,0.174533,-0.0796034,-0.690675,-0.156392,0.1515,-0.91957,-0.298251,-0.453535,0.575818
26,65,-0.0872665,-0.698132,-0.174533,0.174533,-0.0796034,-0.690675,-0.156392,0.1515,-0.91957,-0.298251,-0.453535,0.575818
26,65,-0.0872665,-0.698132,-0.174533,0.174533,-0.0796034,-0.690675,-0.156392,0.1515,-0.91957,-0.298251,-0.453535,0.575818
26,65,-0.0872665,-0.698132,-0.174533,0.174533,-0.0796034,-0.690675,-0.156392,0.1515,-0.91957,-0.298251,-0.453535,0.575818
26,65,-0.0872665,-0.698132,-0.174533,0.174533,-0.0796034,-0.690675,-0.156392,0.1515,-0.91957,-0.298251,-0.453535,0.575818
26,65,-0.0872665,-0.698132,-0.174533,0.174533,-0.0796034,-0.690675,-0.156392,0.1515,-0.91957,-0.298251,-0.453535,0.575818
26,65,-0.0872665,-0.698132,-0.174533,0.174533,-0.0796034,-0.690675,-0.156392,0.1515,-0.91957,-0.298251,-0.453535,0.575818
26,65,-0.0872665,-0.698132,-0.174533,0.174533,-0.0796034,-0.690675,-0.156392,0.1515,-0.91957,-0.298251,-0.453535,0.575818
26,65,-0.0872665,-0.698132,-0.174533,0.174533,-0.0796034,-0.690675,-0.156392,0.1515,-0.91957,-0.298251,-0.453535,0.575818
26,65,-0.0872665,-0.698132,-0.174533,0.174533,-0.0796034,-0.690675,-0.156392,0.1515,-0.91957,-0.298251,-0.453535,0.575818
26,65,-0.0872665,-0.698132,-0.174533,0.174533,-0.0796034,-0.690675,-0.156392,0.1515,-0.91957,-0.298251,-0.453535,0.575818
26,65,-0.0872665,-0.698132,-0.174533,0.174533,-0.0796034,-0.690675,-0.156392,0.1515,-0.91957,-0.298251,-0.453535,0.575818
26,65,-0.0872665,-0.698132,-0.174533,0.174533,-0.0796034,-0.690675,-0.156441,0.151457,-0.91957,-0.298251,-0.452296,0.576905
26,65,-0.0872665,-0.698132,-0.174533,0.174533,-0.0796034,-0.690675,-0.156441,0.151457,-0.91957,-0.298251,-0.452296,0.576905
26,65,-0.0872665,-0.698132,-0.174533,0.174533,-0.0796034,-0.690675,-0.156441,0.151457,-0.91957,-0.298251,-0.452296,0.576905
26,65,-0.0872665,-0.698132,-0.174533,0.174533,-0.0796034,-0.690675,-0.156441,0.151457,-0.91957,-0.298251,-0.452296,0.576905
26,65,-0.0872665,-0.698132,-0.174533,0.174533,-0.0796034,-0.690675,-0.156441,0.151457,-0.91957,-0.298251,-0.452296,0.576905
26,65,-0.0872665,-0.698132,-0.174533,0.174533,-0.0796034,-0.690675,-0.156441,0.151457,-0.91957,-0.298251,-0.452296,0.576905
26,65,-0.0872665,-0.698132,-0.174533,0.174533,-0.0796034,-0.690675,-0.156441,0.151457,-0.91957,-0.298251,-0.452296,0.576905
26,65,-0.0872665,-0.698132,-0.174533,0.174533,-0.0796034,-0.690675,-0.156441,0.151457,-0.91957,-0.298251,-0.452296,0.576905
26,65,-0.0872665,-0.698132,-0.174533,0.174533,-0.0796034,-0.690675,-0.156441,0.151457,-0.91957,-0.298251,-0.452296,0.576905
26,65,-0.0872665,-0.698132,-0.174533,0.174533,-0.0796034,-0.690675,-0.156441,0.151457,-0.91957,-0.298251,-0.452296,0.576905
26,65,-0.0872665,-0.698132,-0.174533,0.174533,-0.0796034,-0.690675,-0.156441,0.151457,-0.91957,-0.298251,-0.452296,0.576905
26,65,-0.0872665,-0.698132,-0.174533,0.174533,-0.0796034,-0.690675,-0.156441,0.151457,-0.91957,-0.298251,-0.452296,0.576905
26,65,-0.0872665,-0.698132,-0.174533,0.174533,-0.0796034,-0.690675,-0.156441,0.151457,-0.91957,-0.298251,-0.452296,0.576905
26,65,-0.0872665,-0.698132,-0.174533,0.174533,-0.0796034,-0.690675,-0.156445,0.151528,-0.91957,-0.298251,-0.452208,0.575111
26,65,-0.0872665,-0.698132,-0.174533,0.174533,-0.0796034,-0.690675,-0.156445,0.151528,-0.91957,-0.298251,-0.452208,0.575111
26,65,-0.0872665,-0.698132,-0.174533,0.174533,-0.0796034,-0.690675,-0.156445,0.151528,-0.91957,-0.298251,-0.452208,0.575111
26,65,-0.0872665,-0.698132,-0.174533,0.174533,-0.0796034,-0.690675,-0.156445,0.151528,-0.91957,-0.298251,-0.452208,0.575111
26,65,-0.0872665,-0.698132,-0.174533,0.174533,-0.0796034,-0.690675,-0.156445,0.151528,-0.91957,-0.298251,-0.452208,0.575111
26,65,-0.0872665,-0.698132,-0.174533,0.174533,-0.0796034,-0.690675,-0.156445,0.151528,-0.91957,-0.298251,-0.452208,0.575111
26,65,-0.0872665,-0.698132,-0.174533,0.174533,-0.0796034,-0.690675,-0.156445,0.151528,-0.91957,-0.298251,-0.452208,0.575111
26,65,-0.0872665,-0.698132,-0.174533,0.174533,-0.0796034,-0.690675,-0.156445,0.151528,-0.91957,-0.298251,-0.452208,0.575111
26,65,-0.0872665,-0.698132,-0.174533,0.174533,-0.0796034,-0.690675,-0.156445,0.151528,-0.91957,-0.298251,-0.452208,0.575111
26,65,-0.0872665,-0.698132,-0.174533,0.174533,-0.0796034,-0.690675,-0.156445,0.151528,-0.91957,-0.298251,-0.452208,0.575111
26,65,-0.0872665,-0.698132,-0.174533,0.174533,-0.0796034,-0.690675,-0.156445,0.151528,-0.91957,-0.298251,-0.452208,0.575111
26,65,-0.0872665,-0.698132,-0.174533,0.174533,-0.0796034,-0.690675,-0.156445,0.151528,-0.91957,-0.298251,-0.452208,0.575111
26,65,-0.0872665,-0.698132,-0.174533,0.174533,-0.0796034,-0.690675,-0.156445,0.151528,-0.91957,-0.298251,-0.452208,0.575111
26,65,-0.0872665,-0.698132,-0.174533,0.174533,-0.0796034,-0.690675,-0.156445,0.151528,-0.91957,-0.298251,-0.452208,0.575111
26,65,-0.0872665,-0.698132,-0.174533,0.174533,-0.0796034,-0.690675,-0.156445,0.151528,-0.91957,-0.298251,-0.452208,0.575111
26,65,-0.0872665,-0.698132,-0.174533,0.174533,-0.0796034,-0.690675,-0.156445,0.151528,-0.91957,-0.298251,-0.452208,0.575111
26,65,-0.0872665,-0.698132,-0.174533,0.174533,-0.0796034,-0.690675,-0.156445,0.151528,-0.91957,-0.298251,-0.452208,0.575111
26,65,-0.0872665,-0.698132,-0.174533,0.174533,-0.0796034,-0.690675,-0.156445,0.151528,-0.91957,-0.298251,-0.452208,0.575111
26,65,-0.0872665,-0.698132,-0.174533,0.174533,-0.0796034,-0.690675,-0.156445,0.151528,-0.91957,-0.298251,-0.452208,0.575111
26,65,-0.0872665,-0.698132,-0.174533,0.174533,-0.0796034,-0.690675,-0.156445,0.151528,-0.91957,-0.298251,-0.452208,0.575111
26,65,-0.0872665,-0.698132,-0.174533,0.174533,-0.0796034,-0.690675,-0.156445,0.151528,-0.91957,-0.298251,-0.452208,0.575111
26,65,-0.0872665,-0.698132,-0.174533,0.174533,-0.0796034,-0.690675,-0.156445,0.151528,-0.91957,-0.298251,-0.452208,0.575111
26,65,-0.0872665,-0.698132,-0.174533,0.174533,-0.0796034,-0.690675,-0.156445,0.151528,-0.91957,-0.298251,-0.452208,0.575111
26,65,-0.0872665,-0.698132,-0.174533,0.174533,-0.0796034,-0.690675,-0.156445,0.151528,-0.91957,-0.298251,-0.452208,0.575111
26,65,-0.0872665,-0.698132,-0.174533,0.174533,-0.0796034,-0.690675,-0.156445,0.151528,-0.91957,-0.298251,-0.452208,0.575111
26,65,-0.0872665,-0.698132,-0.174533,0.174533,-0.0796034,-0.690675,-0.156445,0.151528,-0.91957,-0.298251,-0.452208,0.575111
26,65,-0.0872665,-0.698132,-0.174533,0.174533,-0.0796034,-0.690675,-0.156445,0.151528,-0.91957,-0.298251,-0.452208,0.575111
26,65,-0.0872665,-0.698132,-0.174533,0.174533,-0.0796034,-0.690675,-0.156445,0.151528,-0.91957,-0.298251,-0.452208,0.575111
26,65,-0.0872665,-0.698132,-0.174533,0.174533,-0.0796034,-0.690675,-0.156445,0.151528,-0.91957,-0.298251,-0.452208,0.575111
26,65,-0.0872665,-0.698132,-0.174533,0.174533,-0.0796034,-0.690675,-0.156445,0.151528,-0.91957,-0.298251,-0.452208,0.575111
26,65,-0.0872665,-0.698132,-0.174533,0.174533,-0.0796034,-0.690675,-0.156445,0.151528,-0.91957,-0.298251,-0.452208,0.575111
26,65,-0.0872665,-0.698132,-0.174533,0.174533,-0.0796034,-0.690675,-0.156445,0.151528,-0.91957,-0.298251,-0.452208,0.575111
26,65,-0.0872665,-0.698132,-0.174533,0.174533,-0.0796034,-0.690675,-0.156445,0.151528,-0.91957,-0.298251,-0.452208,0.575111
26,65,-0.0872665,-0.698132,-0.174533,0.174533,-0.0796034,-0.690675,-0.156445,0.151528,-0.91957,-0.298251,-0.452208,0.575111
26,65,-0.0872665,-0.698132,-0.174533,0.174533,-0.0796034,-0.690675,-0.156445,0.151528,-0.91957,-0.298251,-0.452208,0.575111
26,65,-0.0872665,-0.698132,-0.174533,0.174533,-0.0796034,-0.690675,-0.156445,0.151528,-0.91957,-0.298251,-0.452208,0.575111
26,65,-0.0872665,-0.698132,-0.174533,0.174533,-0.0796034,-0.690675,-0.156445,0.151528,-0.91957,-0.298251,-0.452208,0.575111
26,65,-0.0872665,-0.698132,-0.174533,0.174533,-0.0796034,-0.690675,-0.156445,0.151528,-0.91957,-0.298251,-0.452208,0.575111
26,65,-0.0872665,-0.698132,-0.174533,0.174533,-0.0796034,-0.690675,-0.156445,0.151528,-0.91957,-0.298251,-0.452208,0.575111
26,65,-0.0872665,-0.698132,-0.174533,0.174533,-0.0796034,-0.690675,-0.156445,0.151528,-0.91957,-0.298251,-0.452208,0.575111
26,65,-0.0872665,-0.698132,-0.174533,0.174533,-0.0796034,-0.690675,-0.156445,0.151528,-0.91957,-0.298251,-0.452208,0.575111
26,65,-0.0872665,-0.698132,-0.174533,0.174533,-0.0796034,-0.690675,-0.156445,0.151528,-0.91957,-0.298251,-0.452208,0.575111
26,65,-0.0872665,-0.698132,-0.174533,0.174533,-0.0796034,-0.690675,-0.156445,0.151528,-0.91957,-0.298251,-0.452208,0.575111
26,65,-0.0872665,-0.698132,-0.174533,0.174533,-0.0796034,-0.690675,-0.156445,0.151528,-0.91957,-0.298251,-0.452208,0.575111
26,65,-0.0872665,-0.698132,-0.174533,0.174533,-0.0796034,-0.690675,-0.156445,0.151528,-0.91957,-0.298251,-0.452208,0.575111
26,65,-0.0872665,-0.698132,-0.174533,0.174533,-0.0796034,-0.690675,-0.156445,0.151528,-0.91957,-0.298251,-0.452208,0.575111
26,65,-0.0872665,-0.698132,-0.174533,0.174533,-0.0796034,-0.690675,-0.156445,0.151528,-0.91957,-0.298251,-0.452208,0.575111
26,65,-0.0872665,-0.698132,-0.174533,0.174533,-0.0796034,-0.690675,-0.156445,0.151528,-0.91957,-0.298251,-0.452208,0.575111
26,65,-0.0872665,-0.698132,-0.174533,0.174533,-0.0796034,-0.690675,-0.156445,0.151528,-0.91957,-0.298251,-0.452208,0.575111
26,65,-0.0872665,-0.698132,-0.174533,0.174533,-0.0796034,-0.690675,-0.156445,0.151528,-0.91957,-0.298251,-0.452208,0.575111
26,65,-0.0872665,-0.698132,-0.174533,0.174533,-0.0796034,-0.690675,-0.156445,0.151528,-0.91957,-0.298251,-0.452208,0.575111
26,65,-0.0872665,-0.698132,-0.174533,0.174533,-0.0796034,-0.690675,-0.156445,0.151528,-0.91957,-0.298251,-0.452208,0.575111
26,65,-0.0872665,-0.698132,-0.174533,0.174533,-0.0796034,-0.690675,-0.156445,0.151528,-0.91957,-0.298251,-0.452208,0.575111
26,65,-0.0872665,-0.698132,-0.174533,0.174533,-0.0796034,-0.690675,-0.156445,0.151528,-0.91957,-0.298251,-0.452208,0.575111
26,65,-0.0872665,-0.698132,-0.174533,0.174533,-0.0796034,-0.690675,-0.156445,0.151528,-0.91957,-0.298251,-0.452208,0.575111
26,65,-0.0872665,-0.698132,-0.174533,0.174533,-0.0796034,-0.690675,-0.156445,0.151528,-0.91957,-0.298251,-0.452208,0.575111
26,65,-0.0872665,-0.698132,-0.174533,0.174533,-0.0796034,-0.690675,-0.156445,0.151528,-0.91957,-0.298251,-0.452208,0.575111
26,65,-0.0872665,-0.698132,-0.174533,0.174533,-0.0796034,-0.690675,-0.156445,0.151528,-0.91957,-0.298251,-0.452208,0.575111
26,65,-0.0872665,-0.698132,-0.174533,0.174533,-0.0796034,-0.690675,-0.156445,0.151528,-0.91957,-0.298251,-0.452208,0.575111
26,65,-0.0872665,-0.698132,-0.174533,0.174533,-0.0796034,-0.690675,-0.156445,0.151528,-0.91957,-0.298251,-0.452208,0.575111
26,65,-0.0872665,-0.698132,-0.174533,0.174533,-0.0796034,-0.690675,-0.156445,0.151528,-0.91957,-0.298251,-0.452208,0.575111
26,65,-0.0872665,-0.698132,-0.174533,0.174533,-0.0796034,-0.690675,-0.156445,0.151528,-0.91957,-0.298251,-0.452208,0.575111
26,65,-0.0872665,-0.698132,-0.174533,0.174533,-0.0796034,-0.690675,-0.156445,0.151528,-0.91957,-0.298251,-0.452208,0.575111
26,65,-0.0872665,-0.698132,-0.174533,0.174533,-0.0796034,-0.690675,-0.156445,0.151528,-0.91957,-0.298251,-0.452208,0.575111
26,65,-0.0872665,-0.698132,-0.174533,0.174533,-0.0796034,-0.690675,-0.156445,0.151528,-0.91957,-0.298251,-0.452208,0.575111
26,65,-0.0872665,-0.698132,-0.174533,0.174533,-0.0796034,-0.690675,-0.156445,0.151528,-0.91957,-0.298251,-0.452208,0.575111
26,65,-0.0872665,-0.698132,-0.174533,0.174533,-0.0796034,-0.690675,-0.156445,0.151528,-0.91957,-0.298251,-0.452208,0.575111
26,65,-0.0872665,-0.698132,-0.174533,0.174533,-0.0796034,-0.690675,-0.156445,0.151528,-0.91957,-0.298251,-0.452208,0.575111
26,65,-0.0872665,-0.698132,-0.174533,0.174533,-0.0796034,-0.690675,-0.156445,0.151528,-0.91957,-0.298251,-0.452208,0.575111
26,65,-0.0872665,-0.698132,-0.174533,0.174533,-0.0796034,-0.690675,-0.156445,0.151528,-0.91957,-0.298251,-0.452208,0.575111
26,65,-0.0872665,-0.698132,-0.174533,0.174533,-0.0796034,-0.690675,-0.156445,0.151528,-0.91957,-0.298251,-0.452208,0.575111
26,65,-0.0872665,-0.698132,-0.174533,0.174533,-0.0796034,-0.690675,-0.156445,0.151528,-0.91957,-0.298251,-0.452208,0.575111
26,65,-0.0872665,-0.698132,-0.174533,0.174533,-0.0796034,-0.690675,-0.156445,0.151528,-0.91957,-0.298251,-0.452208,0.575111
26,65,-0.0872665,-0.698132,-0.174533,0.174533,-0.0796034,-0.690675,-0.156445,0.151528,-0.91957,-0.298251,-0.452208,0.575111
26,65,-0.0872665,-0.698132,-0.174533,0.174533,-0.0796034,-0.690675,-0.156445,0.151528,-0.91957,-0.298251,-0.452208,0.575111
26,65,-0.0872665,-0.698132,-0.174533,0.174533,-0.0796034,-0.690675,-0.156445,0.151528,-0.91957,-0.298251,-0.452208,0.575111
26,65,-0.0872665,-0.698132,-0.174533,0.174533,-0.0796034,-0.690675,-0.156445,0.151528,-0.91957,-0.298251,-0.452208,0.575111
26,65,-0.0872665,-0.698132,-0.174533,0.174533,-0.0796034,-0.690675,-0.156445,0.151528,-0.91957,-0.298251,-0.452208,0.575111
26,65,-0.0872665,-0.698132,-0.174533,0.174533,-0.0796034,-0.690675,-0.156494,0.151485,-0.91957,-0.298251,-0.450968,0.576198
26,65,-0.0872665,-0.698132,-0.174533,0.174533,-0.0796034,-0.690675,-0.156494,0.151485,-0.91957,-0.298251,-0.450968,0.576198
26,65,-0.0872665,-0.698132,-0.174533,0.174533,-0.0796034,-0.690675,-0.156494,0.151485,-0.91957,-0.298251,-0.450968,0.576198
26,65,-0.0872665,-0.698132,-0.174533,0.174533,-0.0796034,-0.690675,-0.156494,0.151485,-0.91957,-0.298251,-0.450968,0.576198
26,65,-0.0872665,-0.698132,-0.174533,0.174533,-0.0796034,-0.690675,-0.156494,0.151485,-0.91957,-0.298251,-0.450968,0.576198
26,65,-0.0872665,-0.698132,-0.174533,0.174533,-0.0796034,-0.690675,-0.156494,0.151485,-0.91957,-0.298251,-0.450968,0.576198
26,65,-0.0872665,-0.698132,-0.174533,0.174533,-0.0796034,-0.690675,-0.156494,0.151485,-0.91957,-0.298251,-0.450968,0.576198
26,65,-0.0872665,-0.698132,-0.174533,0.174533,-0.0796034,-0.690675,-0.156494,0.151485,-0.91957,-0.298251,-0.450968,0.576198
26,65,-0.0872665,-0.698132,-0.174533,0.174533,-0.0796034,-0.690675,-0.156494,0.151485,-0.91957,-0.298251,-0.450968,0.576198
26,65,-0.0872665,-0.698132,-0.174533,0.174533,-0.0796034,-0.690675,-0.156494,0.151485,-0.91957,-0.298251,-0.450968,0.576198
26,65,-0.0872665,-0.698132,-0.174533,0.174533,-0.0796034,-0.690675,-0.156494,0.151485,-0.91957,-0.298251,-0.450968,0.576198
26,65,-0.0872665,-0.698132,-0.174533,0.174533,-0.0796034,-0.690675,-0.156494,0.151485,-0.91957,-0.298251,-0.450968,0.576198
26,65,-0.0872665,-0.698132,-0.174533,0.174533,-0.0796034,-0.690675,-0.156494,0.151485,-0.91957,-0.298251,-0.450968,0.576198
26,65,-0.0872665,-0.698132,-0.174533,0.174533,-0.0796034,-0.690675,-0.156494,0.151485,-0.91957,-0.298251,-0.450968,0.576198
26,65,-0.0872665,-0.698132,-0.174533,0.174533,-0.0796034,-0.690675,-0.156494,0.151485,-0.91957,-0.298251,-0.450968,0.576198
26,65,-0.0872665,-0.698132,-0.174533,0.174533,-0.0796034,-0.690675,-0.156494,0.151485,-0.91957,-0.298251,-0.450968,0.576198
26,65,-0.0872665,-0.698132,-0.174533,0.174533,-0.0796034,-0.690675,-0.156494,0.151485,-0.91957,-0.298251,-0.450968,0.576198
26,65,-0.0872665,-0.698132,-0.174533,0.174533,-0.0796034,-0.690675,-0.156494,0.151485,-0.91957,-0.298251,-0.450968,0.576198
26,65,-0.0872665,-0.698132,-0.174533,0.174533,-0.0796034,-0.690675,-0.156494,0.151485,-0.91957,-0.298251,-0.450968,0.576198
26,65,-0.0872665,-0.698132,-0.174533,0.174533,-0.0796034,-0.690675,-0.156494,0.151485,-0.91957,-0.298251,-0.450968,0.576198
26,65,-0.0872665,-0.698132,-0.174533,0.174533,-0.0796034,-0.690675,-0.156494,0.151485,-0.91957,-0.298251,-0.450968,0.576198
26,65,-0.0872665,-0.698132,-0.174533,0.174533,-0.0796034,-0.690675,-0.156494,0.151485,-0.91957,-0.298251,-0.450968,0.576198
26,65,-0.0872665,-0.698132,-0.174533,0.174533,-0.0796034,-0.690675,-0.156494,0.151485,-0.91957,-0.298251,-0.450968,0.576198
26,65,-0.0872665,-0.698132,-0.174533,0.174533,-0.0796034,-0.690675,-0.156494,0.151485,-0.91957,-0.298251,-0.450968,0.576198
26,65,-0.0872665,-0.698132,-0.174533,0.174533,-0.0796034,-0.690675,-0.156494,0.151485,-0.91957,-0.298251,-0.450968,0.576198
26,65,-0.0872665,-0.698132,-0.174533,0.174533,-0.0796034,-0.690675,-0.156494,0.151485,-0.91957,-0.298251,-0.450968,0.576198
26,65,-0.0872665,-0.698132,-0.174533,0.174533,-0.0796034,-0.690675,-0.156494,0.151485,-0.91957,-0.298251,-0.450968,0.576198
26,65,-0.0872665,-0.698132,-0.174533,0.174533,-0.0796034,-0.690675,-0.156494,0.151485,-0.91957,-0.298251,-0.450968,0.576198
26,65,-0.0872665,-0.698132,-0.174533,0.174533,-0.0796034,-0.690675,-0.156494,0.151485,-0.91957,-0.298251,-0.450968,0.576198
26,65,-0.0872665,-0.698132,-0.174533,0.174533,-0.0796034,-0.690675,-0.156494,0.151485,-0.91957,-0.298251,-0.450968,0.576198
26,65,-0.0872665,-0.698132,-0.174533,0.174533,-0.0796034,-0.690675,-0.156494,0.151485,-0.91957,-0.298251,-0.450968,0.576198
26,65,-0.0872665,-0.698132,-0.174533,0.174533,-0.0796034,-0.690675,-0.156494,0.151485,-0.91957,-0.298251,-0.450968,0.576198
26,65,-0.0872665,-0.698132,-0.174533,0.174533,-0.0796034,-0.690675,-0.156494,0.151485,-0.91957,-0.298251,-0.450968,0.576198
26,65,-0.0872665,-0.698132,-0.174533,0.174533,-0.0796034,-0.690675,-0.156494,0.151485,-0.91957,-0.298251,-0.450968,0.576198
26,65,-0.0872665,-0.698132,-0.174533,0.174533,-0.0796034,-0.690675,-0.156494,0.151485,-0.91957,-0.298251,-0.450968,0.576198
26,65,-0.0872665,-0.698132,-0.174533,0.174533,-0.0796034,-0.690675,-0.156494,0.151485,-0.91957,-0.298251,-0.450968,0.576198
26,65,-0.0872665,-0.698132,-0.174533,0.174533,-0.0796034,-0.690675,-0.156494,0.151485,-0.91957,-0.298251,-0.450968,0.576198
26,65,-0.0872665,-0.698132,-0.174533,0.174533,-0.0796034,-0.690675,-0.156494,0.151485,-0.91957,-0.298251,-0.450968,0.576198
26,65,-0.0872665,-0.698132,-0.174533,0.174533,-0.0796034,-0.690675,-0.156494,0.151485,-0.91957,-0.298251,-0.450968,0.576198
26,65,-0.0872665,-0.698132,-0.174533,0.174533,-0.0796034,-0.690675,-0.156494,0.151485,-0.91957,-0.298251,-0.450968,0.576198
26,65,-0.0872665,-0.698132,-0.174533,0.174533,-0.0796034,-0.690675,-0.156494,0.151485,-0.91957,-0.298251,-0.450968,0.576198
26,65,-0.0872665,-0.698132,-0.174533,0.174533,-0.0796034,-0.690675,-0.156494,0.151485,-0.91957,-0.298251,-0.450968,0.576198
26,65,-0.0872665,-0.698132,-0.174533,0.174533,-0.0796034,-0.690675,-0.156494,0.151485,-0.91957,-0.298251,-0.450968,0.576198
26,65,-0.0872665,-0.698132,-0.174533,0.174533,-0.0796034,-0.690675,-0.156494,0.151485,-0.91957,-0.298251,-0.450968,0.576198
26,65,-0.0872665,-0.698132,-0.174533,0.174533,-0.0796034,-0.690675,-0.156494,0.151485,-0.91957,-0.298251,-0.450968,0.576198
26,65,-0.0872665,-0.698132,-0.174533,0.174533,-0.0796034,-0.690675,-0.156494,0.151485,-0.91957,-0.298251,-0.450968,0.576198
26,65,-0.0872665,-0.698132,-0.174533,0.174533,-0.0796034,-0.690675,-0.156494,0.151485,-0.91957,-0.298251,-0.450968,0.576198
26,65,-0.0872665,-0.698132,-0.174533,0.174533,-0.0796034,-0.690675,-0.156494,0.151485,-0.91957,-0.298251,-0.450968,0.576198
26,65,-0.0872665,-0.698132,-0.174533,0.174533,-0.0796034,-0.690675,-0.156494,0.151485,-0.91957,-0.298251,-0.450968,0.576198
26,65,-0.0872665,-0.698132,-0.174533,0.174533,-0.0796034,-0.690675,-0.156494,0.151485,-0.91957,-0.298251,-0.450968,0.576198
26,65,-0.0872665,-0.698132,-0.174533,0.174533,-0.0796034,-0.690675,-0.156494,0.151485,-0.91957,-0.298251,-0.450968,0.576198
26,65,-0.0872665,-0.698132,-0.174533,0.174533,-0.0796034,-0.690675,-0.156494,0.151485,-0.91957,-0.298251,-0.450968,0.576198
26,65,-0.0872665,-0.698132,-0.174533,0.174533,-0.0796034,-0.690675,-0.156494,0.151485,-0.91957,-0.298251,-0.450968,0.576198
26,65,-0.0872665,-0.698132,-0.174533,0.174533,-0.0796034,-0.690675,-0.156494,0.151485,-0.91957,-0.298251,-0.450968,0.576198
26,65,-0.0872665,-0.698132,-0.174533,0.174533,-0.0796034,-0.690675,-0.156494,0.151485,-0.91957,-0.298251,-0.450968,0.576198
26,65,-0.0872665,-0.698132,-0.174533,0.174533,-0.0796034,-0.690675,-0.156494,0.151485,-0.91957,-0.298251,-0.450968,0.576198
26,65,-0.0872665,-0.698132,-0.174533,0.174533,-0.0796034,-0.690675,-0.156494,0.151485,-0.91957,-0.298251,-0.450968,0.576198
26,65,-0.0872665,-0.698132,-0.174533,0.174533,-0.0796034,-0.690675,-0.156494,0.151485,-0.91957,-0.298251,-0.450968,0.576198
26,65,-0.0872665,-0.698132,-0.174533,0.174533,-0.0796034,-0.690675,-0.156494,0.151485,-0.91957,-0.298251,-0.450968,0.576198
26,65,-0.0872665,-0.698132,-0.174533,0.174533,-0.0796034,-0.690675,-0.156494,0.151485,-0.91957,-0.298251,-0.450968,0.576198
26,65,-0.0872665,-0.698132,-0.174533,0.174533,-0.0796034,-0.690675,-0.156494,0.151485,-0.91957,-0.298251,-0.450968,0.576198
26,65,-0.0872665,-0.698132,-0.174533,0.174533,-0.0796034,-0.690675,-0.156494,0.151485,-0.91957,-0.298251,-0.450968,0.576198
26,65,-0.0872665,-0.698132,-0.174533,0.174533,-0.0796034,-0.690675,-0.156494,0.151485,-0.91957,-0.298251,-0.450968,0.576198
26,65,-0.0872665,-0.698132,-0.174533,0.174533,-0.0796034,-0.690675,-0.156494,0.151485,-0.91957,-0.298251,-0.450968,0.576198
26,65,-0.0872665,-0.698132,-0.174533,0.174533,-0.0796034,-0.690675,-0.156494,0.151485,-0.91957,-0.298251,-0.450968,0.576198
26,65,-0.0872665,-0.698132,-0.174533,0.174533,-0.0796034,-0.690675,-0.156494,0.151485,-0.91957,-0.298251,-0.450968,0.576198
26,65,-0.0872665,-0.698132,-0.174533,0.174533,-0.0796034,-0.690675,-0.156494,0.151485,-0.91957,-0.298251,-0.450968,0.576198
26,65,-0.0872665,-0.698132,-0.174533,0.174533,-0.0796034,-0.690675,-0.156494,0.151485,-0.91957,-0.298251,-0.450968,0.576198
26,65,-0.0872665,-0.698132,-0.174533,0.174533,-0.0796034,-0.690675,-0.156494,0.151485,-0.91957,-0.298251,-0.450968,0.576198
26,65,-0.0872665,-0.698132,-0.174533,0.174533,-0.0796034,-0.690675,-0.156494,0.151485,-0.91957,-0.298251,-0.450968,0.576198
26,65,-0.0872665,-0.698132,-0.174533,0.174533,-0.0796034,-0.690675,-0.156494,0.151485,-0.91957,-0.298251,-0.450968,0.576198
26,65,-0.0872665,-0.698132,-0.174533,0.174533,-0.0796034,-0.690675,-0.156494,0.151485,-0.91957,-0.298251,-0.450968,0.576198
26,65,-0.0872665,-0.698132,-0.174533,0.174533,-0.0796034,-0.690675,-0.156494,0.151485,-0.91957,-0.298251,-0.450968,0.576198
26,65,-0.0872665,-0.698132,-0.174533,0.174533,-0.0796034,-0.690675,-0.156494,0.151485,-0.91957,-0.298251,-0.450968,0.576198
26,65,-0.0872665,-0.698132,-0.174533,0.174533,-0.0796034,-0.690675,-0.156494,0.151485,-0.91957,-0.298251,-0.450968,0.576198
26,65,-0.0872665,-0.698132,-0.174533,0.174533,-0.0796034,-0.690675,-0.156494,0.151485,-0.91957,-0.298251,-0.450968,0.576198
26,65,-0.0872665,-0.698132,-0.174533,0.174533,-0.0796034,-0.690675,-0.156494,0.151485,-0.91957,-0.298251,-0.450968,0.576198
26,65,-0.0872665,-0.698132,-0.174533,0.174533,-0.0796034,-0.690675,-0.156494,0.151485,-0.91957,-0.298251,-0.450968,0.576198
26,65,-0.0872665,-0.698132,-0.174533,0.174533,-0.0796034,-0.690675,-0.156494,0.151485,-0.91957,-0.298251,-0.450968,0.576198
26,65,-0.0872665,-0.698132,-0.174533,0.174533,-0.0796034,-0.690675,-0.156494,0.151485,-0.91957,-0.298251,-0.450968,0.576198
26,65,-0.0872665,-0.698132,-0.174533,0.174533,-0.0796034,-0.690675,-0.156494,0.151485,-0.91957,-0.298251,-0.450968,0.576198
26,65,-0.0872665,-0.698132,-0.174533,0.174533,-0.0796034,-0.690675,-0.156494,0.151485,-0.91957,-0.298251,-0.450968,0.576198
26,65,-0.0872665,-0.698132,-0.174533,0.174533,-0.0796034,-0.690675,-0.156494,0.151485,-0.91957,-0.298251,-0.450968,0.576198
26,65,-0.0872665,-0.698132,-0.174533,0.174533,-0.0796034,-0.690675,-0.156494,0.151485,-0.91957,-0.298251,-0.450968,0.576198
26,65,-0.0872665,-0.698132,-0.174533,0.174533,-0.0796034,-0.690675,-0.156494,0.151485,-0.91957,-0.298251,-0.450968,0.576198
26,65,-0.0872665,-0.698132,-0.174533,0.174533,-0.0796034,-0.690675,-0.156494,0.151485,-0.91957,-0.298251,-0.450968,0.576198
26,65,-0.0872665,-0.698132,-0.174533,0.174533,-0.0796034,-0.690675,-0.156494,0.151485,-0.91957,-0.298251,-0.450968,0.576198
26,65,-0.0872665,-0.698132,-0.174533,0.174533,-0.0796034,-0.690675,-0.156494,0.151485,-0.91957,-0.298251,-0.450968,0.576198
26,65,-0.0872665,-0.698132,-0.174533,0.174533,-0.0796034,-0.690675,-0.156494,0.151485,-0.91957,-0.298251,-0.450968,0.576198
26,65,-0.0872665,-0.698132,-0.174533,0.174533,-0.0796034,-0.690675,-0.156494,0.151485,-0.91957,-0.298251,-0.450968,0.576198
26,65,-0.0872665,-0.698132,-0.174533,0.174533,-0.0796034,-0.690675,-0.156494,0.151485,-0.91957,-0.298251,-0.450968,0.576198
26,65,-0.0872665,-0.698132,-0.174533,0.174533,-0.0796034,-0.690675,-0.156494,0.151485,-0.91957,-0.298251,-0.450968,0.576198
26,65,-0.0872665,-0.698132,-0.174533,0.174533,-0.0796034,-0.690675,-0.156494,0.151485,-0.91957,-0.298251,-0.450968,0.576198
26,65,-0.0872665,-0.698132,-0.174533,0.174533,-0.0796034,-0.690675,-0.156494,0.151485,-0.91957,-0.298251,-0.450968,0.576198
26,65,-0.0872665,-0.698132,-0.174533,0.174533,-0.0796034,-0.690675,-0.156494,0.151485,-0.91957,-0.298251,-0.450968,0.576198
26,65,-0.0872665,-0.698132,-0.174533,0.174533,-0.0796034,-0.690675,-0.156494,0.151485,-0.91957,-0.298251,-0.450968,0.576198
26,65,-0.0872665,-0.698132,-0.174533,0.174533,-0.0796034,-0.690675,-0.156494,0.151485,-0.91957,-0.298251,-0.450968,0.576198
26,65,-0.0872665,-0.698132,-0.174533,0.174533,-0.0796034,-0.690675,-0.156494,0.151485,-0.91957,-0.298251,-0.450968,0.576198
26,65,-0.0872665,-0.698132,-0.174533,0.174533,-0.0796034,-0.690675,-0.156494,0.151485,-0.91957,-0.298251,-0.450968,0.576198
26,65,-0.0872665,-0.698132,-0.174533,0.174533,-0.0796034,-0.690675,-0.156494,0.151485,-0.91957,-0.298251,-0.450968,0.576198
26,65,-0.0872665,-0.698132,-0.174533,0.174533,-0.0796034,-0.690675,-0.156494,0.151485,-0.91957,-0.298251,-0.450968,0.576198
26,65,-0.0872665,-0.698132,-0.174533,0.174533,-0.0796034,-0.690675,-0.156494,0.151485,-0.91957,-0.298251,-0.450968,0.576198
26,65,-0.0872665,-0.698132,-0.174533,0.174533,-0.0796034,-0.690675,-0.156494,0.151485,-0.91957,-0.298251,-0.450968,0.576198
26,65,-0.0872665,-0.698132,-0.174533,0.174533,-0.0796034,-0.690675,-0.156494,0.151485,-0.91957,-0.298251,-0.450968,0.576198
26,65,-0.0872665,-0.698132,-0.174533,0.174533,-0.0796034,-0.690675,-0.156494,0.151485,-0.91957,-0.298251,-0.450968,0.576198
26,65,-0.0872665,-0.698132,-0.174533,0.174533,-0.0796034,-0.690675,-0.156494,0.151485,-0.91957,-0.298251,-0.450968,0.576198
26,65,-0.0872665,-0.698132,-0.174533,0.174533,-0.0796034,-0.690675,-0.156494,0.151485,-0.91957,-0.298251,-0.450968,0.576198
26,65,-0.0872665,-0.698132,-0.174533,0.174533,-0.0796034,-0.690675,-0.156494,0.151485,-0.91957,-0.298251,-0.450968,0.576198
26,65,-0.0872665,-0.698132,-0.174533,0.174533,-0.0796034,-0.690675,-0.156494,0.151485,-0.91957,-0.298251,-0.450968,0.576198
26,65,-0.0872665,-0.698132,-0.174533,0.174533,-0.0796034,-0.690675,-0.156494,0.151485,-0.91957,-0.298251,-0.450968,0.576198
26,65,-0.0872665,-0.698132,-0.174533,0.174533,-0.0796034,-0.690675,-0.156494,0.151485,-0.91957,-0.298251,-0.450968,0.576198
26,65,-0.0872665,-0.698132,-0.174533,0.174533,-0.0796034,-0.690675,-0.156494,0.151485,-0.91957,-0.298251,-0.450968,0.576198
26,65,-0.0872665,-0.698132,-0.174533,0.174533,-0.0796034,-0.690675,-0.156494,0.151485,-0.91957,-0.298251,-0.450968,0.576198
26,65,-0.0872665,-0.698132,-0.174533,0.174533,-0.0796034,-0.690675,-0.156494,0.151485,-0.91957,-0.298251,-0.450968,0.576198
26,65,-0.0872665,-0.698132,-0.174533,0.174533,-0.0796034,-0.690675,-0.156494,0.151485,-0.91957,-0.298251,-0.450968,0.576198
26,65,-0.0872665,-0.698132,-0.174533,0.174533,-0.0796034,-0.690675,-0.156494,0.151485,-0.91957,-0.298251,-0.450968,0.576198
26,65,-0.0872665,-0.698132,-0.174533,0.174533,-0.0796034,-0.690675,-0.156494,0.151485,-0.91957,-0.298251,-0.450968,0.576198
26,65,-0.0872665,-0.698132,-0.174533,0.174533,-0.0796034,-0.690675,-0.156494,0.151485,-0.91957,-0.298251,-0.450968,0.576198
26,65,-0.0872665,-0.698132,-0.174533,0.174533,-0.0796034,-0.690675,-0.156494,0.151485,-0.91957,-0.298251,-0.450968,0.576198
26,65,-0.0872665,-0.698132,-0.174533,0.174533,-0.0796034,-0.690675,-0.156494,0.151485,-0.91957,-0.298251,-0.450968,0.576198
26,65,-0.0872665,-0.698132,-0.174533,0.174533,-0.0796034,-0.690675,-0.156494,0.151485,-0.91957,-0.298251,-0.450968,0.576198
26,65,-0.0872665,-0.698132,-0.174533,0.174533,-0.0796034,-0.690675,-0.156494,0.151485,-0.91957,-0.298251,-0.450968,0.576198
26,65,-0.0872665,-0.698132,-0.174533,0.174533,-0.0796034,-0.690675,-0.156494,0.151485,-0.91957,-0.298251,-0.450968,0.576198
26,65,-0.0872665,-0.698132,-0.174533,0.174533,-0.0796034,-0.690675,-0.156494,0.151485,-0.91957,-0.298251,-0.450968,0.576198
26,65,-0.0872665,-0.698132,-0.174533,0.174533,-0.0796034,-0.690675,-0.156494,0.151485,-0.91957,-0.298251,-0.450968,0.576198
26,65,-0.0872665,-0.698132,-0.174533,0.174533,-0.0796034,-0.690675,-0.156494,0.151485,-0.91957,-0.298251,-0.450968,0.576198
26,65,-0.0872665,-0.698132,-0.174533,0.174533,-0.0796034,-0.690675,-0.156494,0.151485,-0.91957,-0.298251,-0.450968,0.576198
26,65,-0.0872665,-0.698132,-0.174533,0.174533,-0.0796034,-0.690675,-0.156494,0.151485,-0.91957,-0.298251,-0.450968,0.576198
26,65,-0.0872665,-0.698132,-0.174533,0.174533,-0.0796034,-0.690675,-0.156494,0.151485,-0.91957,-0.298251,-0.450968,0.576198
26,65,-0.0872665,-0.698132,-0.174533,0.174533,-0.0796034,-0.690675,-0.156494,0.151485,-0.91957,-0.298251,-0.450968,0.576198
26,65,-0.0872665,-0.698132,-0.174533,0.174533,-0.0796034,-0.690675,-0.156494,0.151485,-0.91957,-0.298251,-0.450968,0.576198
26,65,-0.0872665,-0.698132,-0.174533,0.174533,-0.0796034,-0.690675,-0.156494,0.151485,-0.91957,-0.298251,-0.450968,0.576198
26,65,-0.0872665,-0.698132,-0.174533,0.174533,-0.0796034,-0.690675,-0.156494,0.151485,-0.91957,-0.298251,-0.450968,0.576198
26,65,-0.0872665,-0.698132,-0.174533,0.174533,-0.0796034,-0.690675,-0.156494,0.151485,-0.91957,-0.298251,-0.450968,0.576198
26,65,-0.0872665,-0.698132,-0.174533,0.174533,-0.0796034,-0.690675,-0.156494,0.151485,-0.91957,-0.298251,-0.450968,0.576198
26,65,-0.0872665,-0.698132,-0.174533,0.174533,-0.0796034,-0.690675,-0.156494,0.151485,-0.91957,-0.298251,-0.450968,0.576198
26,65,-0.0872665,-0.698132,-0.174533,0.174533,-0.0796034,-0.690675,-0.156494,0.151485,-0.91957,-0.298251,-0.450968,0.576198
26,65,-0.0872665,-0.698132,-0.174533,0.174533,-0.0796034,-0.690675,-0.156494,0.151485,-0.91957,-0.298251,-0.450968,0.576198
26,65,-0.0872665,-0.698132,-0.174533,0.174533,-0.0796034,-0.690675,-0.156494,0.151485,-0.91957,-0.298251,-0.450968,0.576198
26,65,-0.0872665,-0.698132,-0.174533,0.174533,-0.0796034,-0.690675,-0.156494,0.151485,-0.91957,-0.298251,-0.450968,0.576198
26,65,-0.0872665,-0.698132,-0.174533,0.174533,-0.0796034,-0.690675,-0.156494,0.151485,-0.91957,-0.298251,-0.450968,0.576198
26,65,-0.0872665,-0.698132,-0.174533,0.174533,-0.0796034,-0.690675,-0.156494,0.151485,-0.91957,-0.298251,-0.450968,0.576198
26,65,-0.0872665,-0.698132,-0.174533,0.174533,-0.0796034,-0.690675,-0.156494,0.151485,-0.91957,-0.298251,-0.450968,0.576198
26,65,-0.0872665,-0.698132,-0.174533,0.174533,-0.0796034,-0.690675,-0.156494,0.151485,-0.91957,-0.298251,-0.450968,0.576198
26,65,-0.0872665,-0.698132,-0.174533,0.174533,-0.0796034,-0.690675,-0.156494,0.151485,-0.91957,-0.298251,-0.450968,0.576198
26,65,-0.0872665,-0.698132,-0.174533,0.174533,-0.0796034,-0.690675,-0.156494,0.151485,-0.91957,-0.298251,-0.450968,0.576198
26,65,-0.0872665,-0.698132,-0.174533,0.174533,-0.0796034,-0.690675,-0.156494,0.151485,-0.91957,-0.298251,-0.450968,0.576198
26,65,-0.0872665,-0.698132,-0.174533,0.174533,-0.0796034,-0.690675,-0.156494,0.151485,-0.91957,-0.298251,-0.450968,0.576198
26,65,-0.0872665,-0.698132,-0.174533,0.174533,-0.0796034,-0.690675,-0.156494,0.151485,-0.91957,-0.298251,-0.450968,0.576198
26,65,-0.0872665,-0.698132,-0.174533,0.174533,-0.0796034,-0.690675,-0.156494,0.151485,-0.91957,-0.298251,-0.450968,0.576198
26,65,-0.0872665,-0.698132,-0.174533,0.174533,-0.0796034,-0.690675,-0.156494,0.151485,-0.91957,-0.298251,-0.450968,0.576198
26,65,-0.0872665,-0.698132,-0.174533,0.174533,-0.0796034,-0.690675,-0.156494,0.151485,-0.91957,-0.298251,-0.450968,0.576198
26,65,-0.0872665,-0.698132,-0.174533,0.174533,-0.0796034,-0.690675,-0.156494,0.151485,-0.91957,-0.298251,-0.450968,0.576198
26,65,-0.0872665,-0.698132,-0.174533,0.174533,-0.0796034,-0.690675,-0.156494,0.151485,-0.91957,-0.298251,-0.450968,0.576198
26,65,-0.0872665,-0.698132,-0.174533,0.174533,-0.0796034,-0.690675,-0.156494,0.151485,-0.91957,-0.298251,-0.450968,0.576198
26,65,-0.0872665,-0.698132,-0.174533,0.174533,-0.0796034,-0.690675,-0.156494,0.151485,-0.91957,-0.298251,-0.450968,0.576198
26,65,-0.0872665,-0.698132,-0.174533,0.174533,-0.0796034,-0.690675,-0.156494,0.151485,-0.91957,-0.298251,-0.450968,0.576198
26,65,-0.0872665,-0.698132,-0.174533,0.174533,-0.0796034,-0.690675,-0.156494,0.151485,-0.91957,-0.298251,-0.450968,0.576198
26,65,-0.0872665,-0.698132,-0.174533,0.174533,-0.0796034,-0.690675,-0.156494,0.151485,-0.91957,-0.298251,-0.450968,0.576198
26,65,-0.0872665,-0.698132,-0.174533,0.174533,-0.0796034,-0.690675,-0.156494,0.151485,-0.91957,-0.298251,-0.450968,0.576198
26,65,-0.0872665,-0.698132,-0.174533,0.174533,-0.0796034,-0.690675,-0.156494,0.151485,-0.91957,-0.298251,-0.450968,0.576198
26,65,-0.0872665,-0.698132,-0.174533,0.174533,-0.0796034,-0.690675,-0.156494,0.151485,-0.91957,-0.298251,-0.450968,0.576198
26,65,-0.0872665,-0.698132,-0.174533,0.174533,-0.0796034,-0.690675,-0.156494,0.151485,-0.91957,-0.298251,-0.450968,0.576198
26,65,-0.0872665,-0.698132,-0.174533,0.174533,-0.0796034,-0.690675,-0.156494,0.151485,-0.91957,-0.298251,-0.450968,0.576198
26,65,-0.0872665,-0.698132,-0.174533,0.174533,-0.0796034,-0.690675,-0.156494,0.151485,-0.91957,-0.298251,-0.450968,0.576198
26,65,-0.0872665,-0.698132,-0.174533,0.174533,-0.0796034,-0.690675,-0.156494,0.151485,-0.91957,-0.298251,-0.450968,0.576198
26,65,-0.0872665,-0.698132,-0.174533,0.174533,-0.0796034,-0.690675,-0.156494,0.151485,-0.91957,-0.298251,-0.450968,0.576198
26,65,-0.0872665,-0.698132,-0.174533,0.174533,-0.0796034,-0.690675,-0.156494,0.151485,-0.91957,-0.298251,-0.450968,0.576198
26,65,-0.0872665,-0.698132,-0.174533,0.174533,-0.0796034,-0.690675,-0.156494,0.151485,-0.91957,-0.298251,-0.450968,0.576198
26,65,-0.0872665,-0.698132,-0.174533,0.174533,-0.0796034,-0.690675,-0.156494,0.151485,-0.91957,-0.298251,-0.450968,0.576198
26,65,-0.0872665,-0.698132,-0.174533,0.174533,-0.0796034,-0.690675,-0.156494,0.151485,-0.91957,-0.298251,-0.450968,0.576198
26,65,-0.0872665,-0.698132,-0.174533,0.174533,-0.0796034,-0.690675,-0.156494,0.151485,-0.91957,-0.298251,-0.450968,0.576198
26,65,-0.0872665,-0.698132,-0.174533,0.174533,-0.0796034,-0.690675,-0.156494,0.151485,-0.91957,-0.298251,-0.450968,0.576198
26,65,-0.0872665,-0.698132,-0.174533,0.174533,-0.0796034,-0.690675,-0.156494,0.151485,-0.91957,-0.298251,-0.450968,0.576198
26,65,-0.0872665,-0.698132,-0.174533,0.174533,-0.0796034,-0.690675,-0.156494,0.151485,-0.91957,-0.298251,-0.450968,0.576198
26,65,-0.0872665,-0.698132,-0.174533,0.174533,-0.0796034,-0.690675,-0.156494,0.151485,-0.91957,-0.298251,-0.450968,0.576198
26,65,-0.0872665,-0.698132,-0.174533,0.174533,-0.0796034,-0.690675,-0.156494,0.151485,-0.91957,-0.298251,-0.450968,0.576198
26,65,-0.0872665,-0.698132,-0.174533,0.174533,-0.0796034,-0.690675,-0.156494,0.151485,-0.91957,-0.298251,-0.450968,0.576198
26,65,-0.0872665,-0.698132,-0.174533,0.174533,-0.0796034,-0.690675,-0.156494,0.151485,-0.91957,-0.298251,-0.450968,0.576198
26,65,-0.0872665,-0.698132,-0.174533,0.174533,-0.0796034,-0.690675,-0.156494,0.151485,-0.91957,-0.298251,-0.450968,0.576198
26,65,-0.0872665,-0.698132,-0.174533,0.174533,-0.0796034,-0.690675,-0.156494,0.151485,-0.91957,-0.298251,-0.450968,0.576198
26,65,-0.0872665,-0.698132,-0.174533,0.174533,-0.0796034,-0.690675,-0.156494,0.151485,-0.91957,-0.298251,-0.450968,0.576198
26,65,-0.0872665,-0.698132,-0.174533,0.174533,-0.0796034,-0.690675,-0.156494,0.151485,-0.91957,-0.298251,-0.450968,0.576198
26,65,-0.0872665,-0.698132,-0.174533,0.174533,-0.0796034,-0.690675,-0.156494,0.151485,-0.91957,-0.298251,-0.450968,0.576198
26,65,-0.0872665,-0.698132,-0.174533,0.174533,-0.0796034,-0.690675,-0.156494,0.151485,-0.91957,-0.298251,-0.450968,0.576198
26,65,-0.0872665,-0.698132,-0.174533,0.174533,-0.0796034,-0.690675,-0.156494,0.151485,-0.91957,-0.298251,-0.450968,0.576198
26,65,-0.0872665,-0.698132,-0.174533,0.174533,-0.0796034,-0.690675,-0.156494,0.151485,-0.91957,-0.298251,-0.450968,0.576198
26,65,-0.0872665,-0.698132,-0.174533,0.174533,-0.0796034,-0.690675,-0.156494,0.151485,-0.91957,-0.298251,-0.450968,0.576198
26,65,-0.0872665,-0.698132,-0.174533,0.174533,-0.0796034,-0.690675,-0.156494,0.151485,-0.91957,-0.298251,-0.450968,0.576198
26,65,-0.0872665,-0.698132,-0.174533,0.174533,-0.0796034,-0.690675,-0.156494,0.151485,-0.91957,-0.298251,-0.450968,0.576198
26,65,-0.0872665,-0.698132,-0.174533,0.174533,-0.0796034,-0.690675,-0.156494,0.151485,-0.91957,-0.298251,-0.450968,0.576198
26,65,-0.0872665,-0.698132,-0.174533,0.174533,-0.0796034,-0.690675,-0.156494,0.151485,-0.91957,-0.298251,-0.450968,0.576198
26,65,-0.0872665,-0.698132,-0.174533,0.174533,-0.0796034,-0.690675,-0.156494,0.151485,-0.91957,-0.298251,-0.450968,0.576198
26,65,-0.0872665,-0.698132,-0.174533,0.174533,-0.0796034,-0.690675,-0.156494,0.151485,-0.91957,-0.298251,-0.450968,0.576198
26,65,-0.0872665,-0.698132,-0.174533,0.174533,-0.0796034,-0.690675,-0.156494,0.151485,-0.91957,-0.298251,-0.450968,0.576198
26,65,-0.0872665,-0.698132,-0.174533,0.174533,-0.0796034,-0.690675,-0.156494,0.151485,-0.91957,-0.298251,-0.450968,0.576198
26,65,-0.0872665,-0.698132,-0.174533,0.174533,-0.0796034,-0.690675,-0.156494,0.151485,-0.91957,-0.298251,-0.450968,0.576198
26,65,-0.0872665,-0.698132,-0.174533,0.174533,-0.0796034,-0.690675,-0.156494,0.151485,-0.91957,-0.298251,-0.450968,0.576198
26,65,-0.0872665,-0.698132,-0.174533,0.174533,-0.0796034,-0.690675,-0.156494,0.151485,-0.91957,-0.298251,-0.450968,0.576198
26,65,-0.0872665,-0.698132,-0.174533,0.174533,-0.0796034,-0.690675,-0.156494,0.151485,-0.91957,-0.298251,-0.450968,0.576198
26,65,-0.0872665,-0.698132,-0.174533,0.174533,-0.0796034,-0.690675,-0.156494,0.151485,-0.91957,-0.298251,-0.450968,0.576198
26,65,-0.0872665,-0.698132,-0.174533,0.174533,-0.0796034,-0.690675,-0.156494,0.151485,-0.91957,-0.298251,-0.450968,0.576198
26,65,-0.0872665,-0.698132,-0.174533,0.174533,-0.0796034,-0.690675,-0.156494,0.151485,-0.91957,-0.298251,-0.450968,0.576198
26,65,-0.0872665,-0.698132,-0.174533,0.174533,-0.0796034,-0.690675,-0.156494,0.151485,-0.91957,-0.298251,-0.450968,0.576198
26,65,-0.0872665,-0.698132,-0.174533,0.174533,-0.0796034,-0.690675,-0.156494,0.151485,-0.91957,-0.298251,-0.450968,0.576198
26,65,-0.0872665,-0.698132,-0.174533,0.174533,-0.0796034,-0.690675,-0.156494,0.151485,-0.91957,-0.298251,-0.450968,0.576198
26,65,-0.0872665,-0.698132,-0.174533,0.174533,-0.0796034,-0.690675,-0.156494,0.151485,-0.91957,-0.298251,-0.450968,0.576198
26,65,-0.0872665,-0.698132,-0.174533,0.174533,-0.0796034,-0.690675,-0.156494,0.151485,-0.91957,-0.298251,-0.450968,0.576198
26,65,-0.0872665,-0.698132,-0.174533,0.174533,-0.0796034,-0.690675,-0.156494,0.151485,-0.91957,-0.298251,-0.450968,0.576198
26,65,-0.0872665,-0.698132,-0.174533,0.174533,-0.0796034,-0.690675,-0.156494,0.151485,-0.91957,-0.298251,-0.450968,0.576198
26,65,-0.0872665,-0.698132,-0.174533,0.174533,-0.0796034,-0.690675,-0.156494,0.151485,-0.91957,-0.298251,-0.450968,0.576198
26,65,-0.0872665,-0.698132,-0.174533,0.174533,-0.0796034,-0.690675,-0.156442,0.151458,-0.91957,-0.298251,-0.452276,0.576863
26,65,-0.0872665,-0.698132,-0.174533,0.174533,-0.0796034,-0.690675,-0.156442,0.151458,-0.91957,-0.298251,-0.452276,0.576863
26,65,-0.0872665,-0.698132,-0.174533,0.174533,-0.0796034,-0.690675,-0.156442,0.151458,-0.91957,-0.298251,-0.452276,0.576863
26,65,-0.0872665,-0.698132,-0.174533,0.174533,-0.0796034,-0.690675,-0.156442,0.151458,-0.91957,-0.298251,-0.452276,0.576863
26,65,-0.0872665,-0.698132,-0.174533,0.174533,-0.0796034,-0.690675,-0.156442,0.151458,-0.91957,-0.298251,-0.452276,0.576863
26,65,-0.0872665,-0.698132,-0.174533,0.174533,-0.0796034,-0.690675,-0.156442,0.151458,-0.91957,-0.298251,-0.452276,0.576863
26,65,-0.0872665,-0.698132,-0.174533,0.174533,-0.0796034,-0.690675,-0.156442,0.151458,-0.91957,-0.298251,-0.452276,0.576863
26,65,-0.0872665,-0.698132,-0.174533,0.174533,-0.0796034,-0.690675,-0.156442,0.151458,-0.91957,-0.298251,-0.452276,0.576863
26,65,-0.0872665,-0.698132,-0.174533,0.174533,-0.0796034,-0.690675,-0.156442,0.151458,-0.91957,-0.298251,-0.452276,0.576863
26,65,-0.0872665,-0.698132,-0.174533,0.174533,-0.0796034,-0.690675,-0.156442,0.151458,-0.91957,-0.298251,-0.452276,0.576863
26,65,-0.0872665,-0.698132,-0.174533,0.174533,-0.0796034,-0.690675,-0.156442,0.151458,-0.91957,-0.298251,-0.452276,0.576863
26,65,-0.0872665,-0.698132,-0.174533,0.174533,-0.0796034,-0.690675,-0.156442,0.151458,-0.91957,-0.298251,-0.452276,0.576863
26,65,-0.0872665,-0.698132,-0.174533,0.174533,-0.0796034,-0.690675,-0.156442,0.151458,-0.91957,-0.298251,-0.452276,0.576863
26,65,-0.0872665,-0.698132,-0.174533,0.174533,-0.0796034,-0.690675,-0.156442,0.151458,-0.91957,-0.298251,-0.452276,0.576863
26,65,-0.0872665,-0.698132,-0.174533,0.174533,-0.0796034,-0.690675,-0.156442,0.151458,-0.91957,-0.298251,-0.452276,0.576863
26,65,-0.0872665,-0.698132,-0.174533,0.174533,-0.0796034,-0.690675,-0.156442,0.151458,-0.91957,-0.298251,-0.452276,0.576863
26,65,-0.0872665,-0.698132,-0.174533,0.174533,-0.0796034,-0.690675,-0.156442,0.151458,-0.91957,-0.298251,-0.452276,0.576863
26,65,-0.0872665,-0.698132,-0.174533,0.174533,-0.0796034,-0.690675,-0.156442,0.151458,-0.91957,-0.298251,-0.452276,0.576863
26,65,-0.0872665,-0.698132,-0.174533,0.174533,-0.0796034,-0.690675,-0.15639,0.151432,-0.91957,-0.298251,-0.453584,0.577527
26,65,-0.0872665,-0.698132,-0.174533,0.174533,-0.0796034,-0.690675,-0.15639,0.151432,-0.91957,-0.298251,-0.453584,0.577527
26,65,-0.0872665,-0.698132,-0.174533,0.174533,-0.0796034,-0.690675,-0.15639,0.151432,-0.91957,-0.298251,-0.453584,0.577527
26,65,-0.0872665,-0.698132,-0.174533,0.174533,-0.0796034,-0.690675,-0.15639,0.151432,-0.91957,-0.298251,-0.453584,0.577527
26,65,-0.0872665,-0.698132,-0.174533,0.174533,-0.0796034,-0.690675,-0.15639,0.151432,-0.91957,-0.298251,-0.453584,0.577527
26,65,-0.0872665,-0.698132,-0.174533,0.174533,-0.0796034,-0.690675,-0.15639,0.151432,-0.91957,-0.298251,-0.453584,0.577527
26,65,-0.0872665,-0.698132,-0.174533,0.174533,-0.0796034,-0.690675,-0.15639,0.151432,-0.91957,-0.298251,-0.453584,0.577527
26,65,-0.0872665,-0.698132,-0.174533,0.174533,-0.0796034,-0.690675,-0.15639,0.151432,-0.91957,-0.298251,-0.453584,0.577527
26,65,-0.0872665,-0.698132,-0.174533,0.174533,-0.0796034,-0.690675,-0.15639,0.151432,-0.91957,-0.298251,-0.453584,0.577527
26,65,-0.0872665,-0.698132,-0.174533,0.174533,-0.0796034,-0.690675,-0.15639,0.151432,-0.91957,-0.298251,-0.453584,0.577527
26,65,-0.0872665,-0.698132,-0.174533,0.174533,-0.0796034,-0.690675,-0.15639,0.151432,-0.91957,-0.298251,-0.453584,0.577527
26,65,-0.0872665,-0.698132,-0.174533,0.174533,-0.0796034,-0.690675,-0.15639,0.151432,-0.91957,-0.298251,-0.453584,0.577527
26,65,-0.0872665,-0.698132,-0.174533,0.174533,-0.0796034,-0.690675,-0.15639,0.151432,-0.91957,-0.298251,-0.453584,0.577527
26,65,-0.0872665,-0.698132,-0.174533,0.174533,-0.0796034,-0.690675,-0.15639,0.151432,-0.91957,-0.298251,-0.453584,0.577527
26,65,-0.0872665,-0.698132,-0.174533,0.174533,-0.0796034,-0.690675,-0.156337,0.151405,-0.91957,-0.298251,-0.454892,0.578191
26,65,-0.0872665,-0.698132,-0.174533,0.174533,-0.0796034,-0.690675,-0.156337,0.151405,-0.91957,-0.298251,-0.454892,0.578191
26,65,-0.0872665,-0.698132,-0.174533,0.174533,-0.0796034,-0.690675,-0.156337,0.151405,-0.91957,-0.298251,-0.454892,0.578191
26,65,-0.0872665,-0.698132,-0.174533,0.174533,-0.0796034,-0.690675,-0.156337,0.151405,-0.91957,-0.298251,-0.454892,0.578191
26,65,-0.0872665,-0.698132,-0.174533,0.174533,-0.0796034,-0.690675,-0.156337,0.151405,-0.91957,-0.298251,-0.454892,0.578191
26,65,-0.0872665,-0.698132,-0.174533,0.174533,-0.0796034,-0.690675,-0.156337,0.151405,-0.91957,-0.298251,-0.454892,0.578191
26,65,-0.0872665,-0.698132,-0.174533,0.174533,-0.0796034,-0.690675,-0.156337,0.151405,-0.91957,-0.298251,-0.454892,0.578191
26,65,-0.0872665,-0.698132,-0.174533,0.174533,-0.0796034,-0.690675,-0.156337,0.151405,-0.91957,-0.298251,-0.454892,0.578191
26,65,-0.0872665,-0.698132,-0.174533,0.174533,-0.0796034,-0.690675,-0.156337,0.151405,-0.91957,-0.298251,-0.454892,0.578191
26,65,-0.0872665,-0.698132,-0.174533,0.174533,-0.0796034,-0.690675,-0.156337,0.151405,-0.91957,-0.298251,-0.454892,0.578191
26,65,-0.0872665,-0.698132,-0.174533,0.174533,-0.0796034,-0.690675,-0.156337,0.151405,-0.91957,-0.298251,-0.454892,0.578191
26,65,-0.0872665,-0.698132,-0.174533,0.174533,-0.0796034,-0.690675,-0.156337,0.151405,-0.91957,-0.298251,-0.454892,0.578191
26,65,-0.0872665,-0.698132,-0.174533,0.174533,-0.0796034,-0.690675,-0.156337,0.151405,-0.91957,-0.298251,-0.454892,0.578191
26,65,-0.0872665,-0.698132,-0.174533,0.174533,-0.0796034,-0.690675,-0.156337,0.151405,-0.91957,-0.298251,-0.454892,0.578191
26,65,-0.0872665,-0.698132,-0.174533,0.174533,-0.0796034,-0.690675,-0.156337,0.151405,-0.91957,-0.298251,-0.454892,0.578191
26,65,-0.0872665,-0.698132,-0.174533,0.174533,-0.0796034,-0.690675,-0.156337,0.151405,-0.91957,-0.298251,-0.454892,0.578191
26,65,-0.0872665,-0.698132,-0.174533,0.174533,-0.0796034,-0.690675,-0.156337,0.151405,-0.91957,-0.298251,-0.454892,0.578191
26,65,-0.0872665,-0.698132,-0.174533,0.174533,-0.0796034,-0.690675,-0.156337,0.151405,-0.91957,-0.298251,-0.454892,0.578191
26,65,-0.0872665,-0.698132,-0.174533,0.174533,-0.0796034,-0.690675,-0.156337,0.151405,-0.91957,-0.298251,-0.454892,0.578191
26,65,-0.0872665,-0.698132,-0.174533,0.174533,-0.0796034,-0.690675,-0.156337,0.151405,-0.91957,-0.298251,-0.454892,0.578191
26,65,-0.0872665,-0.698132,-0.174533,0.174533,-0.0796034,-0.690675,-0.156337,0.151405,-0.91957,-0.298251,-0.454892,0.578191
26,65,-0.0872665,-0.698132,-0.174533,0.174533,-0.0796034,-0.690675,-0.156337,0.151405,-0.91957,-0.298251,-0.454892,0.578191
26,65,-0.0872665,-0.698132,-0.174533,0.174533,-0.0796034,-0.690675,-0.156337,0.151405,-0.91957,-0.298251,-0.454892,0.578191
26,65,-0.0872665,-0.698132,-0.174533,0.174533,-0.0796034,-0.690675,-0.156337,0.151405,-0.91957,-0.298251,-0.454892,0.578191
26,65,-0.0872665,-0.698132,-0.174533,0.174533,-0.0796034,-0.690675,-0.156337,0.151405,-0.91957,-0.298251,-0.454892,0.578191
26,65,-0.0872665,-0.698132,-0.174533,0.174533,-0.0796034,-0.690675,-0.156337,0.151405,-0.91957,-0.298251,-0.454892,0.578191
26,65,-0.0872665,-0.698132,-0.174533,0.174533,-0.0796034,-0.690675,-0.156337,0.151405,-0.91957,-0.298251,-0.454892,0.578191
26,65,-0.0872665,-0.698132,-0.174533,0.174533,-0.0796034,-0.690675,-0.156337,0.151405,-0.91957,-0.298251,-0.454892,0.578191
26,65,-0.0872665,-0.698132,-0.174533,0.174533,-0.0796034,-0.690675,-0.156337,0.151405,-0.91957,-0.298251,-0.454892,0.578191
26,65,-0.0872665,-0.698132,-0.174533,0.174533,-0.0796034,-0.690675,-0.156337,0.151405,-0.91957,-0.298251,-0.454892,0.578191
26,65,-0.0872665,-0.698132,-0.174533,0.174533,-0.0796034,-0.690675,-0.156337,0.151405,-0.91957,-0.298251,-0.454892,0.578191
26,65,-0.0872665,-0.698132,-0.174533,0.174533,-0.0796034,-0.690675,-0.156337,0.151405,-0.91957,-0.298251,-0.454892,0.578191
26,65,-0.0872665,-0.698132,-0.174533,0.174533,-0.0796034,-0.690675,-0.156337,0.151405,-0.91957,-0.298251,-0.454892,0.578191
26,65,-0.0872665,-0.698132,-0.174533,0.174533,-0.0796034,-0.690675,-0.156337,0.151405,-0.91957,-0.298251,-0.454892,0.578191
26,65,-0.0872665,-0.698132,-0.174533,0.174533,-0.0796034,-0.690675,-0.156337,0.151405,-0.91957,-0.298251,-0.454892,0.578191
26,65,-0.0872665,-0.698132,-0.174533,0.174533,-0.0796034,-0.690675,-0.156337,0.151405,-0.91957,-0.298251,-0.454892,0.578191
26,65,-0.0872665,-0.698132,-0.174533,0.174533,-0.0796034,-0.690675,-0.156337,0.151405,-0.91957,-0.298251,-0.454892,0.578191
26,65,-0.0872665,-0.698132,-0.174533,0.174533,-0.0796034,-0.690675,-0.156337,0.151405,-0.91957,-0.298251,-0.454892,0.578191
26,65,-0.0872665,-0.698132,-0.174533,0.174533,-0.0796034,-0.690675,-0.156337,0.151405,-0.91957,-0.298251,-0.454892,0.578191
26,65,-0.0872665,-0.698132,-0.174533,0.174533,-0.0796034,-0.690675,-0.156337,0.151405,-0.91957,-0.298251,-0.454892,0.578191
26,65,-0.0872665,-0.698132,-0.174533,0.174533,-0.0796034,-0.690675,-0.156337,0.151405,-0.91957,-0.298251,-0.454892,0.578191
26,65,-0.0872665,-0.698132,-0.174533,0.174533,-0.0796034,-0.690675,-0.156337,0.151405,-0.91957,-0.298251,-0.454892,0.578191
26,65,-0.0872665,-0.698132,-0.174533,0.174533,-0.0796034,-0.690675,-0.156337,0.151405,-0.91957,-0.298251,-0.454892,0.578191
26,65,-0.0872665,-0.698132,-0.174533,0.174533,-0.0796034,-0.690675,-0.156337,0.151405,-0.91957,-0.298251,-0.454892,0.578191
26,65,-0.0872665,-0.698132,-0.174533,0.174533,-0.0796034,-0.690675,-0.156337,0.151405,-0.91957,-0.298251,-0.454892,0.578191
26,65,-0.0872665,-0.698132,-0.174533,0.174533,-0.0796034,-0.690675,-0.156337,0.151405,-0.91957,-0.298251,-0.454892,0.578191
26,65,-0.0872665,-0.698132,-0.174533,0.174533,-0.0796034,-0.690675,-0.156337,0.151405,-0.91957,-0.298251,-0.454892,0.578191
26,65,-0.0872665,-0.698132,-0.174533,0.174533,-0.0796034,-0.690675,-0.156337,0.151405,-0.91957,-0.298251,-0.454892,0.578191
26,65,-0.0872665,-0.698132,-0.174533,0.174533,-0.0796034,-0.690675,-0.156337,0.151405,-0.91957,-0.298251,-0.454892,0.578191
26,65,-0.0872665,-0.698132,-0.174533,0.174533,-0.0796034,-0.690675,-0.156337,0.151405,-0.91957,-0.298251,-0.454892,0.578191
26,65,-0.0872665,-0.698132,-0.174533,0.174533,-0.0796034,-0.690675,-0.156337,0.151405,-0.91957,-0.298251,-0.454892,0.578191
26,65,-0.0872665,-0.698132,-0.174533,0.174533,-0.0796034,-0.690675,-0.156337,0.151405,-0.91957,-0.298251,-0.454892,0.578191
26,65,-0.0872665,-0.698132,-0.174533,0.174533,-0.0796034,-0.690675,-0.156337,0.151405,-0.91957,-0.298251,-0.454892,0.578191
26,65,-0.0872665,-0.698132,-0.174533,0.174533,-0.0796034,-0.690675,-0.156337,0.151405,-0.91957,-0.298251,-0.454892,0.578191
26,65,-0.0872665,-0.698132,-0.174533,0.174533,-0.0796034,-0.690675,-0.156337,0.151405,-0.91957,-0.298251,-0.454892,0.578191
26,65,-0.0872665,-0.698132,-0.174533,0.174533,-0.0796034,-0.690675,-0.156337,0.151405,-0.91957,-0.298251,-0.454892,0.578191
26,65,-0.0872665,-0.698132,-0.174533,0.174533,-0.0796034,-0.690675,-0.156337,0.151405,-0.91957,-0.298251,-0.454892,0.578191
26,65,-0.0872665,-0.698132,-0.174533,0.174533,-0.0796034,-0.690675,-0.156337,0.151405,-0.91957,-0.298251,-0.454892,0.578191
26,65,-0.0872665,-0.698132,-0.174533,0.174533,-0.0796034,-0.690675,-0.156337,0.151405,-0.91957,-0.298251,-0.454892,0.578191
26,65,-0.0872665,-0.698132,-0.174533,0.174533,-0.0796034,-0.690675,-0.156337,0.151405,-0.91957,-0.298251,-0.454892,0.578191
26,65,-0.0872665,-0.698132,-0.174533,0.174533,-0.0796034,-0.690675,-0.156337,0.151405,-0.91957,-0.298251,-0.454892,0.578191
26,65,-0.0872665,-0.698132,-0.174533,0.174533,-0.0796034,-0.690675,-0.156337,0.151405,-0.91957,-0.298251,-0.454892,0.578191
26,65,-0.0872665,-0.698132,-0.174533,0.174533,-0.0796034,-0.690675,-0.156337,0.151405,-0.91957,-0.298251,-0.454892,0.578191
26,65,-0.0872665,-0.698132,-0.174533,0.174533,-0.0796034,-0.690675,-0.156337,0.151405,-0.91957,-0.298251,-0.454892,0.578191
26,65,-0.0872665,-0.698132,-0.174533,0.174533,-0.0796034,-0.690675,-0.156337,0.151405,-0.91957,-0.298251,-0.454892,0.578191
26,65,-0.0872665,-0.698132,-0.174533,0.174533,-0.0796034,-0.690675,-0.156337,0.151405,-0.91957,-0.298251,-0.454892,0.578191
26,65,-0.0872665,-0.698132,-0.174533,0.174533,-0.0796034,-0.690675,-0.156337,0.151405,-0.91957,-0.298251,-0.454892,0.578191
26,65,-0.0872665,-0.698132,-0.174533,0.174533,-0.0796034,-0.690675,-0.156337,0.151405,-0.91957,-0.298251,-0.454892,0.578191
26,65,-0.0872665,-0.698132,-0.174533,0.174533,-0.0796034,-0.690675,-0.156337,0.151405,-0.91957,-0.298251,-0.454892,0.578191
26,65,-0.0872665,-0.698132,-0.174533,0.174533,-0.0796034,-0.690675,-0.156337,0.151405,-0.91957,-0.298251,-0.454892,0.578191
26,65,-0.0872665,-0.698132,-0.174533,0.174533,-0.0796034,-0.690675,-0.156337,0.151405,-0.91957,-0.298251,-0.454892,0.578191
26,65,-0.0872665,-0.698132,-0.174533,0.174533,-0.0796034,-0.690675,-0.156337,0.151405,-0.91957,-0.298251,-0.454892,0.578191
26,65,-0.0872665,-0.698132,-0.174533,0.174533,-0.0796034,-0.690675,-0.156337,0.151405,-0.91957,-0.298251,-0.454892,0.578191
26,65,-0.0872665,-0.698132,-0.174533,0.174533,-0.0796034,-0.690675,-0.156337,0.151405,-0.91957,-0.298251,-0.454892,0.578191
26,65,-0.0872665,-0.698132,-0.174533,0.174533,-0.0796034,-0.690675,-0.156341,0.151477,-0.91957,-0.298251,-0.454804,0.576397
26,65,-0.0872665,-0.698132,-0.174533,0.174533,-0.0796034,-0.690675,-0.156341,0.151477,-0.91957,-0.298251,-0.454804,0.576397
26,65,-0.0872665,-0.698132,-0.174533,0.174533,-0.0796034,-0.690675,-0.156341,0.151477,-0.91957,-0.298251,-0.454804,0.576397
26,65,-0.0872665,-0.698132,-0.174533,0.174533,-0.0796034,-0.690675,-0.156341,0.151477,-0.91957,-0.298251,-0.454804,0.576397
26,65,-0.0872665,-0.698132,-0.174533,0.174533,-0.0796034,-0.690675,-0.156341,0.151477,-0.91957,-0.298251,-0.454804,0.576397
26,65,-0.0872665,-0.698132,-0.174533,0.174533,-0.0796034,-0.690675,-0.156341,0.151477,-0.91957,-0.298251,-0.454804,0.576397
26,65,-0.0872665,-0.698132,-0.174533,0.174533,-0.0796034,-0.690675,-0.156341,0.151477,-0.91957,-0.298251,-0.454804,0.576397
26,65,-0.0872665,-0.698132,-0.174533,0.174533,-0.0796034,-0.690675,-0.156341,0.151477,-0.91957,-0.298251,-0.454804,0.576397
26,65,-0.0872665,-0.698132,-0.174533,0.174533,-0.0796034,-0.690675,-0.156341,0.151477,-0.91957,-0.298251,-0.454804,0.576397
26,65,-0.0872665,-0.698132,-0.174533,0.174533,-0.0796034,-0.690675,-0.156341,0.151477,-0.91957,-0.298251,-0.454804,0.576397
26,65,-0.0872665,-0.698132,-0.174533,0.174533,-0.0796034,-0.690675,-0.156341,0.151477,-0.91957,-0.298251,-0.454804,0.576397
26,65,-0.0872665,-0.698132,-0.174533,0.174533,-0.0796034,-0.690675,-0.156341,0.151477,-0.91957,-0.298251,-0.454804,0.576397
26,65,-0.0872665,-0.698132,-0.174533,0.174533,-0.0796034,-0.690675,-0.156341,0.151477,-0.91957,-0.298251,-0.454804,0.576397
26,65,-0.0872665,-0.698132,-0.174533,0.174533,-0.0796034,-0.690675,-0.156341,0.151477,-0.91957,-0.298251,-0.454804,0.576397
26,65,-0.0872665,-0.698132,-0.174533,0.174533,-0.0796034,-0.690675,-0.156341,0.151477,-0.91957,-0.298251,-0.454804,0.576397
26,65,-0.0872665,-0.698132,-0.174533,0.174533,-0.0796034,-0.690675,-0.156341,0.151477,-0.91957,-0.298251,-0.454804,0.576397
26,65,-0.0872665,-0.698132,-0.174533,0.174533,-0.0796034,-0.690675,-0.156341,0.151477,-0.91957,-0.298251,-0.454804,0.576397
26,65,-0.0872665,-0.698132,-0.174533,0.174533,-0.0796034,-0.690675,-0.156341,0.151477,-0.91957,-0.298251,-0.454804,0.576397
26,65,-0.0872665,-0.698132,-0.174533,0.174533,-0.0796034,-0.690675,-0.156341,0.151477,-0.91957,-0.298251,-0.454804,0.576397
26,65,-0.0872665,-0.698132,-0.174533,0.174533,-0.0796034,-0.690675,-0.156341,0.151477,-0.91957,-0.298251,-0.454804,0.576397
26,65,-0.0872665,-0.698132,-0.174533,0.174533,-0.0796034,-0.690675,-0.156341,0.151477,-0.91957,-0.298251,-0.454804,0.576397
26,65,-0.0872665,-0.698132,-0.174533,0.174533,-0.0796034,-0.690675,-0.156341,0.151477,-0.91957,-0.298251,-0.454804,0.576397
26,65,-0.0872665,-0.698132,-0.174533,0.174533,-0.0796034,-0.690675,-0.156341,0.151477,-0.91957,-0.298251,-0.454804,0.576397
26,65,-0.0872665,-0.698132,-0.174533,0.174533,-0.0796034,-0.690675,-0.156341,0.151477,-0.91957,-0.298251,-0.454804,0.576397
26,65,-0.0872665,-0.698132,-0.174533,0.174533,-0.0796034,-0.690675,-0.156341,0.151477,-0.91957,-0.298251,-0.454804,0.576397
26,65,-0.0872665,-0.698132,-0.174533,0.174533,-0.0796034,-0.690675,-0.156341,0.151477,-0.91957,-0.298251,-0.454804,0.576397
26,65,-0.0872665,-0.698132,-0.174533,0.174533,-0.0796034,-0.690675,-0.156341,0.151477,-0.91957,-0.298251,-0.454804,0.576397
26,65,-0.0872665,-0.698132,-0.174533,0.174533,-0.0796034,-0.690675,-0.156341,0.151477,-0.91957,-0.298251,-0.454804,0.576397
26,65,-0.0872665,-0.698132,-0.174533,0.174533,-0.0796034,-0.690675,-0.156341,0.151477,-0.91957,-0.298251,-0.454804,0.576397
26,65,-0.0872665,-0.698132,-0.174533,0.174533,-0.0796034,-0.690675,-0.156341,0.151477,-0.91957,-0.298251,-0.454804,0.576397
26,65,-0.0872665,-0.698132,-0.174533,0.174533,-0.0796034,-0.690675,-0.156341,0.151477,-0.91957,-0.298251,-0.454804,0.576397
26,65,-0.0872665,-0.698132,-0.174533,0.174533,-0.0796034,-0.690675,-0.156341,0.151477,-0.91957,-0.298251,-0.454804,0.576397
26,65,-0.0872665,-0.698132,-0.174533,0.174533,-0.0796034,-0.690675,-0.156341,0.151477,-0.91957,-0.298251,-0.454804,0.576397
26,65,-0.0872665,-0.698132,-0.174533,0.174533,-0.0796034,-0.690675,-0.156341,0.151477,-0.91957,-0.298251,-0.454804,0.576397
26,65,-0.0872665,-0.698132,-0.174533,0.174533,-0.0796034,-0.690675,-0.156341,0.151477,-0.91957,-0.298251,-0.454804,0.576397
26,65,-0.0872665,-0.698132,-0.174533,0.174533,-0.0796034,-0.690675,-0.156341,0.151477,-0.91957,-0.298251,-0.454804,0.576397
26,65,-0.0872665,-0.698132,-0.174533,0.174533,-0.0796034,-0.690675,-0.156341,0.151477,-0.91957,-0.298251,-0.454804,0.576397
26,65,-0.0872665,-0.698132,-0.174533,0.174533,-0.0796034,-0.690675,-0.156341,0.151477,-0.91957,-0.298251,-0.454804,0.576397
26,65,-0.0872665,-0.698132,-0.174533,0.174533,-0.0796034,-0.690675,-0.156341,0.151477,-0.91957,-0.298251,-0.454804,0.576397
26,65,-0.0872665,-0.698132,-0.174533,0.174533,-0.0796034,-0.690675,-0.156341,0.151477,-0.91957,-0.298251,-0.454804,0.576397
26,65,-0.0872665,-0.698132,-0.174533,0.174533,-0.0796034,-0.690675,-0.156341,0.151477,-0.91957,-0.298251,-0.454804,0.576397
26,65,-0.0872665,-0.698132,-0.174533,0.174533,-0.0796034,-0.690675,-0.156341,0.151477,-0.91957,-0.298251,-0.454804,0.576397
26,65,-0.0872665,-0.698132,-0.174533,0.174533,-0.0796034,-0.690675,-0.156341,0.151477,-0.91957,-0.298251,-0.454804,0.576397
26,65,-0.0872665,-0.698132,-0.174533,0.174533,-0.0796034,-0.690675,-0.156341,0.151477,-0.91957,-0.298251,-0.454804,0.576397
26,65,-0.0872665,-0.698132,-0.174533,0.174533,-0.0796034,-0.690675,-0.156341,0.151477,-0.91957,-0.298251,-0.454804,0.576397
26,65,-0.0872665,-0.698132,-0.174533,0.174533,-0.0796034,-0.690675,-0.156341,0.151477,-0.91957,-0.298251,-0.454804,0.576397
26,65,-0.0872665,-0.698132,-0.174533,0.174533,-0.0796034,-0.690675,-0.156341,0.151477,-0.91957,-0.298251,-0.454804,0.576397
26,65,-0.0872665,-0.698132,-0.174533,0.174533,-0.0796034,-0.690675,-0.156341,0.151477,-0.91957,-0.298251,-0.454804,0.576397
26,65,-0.0872665,-0.698132,-0.174533,0.174533,-0.0796034,-0.690675,-0.156341,0.151477,-0.91957,-0.298251,-0.454804,0.576397
26,65,-0.0872665,-0.698132,-0.174533,0.174533,-0.0796034,-0.690675,-0.156341,0.151477,-0.91957,-0.298251,-0.454804,0.576397
26,65,-0.0872665,-0.698132,-0.174533,0.174533,-0.0796034,-0.690675,-0.156341,0.151477,-0.91957,-0.298251,-0.454804,0.576397
26,65,-0.0872665,-0.698132,-0.174533,0.174533,-0.0796034,-0.690675,-0.156341,0.151477,-0.91957,-0.298251,-0.454804,0.576397
26,65,-0.0872665,-0.698132,-0.174533,0.174533,-0.0796034,-0.690675,-0.156341,0.151477,-0.91957,-0.298251,-0.454804,0.576397
26,65,-0.0872665,-0.698132,-0.174533,0.174533,-0.0796034,-0.690675,-0.156341,0.151477,-0.91957,-0.298251,-0.454804,0.576397
26,65,-0.0872665,-0.698132,-0.174533,0.174533,-0.0796034,-0.690675,-0.156341,0.151477,-0.91957,-0.298251,-0.454804,0.576397
26,65,-0.0872665,-0.698132,-0.174533,0.174533,-0.0796034,-0.690675,-0.156341,0.151477,-0.91957,-0.298251,-0.454804,0.576397
26,65,-0.0872665,-0.698132,-0.174533,0.174533,-0.0796034,-0.690675,-0.156341,0.151477,-0.91957,-0.298251,-0.454804,0.576397
26,65,-0.0872665,-0.698132,-0.174533,0.174533,-0.0796034,-0.690675,-0.156341,0.151477,-0.91957,-0.298251,-0.454804,0.576397
26,65,-0.0872665,-0.698132,-0.174533,0.174533,-0.0796034,-0.690675,-0.156341,0.151477,-0.91957,-0.298251,-0.454804,0.576397
26,65,-0.0872665,-0.698132,-0.174533,0.174533,-0.0796034,-0.690675,-0.156341,0.151477,-0.91957,-0.298251,-0.454804,0.576397
26,65,-0.0872665,-0.698132,-0.174533,0.174533,-0.0796034,-0.690675,-0.156341,0.151477,-0.91957,-0.298251,-0.454804,0.576397
26,65,-0.0872665,-0.698132,-0.174533,0.174533,-0.0796034,-0.690675,-0.156341,0.151477,-0.91957,-0.298251,-0.454804,0.576397
26,65,-0.0872665,-0.698132,-0.174533,0.174533,-0.0796034,-0.690675,-0.156341,0.151477,-0.91957,-0.298251,-0.454804,0.576397
26,65,-0.0872665,-0.698132,-0.174533,0.174533,-0.0796034,-0.690675,-0.156341,0.151477,-0.91957,-0.298251,-0.454804,0.576397
26,65,-0.0872665,-0.698132,-0.174533,0.174533,-0.0796034,-0.690675,-0.156341,0.151477,-0.91957,-0.298251,-0.454804,0.576397
26,65,-0.0872665,-0.698132,-0.174533,0.174533,-0.0796034,-0.690675,-0.156341,0.151477,-0.91957,-0.298251,-0.454804,0.576397
26,65,-0.0872665,-0.698132,-0.174533,0.174533,-0.0796034,-0.690675,-0.156341,0.151477,-0.91957,-0.298251,-0.454804,0.576397
26,65,-0.0872665,-0.698132,-0.174533,0.174533,-0.0796034,-0.690675,-0.156341,0.151477,-0.91957,-0.298251,-0.454804,0.576397
26,65,-0.0872665,-0.698132,-0.174533,0.174533,-0.0796034,-0.690675,-0.156341,0.151477,-0.91957,-0.298251,-0.454804,0.576397
26,65,-0.0872665,-0.698132,-0.174533,0.174533,-0.0796034,-0.690675,-0.156341,0.151477,-0.91957,-0.298251,-0.454804,0.576397
26,65,-0.0872665,-0.698132,-0.174533,0.174533,-0.0796034,-0.690675,-0.156341,0.151477,-0.91957,-0.298251,-0.454804,0.576397
26,65,-0.0872665,-0.698132,-0.174533,0.174533,-0.0796034,-0.690675,-0.156341,0.151477,-0.91957,-0.298251,-0.454804,0.576397
26,65,-0.0872665,-0.698132,-0.174533,0.174533,-0.0796034,-0.690675,-0.156341,0.151477,-0.91957,-0.298251,-0.454804,0.576397
26,65,-0.0872665,-0.698132,-0.174533,0.174533,-0.0796034,-0.690675,-0.156341,0.151477,-0.91957,-0.298251,-0.454804,0.576397
26,65,-0.0872665,-0.698132,-0.174533,0.174533,-0.0796034,-0.690675,-0.156341,0.151477,-0.91957,-0.298251,-0.454804,0.576397
26,65,-0.0872665,-0.698132,-0.174533,0.174533,-0.0796034,-0.690675,-0.156341,0.151477,-0.91957,-0.298251,-0.454804,0.576397
26,65,-0.0872665,-0.698132,-0.174533,0.174533,-0.0796034,-0.690675,-0.156341,0.151477,-0.91957,-0.298251,-0.454804,0.576397
26,65,-0.0872665,-0.698132,-0.174533,0.174533,-0.0796034,-0.690675,-0.156341,0.151477,-0.91957,-0.298251,-0.454804,0.576397
26,65,-0.0872665,-0.698132,-0.174533,0.174533,-0.0796034,-0.690675,-0.156341,0.151477,-0.91957,-0.298251,-0.454804,0.576397
26,65,-0.0872665,-0.698132,-0.174533,0.174533,-0.0796034,-0.690675,-0.156341,0.151477,-0.91957,-0.298251,-0.454804,0.576397
26,65,-0.0872665,-0.698132,-0.174533,0.174533,-0.0796034,-0.690675,-0.156341,0.151477,-0.91957,-0.298251,-0.454804,0.576397
26,65,-0.0872665,-0.698132,-0.174533,0.174533,-0.0796034,-0.690675,-0.156341,0.151477,-0.91957,-0.298251,-0.454804,0.576397
26,65,-0.0872665,-0.698132,-0.174533,0.174533,-0.0796034,-0.690675,-0.156341,0.151477,-0.91957,-0.298251,-0.454804,0.576397
26,65,-0.0872665,-0.698132,-0.174533,0.174533,-0.0796034,-0.690675,-0.156341,0.151477,-0.91957,-0.298251,-0.454804,0.576397
26,65,-0.0872665,-0.698132,-0.174533,0.174533,-0.0796034,-0.690675,-0.156341,0.151477,-0.91957,-0.298251,-0.454804,0.576397
26,65,-0.0872665,-0.698132,-0.174533,0.174533,-0.0796034,-0.690675,-0.156341,0.151477,-0.91957,-0.298251,-0.454804,0.576397
26,65,-0.0872665,-0.698132,-0.174533,0.174533,-0.0796034,-0.690675,-0.156341,0.151477,-0.91957,-0.298251,-0.454804,0.576397
26,65,-0.0872665,-0.698132,-0.174533,0.174533,-0.0796034,-0.690675,-0.156341,0.151477,-0.91957,-0.298251,-0.454804,0.576397
26,65,-0.0872665,-0.698132,-0.174533,0.174533,-0.0796034,-0.690675,-0.156341,0.151477,-0.91957,-0.298251,-0.454804,0.576397
26,65,-0.0872665,-0.698132,-0.174533,0.174533,-0.0796034,-0.690675,-0.156341,0.151477,-0.91957,-0.298251,-0.454804,0.576397
26,65,-0.0872665,-0.698132,-0.174533,0.174533,-0.0796034,-0.690675,-0.156341,0.151477,-0.91957,-0.298251,-0.454804,0.576397
26,65,-0.0872665,-0.698132,-0.174533,0.174533,-0.0796034,-0.690675,-0.156341,0.151477,-0.91957,-0.298251,-0.454804,0.576397
26,65,-0.0872665,-0.698132,-0.174533,0.174533,-0.0796034,-0.690675,-0.156341,0.151477,-0.91957,-0.298251,-0.454804,0.576397
26,65,-0.0872665,-0.698132,-0.174533,0.174533,-0.0796034,-0.690675,-0.156341,0.151477,-0.91957,-0.298251,-0.454804,0.576397
26,65,-0.0872665,-0.698132,-0.174533,0.174533,-0.0796034,-0.690675,-0.156341,0.151477,-0.91957,-0.298251,-0.454804,0.576397
26,65,-0.0872665,-0.698132,-0.174533,0.174533,-0.0796034,-0.690675,-0.156341,0.151477,-0.91957,-0.298251,-0.454804,0.576397
26,65,-0.0872665,-0.698132,-0.174533,0.174533,-0.0796034,-0.690675,-0.156341,0.151477,-0.91957,-0.298251,-0.454804,0.576397
26,65,-0.0872665,-0.698132,-0.174533,0.174533,-0.0796034,-0.690675,-0.156341,0.151477,-0.91957,-0.298251,-0.454804,0.576397
26,65,-0.0872665,-0.698132,-0.174533,0.174533,-0.0796034,-0.690675,-0.156341,0.151477,-0.91957,-0.298251,-0.454804,0.576397
26,65,-0.0872665,-0.698132,-0.174533,0.174533,-0.0796034,-0.690675,-0.156341,0.151477,-0.91957,-0.298251,-0.454804,0.576397
26,65,-0.0872665,-0.698132,-0.174533,0.174533,-0.0796034,-0.690675,-0.156341,0.151477,-0.91957,-0.298251,-0.454804,0.576397
26,65,-0.0872665,-0.698132,-0.174533,0.174533,-0.0796034,-0.690675,-0.156341,0.151477,-0.91957,-0.298251,-0.454804,0.576397
26,65,-0.0872665,-0.698132,-0.174533,0.174533,-0.0796034,-0.690675,-0.156341,0.151477,-0.91957,-0.298251,-0.454804,0.576397
26,65,-0.0872665,-0.698132,-0.174533,0.174533,-0.0796034,-0.690675,-0.156341,0.151477,-0.91957,-0.298251,-0.454804,0.576397
26,65,-0.0872665,-0.698132,-0.174533,0.174533,-0.0796034,-0.690675,-0.156341,0.151477,-0.91957,-0.298251,-0.454804,0.576397
26,65,-0.0872665,-0.698132,-0.174533,0.174533,-0.0796034,-0.690675,-0.156341,0.151477,-0.91957,-0.298251,-0.454804,0.576397
26,65,-0.0872665,-0.698132,-0.174533,0.174533,-0.0796034,-0.690675,-0.156341,0.151477,-0.91957,-0.298251,-0.454804,0.576397
26,65,-0.0872665,-0.698132,-0.174533,0.174533,-0.0796034,-0.690675,-0.156341,0.151477,-0.91957,-0.298251,-0.454804,0.576397
26,65,-0.0872665,-0.698132,-0.174533,0.174533,-0.0796034,-0.690675,-0.156341,0.151477,-0.91957,-0.298251,-0.454804,0.576397
26,65,-0.0872665,-0.698132,-0.174533,0.174533,-0.0796034,-0.690675,-0.156341,0.151477,-0.91957,-0.298251,-0.454804,0.576397
26,65,-0.0872665,-0.698132,-0.174533,0.174533,-0.0796034,-0.690675,-0.156341,0.151477,-0.91957,-0.298251,-0.454804,0.576397
26,65,-0.0872665,-0.698132,-0.174533,0.174533,-0.0796034,-0.690675,-0.156341,0.151477,-0.91957,-0.298251,-0.454804,0.576397
26,65,-0.0872665,-0.698132,-0.174533,0.174533,-0.0796034,-0.690675,-0.156341,0.151477,-0.91957,-0.298251,-0.454804,0.576397
26,65,-0.0872665,-0.698132,-0.174533,0.174533,-0.0796034,-0.690675,-0.156341,0.151477,-0.91957,-0.298251,-0.454804,0.576397
26,65,-0.0872665,-0.698132,-0.174533,0.174533,-0.0796034,-0.690675,-0.156341,0.151477,-0.91957,-0.298251,-0.454804,0.576397
26,65,-0.0872665,-0.698132,-0.174533,0.174533,-0.0796034,-0.690675,-0.156341,0.151477,-0.91957,-0.298251,-0.454804,0.576397
26,65,-0.0872665,-0.698132,-0.174533,0.174533,-0.0796034,-0.690675,-0.156341,0.151477,-0.91957,-0.298251,-0.454804,0.576397
26,65,-0.0872665,-0.698132,-0.174533,0.174533,-0.0796034,-0.690675,-0.156341,0.151477,-0.91957,-0.298251,-0.454804,0.576397
26,65,-0.0872665,-0.698132,-0.174533,0.174533,-0.0796034,-0.690675,-0.156341,0.151477,-0.91957,-0.298251,-0.454804,0.576397
26,65,-0.0872665,-0.698132,-0.174533,0.174533,-0.0796034,-0.690675,-0.156341,0.151477,-0.91957,-0.298251,-0.454804,0.576397
26,65,-0.0872665,-0.698132,-0.174533,0.174533,-0.0796034,-0.690675,-0.156341,0.151477,-0.91957,-0.298251,-0.454804,0.576397
26,65,-0.0872665,-0.698132,-0.174533,0.174533,-0.0796034,-0.690675,-0.156341,0.151477,-0.91957,-0.298251,-0.454804,0.576397
26,65,-0.0872665,-0.698132,-0.174533,0.174533,-0.0796034,-0.690675,-0.156341,0.151477,-0.91957,-0.298251,-0.454804,0.576397
26,65,-0.0872665,-0.698132,-0.174533,0.174533,-0.0796034,-0.690675,-0.156341,0.151477,-0.91957,-0.298251,-0.454804,0.576397
26,65,-0.0872665,-0.698132,-0.174533,0.174533,-0.0796034,-0.690675,-0.156341,0.151477,-0.91957,-0.298251,-0.454804,0.576397
26,65,-0.0872665,-0.698132,-0.174533,0.174533,-0.0796034,-0.690675,-0.156341,0.151477,-0.91957,-0.298251,-0.454804,0.576397
26,65,-0.0872665,-0.698132,-0.174533,0.174533,-0.0796034,-0.690675,-0.156341,0.151477,-0.91957,-0.298251,-0.454804,0.576397
26,65,-0.0872665,-0.698132,-0.174533,0.174533,-0.0796034,-0.690675,-0.156341,0.151477,-0.91957,-0.298251,-0.454804,0.576397
26,65,-0.0872665,-0.698132,-0.174533,0.174533,-0.0796034,-0.690675,-0.156344,0.151549,-0.91957,-0.298251,-0.454716,0.574603
26,65,-0.0872665,-0.698132,-0.174533,0.174533,-0.0796034,-0.690675,-0.156344,0.151549,-0.91957,-0.298251,-0.454716,0.574603
26,65,-0.0872665,-0.698132,-0.174533,0.174533,-0.0796034,-0.690675,-0.156344,0.151549,-0.91957,-0.298251,-0.454716,0.574603
26,65,-0.0872665,-0.698132,-0.174533,0.174533,-0.0796034,-0.690675,-0.156344,0.151549,-0.91957,-0.298251,-0.454716,0.574603
26,65,-0.0872665,-0.698132,-0.174533,0.174533,-0.0796034,-0.690675,-0.156344,0.151549,-0.91957,-0.298251,-0.454716,0.574603
26,65,-0.0872665,-0.698132,-0.174533,0.174533,-0.0796034,-0.690675,-0.156344,0.151549,-0.91957,-0.298251,-0.454716,0.574603
26,65,-0.0872665,-0.698132,-0.174533,0.174533,-0.0796034,-0.690675,-0.156344,0.151549,-0.91957,-0.298251,-0.454716,0.574603
26,65,-0.0872665,-0.698132,-0.174533,0.174533,-0.0796034,-0.690675,-0.156344,0.151549,-0.91957,-0.298251,-0.454716,0.574603
26,65,-0.0872665,-0.698132,-0.174533,0.174533,-0.0796034,-0.690675,-0.156344,0.151549,-0.91957,-0.298251,-0.454716,0.574603
26,65,-0.0872665,-0.698132,-0.174533,0.174533,-0.0796034,-0.690675,-0.156344,0.151549,-0.91957,-0.298251,-0.454716,0.574603
26,65,-0.0872665,-0.698132,-0.174533,0.174533,-0.0796034,-0.690675,-0.156344,0.151549,-0.91957,-0.298251,-0.454716,0.574603
26,65,-0.0872665,-0.698132,-0.174533,0.174533,-0.0796034,-0.690675,-0.156344,0.151549,-0.91957,-0.298251,-0.454716,0.574603
26,65,-0.0872665,-0.698132,-0.174533,0.174533,-0.0796034,-0.690675,-0.156344,0.151549,-0.91957,-0.298251,-0.454716,0.574603
26,65,-0.0872665,-0.698132,-0.174533,0.174533,-0.0796034,-0.690675,-0.156344,0.151549,-0.91957,-0.298251,-0.454716,0.574603
26,65,-0.0872665,-0.698132,-0.174533,0.174533,-0.0796034,-0.690675,-0.156344,0.151549,-0.91957,-0.298251,-0.454716,0.574603
26,65,-0.0872665,-0.698132,-0.174533,0.174533,-0.0796034,-0.690675,-0.156344,0.151549,-0.91957,-0.298251,-0.454716,0.574603
26,65,-0.0872665,-0.698132,-0.174533,0.174533,-0.0796034,-0.690675,-0.156344,0.151549,-0.91957,-0.298251,-0.454716,0.574603
26,65,-0.0872665,-0.698132,-0.174533,0.174533,-0.0796034,-0.690675,-0.156344,0.151549,-0.91957,-0.298251,-0.454716,0.574603
26,65,-0.0872665,-0.698132,-0.174533,0.174533,-0.0796034,-0.690675,-0.156344,0.151549,-0.91957,-0.298251,-0.454716,0.574603
26,65,-0.0872665,-0.698132,-0.174533,0.174533,-0.0796034,-0.690675,-0.156344,0.151549,-0.91957,-0.298251,-0.454716,0.574603
26,65,-0.0872665,-0.698132,-0.174533,0.174533,-0.0796034,-0.690675,-0.156344,0.151549,-0.91957,-0.298251,-0.454716,0.574603
26,65,-0.0872665,-0.698132,-0.174533,0.174533,-0.0796034,-0.690675,-0.156344,0.151549,-0.91957,-0.298251,-0.454716,0.574603
26,65,-0.0872665,-0.698132,-0.174533,0.174533,-0.0796034,-0.690675,-0.156344,0.151549,-0.91957,-0.298251,-0.454716,0.574603
26,65,-0.0872665,-0.698132,-0.174533,0.174533,-0.0796034,-0.690675,-0.156344,0.151549,-0.91957,-0.298251,-0.454716,0.574603
26,65,-0.0872665,-0.698132,-0.174533,0.174533,-0.0796034,-0.690675,-0.156344,0.151549,-0.91957,-0.298251,-0.454716,0.574603
26,65,-0.0872665,-0.698132,-0.174533,0.174533,-0.0796034,-0.690675,-0.156344,0.151549,-0.91957,-0.298251,-0.454716,0.574603
26,65,-0.0872665,-0.698132,-0.174533,0.174533,-0.0796034,-0.690675,-0.156344,0.151549,-0.91957,-0.298251,-0.454716,0.574603
26,65,-0.0872665,-0.698132,-0.174533,0.174533,-0.0796034,-0.690675,-0.156344,0.151549,-0.91957,-0.298251,-0.454716,0.574603
26,65,-0.0872665,-0.698132,-0.174533,0.174533,-0.0796034,-0.690675,-0.156344,0.151549,-0.91957,-0.298251,-0.454716,0.574603
26,65,-0.0872665,-0.698132,-0.174533,0.174533,-0.0796034,-0.690675,-0.156344,0.151549,-0.91957,-0.298251,-0.454716,0.574603
26,65,-0.0872665,-0.698132,-0.174533,0.174533,-0.0796034,-0.690675,-0.156344,0.151549,-0.91957,-0.298251,-0.454716,0.574603
26,65,-0.0872665,-0.698132,-0.174533,0.174533,-0.0796034,-0.690675,-0.156344,0.151549,-0.91957,-0.298251,-0.454716,0.574603
26,65,-0.0872665,-0.698132,-0.174533,0.174533,-0.0796034,-0.690675,-0.156344,0.151549,-0.91957,-0.298251,-0.454716,0.574603
26,65,-0.0872665,-0.698132,-0.174533,0.174533,-0.0796034,-0.690675,-0.156344,0.151549,-0.91957,-0.298251,-0.454716,0.574603
26,65,-0.0872665,-0.698132,-0.174533,0.174533,-0.0796034,-0.690675,-0.156344,0.151549,-0.91957,-0.298251,-0.454716,0.574603
26,65,-0.0872665,-0.698132,-0.174533,0.174533,-0.0796034,-0.690675,-0.156344,0.151549,-0.91957,-0.298251,-0.454716,0.574603
26,65,-0.0872665,-0.698132,-0.174533,0.174533,-0.0796034,-0.690675,-0.156344,0.151549,-0.91957,-0.298251,-0.454716,0.574603
26,65,-0.0872665,-0.698132,-0.174533,0.174533,-0.0796034,-0.690675,-0.156344,0.151549,-0.91957,-0.298251,-0.454716,0.574603
26,65,-0.0872665,-0.698132,-0.174533,0.174533,-0.0796034,-0.690675,-0.156344,0.151549,-0.91957,-0.298251,-0.454716,0.574603
26,65,-0.0872665,-0.698132,-0.174533,0.174533,-0.0796034,-0.690675,-0.156344,0.151549,-0.91957,-0.298251,-0.454716,0.574603
26,65,-0.0872665,-0.698132,-0.174533,0.174533,-0.0796034,-0.690675,-0.156344,0.151549,-0.91957,-0.298251,-0.454716,0.574603
26,65,-0.0872665,-0.698132,-0.174533,0.174533,-0.0796034,-0.690675,-0.156344,0.151549,-0.91957,-0.298251,-0.454716,0.574603
26,65,-0.0872665,-0.698132,-0.174533,0.174533,-0.0796034,-0.690675,-0.156344,0.151549,-0.91957,-0.298251,-0.454716,0.574603
26,65,-0.0872665,-0.698132,-0.174533,0.174533,-0.0796034,-0.690675,-0.156344,0.151549,-0.91957,-0.298251,-0.454716,0.574603
26,65,-0.0872665,-0.698132,-0.174533,0.174533,-0.0796034,-0.690675,-0.156344,0.151549,-0.91957,-0.298251,-0.454716,0.574603
26,65,-0.0872665,-0.698132,-0.174533,0.174533,-0.0796034,-0.690675,-0.156344,0.151549,-0.91957,-0.298251,-0.454716,0.574603
26,65,-0.0872665,-0.698132,-0.174533,0.174533,-0.0796034,-0.690675,-0.156344,0.151549,-0.91957,-0.298251,-0.454716,0.574603
26,65,-0.0872665,-0.698132,-0.174533,0.174533,-0.0796034,-0.690675,-0.156344,0.151549,-0.91957,-0.298251,-0.454716,0.574603
26,65,-0.0872665,-0.698132,-0.174533,0.174533,-0.0796034,-0.690675,-0.156344,0.151549,-0.91957,-0.298251,-0.454716,0.574603
26,65,-0.0872665,-0.698132,-0.174533,0.174533,-0.0796034,-0.690675,-0.156344,0.151549,-0.91957,-0.298251,-0.454716,0.574603
26,65,-0.0872665,-0.698132,-0.174533,0.174533,-0.0796034,-0.690675,-0.156344,0.151549,-0.91957,-0.298251,-0.454716,0.574603
26,65,-0.0872665,-0.698132,-0.174533,0.174533,-0.0796034,-0.690675,-0.156344,0.151549,-0.91957,-0.298251,-0.454716,0.574603
26,65,-0.0872665,-0.698132,-0.174533,0.174533,-0.0796034,-0.690675,-0.156344,0.151549,-0.91957,-0.298251,-0.454716,0.574603
26,65,-0.0872665,-0.698132,-0.174533,0.174533,-0.0796034,-0.690675,-0.156344,0.151549,-0.91957,-0.298251,-0.454716,0.574603
26,65,-0.0872665,-0.698132,-0.174533,0.174533,-0.0796034,-0.690675,-0.156344,0.151549,-0.91957,-0.298251,-0.454716,0.574603
26,65,-0.0872665,-0.698132,-0.174533,0.174533,-0.0796034,-0.690675,-0.156344,0.151549,-0.91957,-0.298251,-0.454716,0.574603
26,65,-0.0872665,-0.698132,-0.174533,0.174533,-0.0796034,-0.690675,-0.156344,0.151549,-0.91957,-0.298251,-0.454716,0.574603
26,65,-0.0872665,-0.698132,-0.174533,0.174533,-0.0796034,-0.690675,-0.156344,0.151549,-0.91957,-0.298251,-0.454716,0.574603
26,65,-0.0872665,-0.698132,-0.174533,0.174533,-0.0796034,-0.690675,-0.156344,0.151549,-0.91957,-0.298251,-0.454716,0.574603
26,65,-0.0872665,-0.698132,-0.174533,0.174533,-0.0796034,-0.690675,-0.156344,0.151549,-0.91957,-0.298251,-0.454716,0.574603
26,65,-0.0872665,-0.698132,-0.174533,0.174533,-0.0796034,-0.690675,-0.156344,0.151549,-0.91957,-0.298251,-0.454716,0.574603
26,65,-0.0872665,-0.698132,-0.174533,0.174533,-0.0796034,-0.690675,-0.156344,0.151549,-0.91957,-0.298251,-0.454716,0.574603
26,65,-0.0872665,-0.698132,-0.174533,0.174533,-0.0796034,-0.690675,-0.156344,0.151549,-0.91957,-0.298251,-0.454716,0.574603
26,65,-0.0872665,-0.698132,-0.174533,0.174533,-0.0796034,-0.690675,-0.156344,0.151549,-0.91957,-0.298251,-0.454716,0.574603
26,65,-0.0872665,-0.698132,-0.174533,0.174533,-0.0796034,-0.690675,-0.156344,0.151549,-0.91957,-0.298251,-0.454716,0.574603
26,65,-0.0872665,-0.698132,-0.174533,0.174533,-0.0796034,-0.690675,-0.156344,0.151549,-0.91957,-0.298251,-0.454716,0.574603
26,65,-0.0872665,-0.698132,-0.174533,0.174533,-0.0796034,-0.690675,-0.156344,0.151549,-0.91957,-0.298251,-0.454716,0.574603
26,65,-0.0872665,-0.698132,-0.174533,0.174533,-0.0796034,-0.690675,-0.156344,0.151549,-0.91957,-0.298251,-0.454716,0.574603
26,65,-0.0872665,-0.698132,-0.174533,0.174533,-0.0796034,-0.690675,-0.156344,0.151549,-0.91957,-0.298251,-0.454716,0.574603
26,65,-0.0872665,-0.698132,-0.174533,0.174533,-0.0796034,-0.690675,-0.156344,0.151549,-0.91957,-0.298251,-0.454716,0.574603
26,65,-0.0872665,-0.698132,-0.174533,0.174533,-0.0796034,-0.690675,-0.156344,0.151549,-0.91957,-0.298251,-0.454716,0.574603
26,65,-0.0872665,-0.698132,-0.174533,0.174533,-0.0796034,-0.690675,-0.156344,0.151549,-0.91957,-0.298251,-0.454716,0.574603
26,65,-0.0872665,-0.698132,-0.174533,0.174533,-0.0796034,-0.690675,-0.156344,0.151549,-0.91957,-0.298251,-0.454716,0.574603
26,65,-0.0872665,-0.698132,-0.174533,0.174533,-0.0796034,-0.690675,-0.156344,0.151549,-0.91957,-0.298251,-0.454716,0.574603
26,65,-0.0872665,-0.698132,-0.174533,0.174533,-0.0796034,-0.690675,-0.156344,0.151549,-0.91957,-0.298251,-0.454716,0.574603
26,65,-0.0872665,-0.698132,-0.174533,0.174533,-0.0796034,-0.690675,-0.156344,0.151549,-0.91957,-0.298251,-0.454716,0.574603
26,65,-0.0872665,-0.698132,-0.174533,0.174533,-0.0796034,-0.690675,-0.156344,0.151549,-0.91957,-0.298251,-0.454716,0.574603
26,65,-0.0872665,-0.698132,-0.174533,0.174533,-0.0796034,-0.690675,-0.156344,0.151549,-0.91957,-0.298251,-0.454716,0.574603
26,65,-0.0872665,-0.698132,-0.174533,0.174533,-0.0796034,-0.690675,-0.156344,0.151549,-0.91957,-0.298251,-0.454716,0.574603
26,65,-0.0872665,-0.698132,-0.174533,0.174533,-0.0796034,-0.690675,-0.156344,0.151549,-0.91957,-0.298251,-0.454716,0.574603
26,65,-0.0872665,-0.698132,-0.174533,0.174533,-0.0796034,-0.690675,-0.156344,0.151549,-0.91957,-0.298251,-0.454716,0.574603
26,65,-0.0872665,-0.698132,-0.174533,0.174533,-0.0796034,-0.690675,-0.156344,0.151549,-0.91957,-0.298251,-0.454716,0.574603
26,65,-0.0872665,-0.698132,-0.174533,0.174533,-0.0796034,-0.690675,-0.156344,0.151549,-0.91957,-0.298251,-0.454716,0.574603
26,65,-0.0872665,-0.698132,-0.174533,0.174533,-0.0796034,-0.690675,-0.156344,0.151549,-0.91957,-0.298251,-0.454716,0.574603
26,65,-0.0872665,-0.698132,-0.174533,0.174533,-0.0796034,-0.690675,-0.156344,0.151549,-0.91957,-0.298251,-0.454716,0.574603
26,65,-0.0872665,-0.698132,-0.174533,0.174533,-0.0796034,-0.690675,-0.156344,0.151549,-0.91957,-0.298251,-0.454716,0.574603
26,65,-0.0872665,-0.698132,-0.174533,0.174533,-0.0796034,-0.690675,-0.156344,0.151549,-0.91957,-0.298251,-0.454716,0.574603
26,65,-0.0872665,-0.698132,-0.174533,0.174533,-0.0796034,-0.690675,-0.156344,0.151549,-0.91957,-0.298251,-0.454716,0.574603
26,65,-0.0872665,-0.698132,-0.174533,0.174533,-0.0796034,-0.690675,-0.156344,0.151549,-0.91957,-0.298251,-0.454716,0.574603
26,65,-0.0872665,-0.698132,-0.174533,0.174533,-0.0796034,-0.690675,-0.156344,0.151549,-0.91957,-0.298251,-0.454716,0.574603
26,65,-0.0872665,-0.698132,-0.174533,0.174533,-0.0796034,-0.690675,-0.156344,0.151549,-0.91957,-0.298251,-0.454716,0.574603
26,65,-0.0872665,-0.698132,-0.174533,0.174533,-0.0796034,-0.690675,-0.156344,0.151549,-0.91957,-0.298251,-0.454716,0.574603
26,65,-0.0872665,-0.698132,-0.174533,0.174533,-0.0796034,-0.690675,-0.156344,0.151549,-0.91957,-0.298251,-0.454716,0.574603
26,65,-0.0872665,-0.698132,-0.174533,0.174533,-0.0796034,-0.690675,-0.156344,0.151549,-0.91957,-0.298251,-0.454716,0.574603
26,65,-0.0872665,-0.698132,-0.174533,0.174533,-0.0796034,-0.690675,-0.156344,0.151549,-0.91957,-0.298251,-0.454716,0.574603
26,65,-0.0872665,-0.698132,-0.174533,0.174533,-0.0796034,-0.690675,-0.156344,0.151549,-0.91957,-0.298251,-0.454716,0.574603
26,65,-0.0872665,-0.698132,-0.174533,0.174533,-0.0796034,-0.690675,-0.156344,0.151549,-0.91957,-0.298251,-0.454716,0.574603
26,65,-0.0872665,-0.698132,-0.174533,0.174533,-0.0796034,-0.690675,-0.156344,0.151549,-0.91957,-0.298251,-0.454716,0.574603
26,65,-0.0872665,-0.698132,-0.174533,0.174533,-0.0796034,-0.690675,-0.156344,0.151549,-0.91957,-0.298251,-0.454716,0.574603
26,65,-0.0872665,-0.698132,-0.174533,0.174533,-0.0796034,-0.690675,-0.156344,0.151549,-0.91957,-0.298251,-0.454716,0.574603
26,65,-0.0872665,-0.698132,-0.174533,0.174533,-0.0796034,-0.690675,-0.156344,0.151549,-0.91957,-0.298251,-0.454716,0.574603
26,65,-0.0872665,-0.698132,-0.174533,0.174533,-0.0796034,-0.690675,-0.156344,0.151549,-0.91957,-0.298251,-0.454716,0.574603
26,65,-0.0872665,-0.698132,-0.174533,0.174533,-0.0796034,-0.690675,-0.156344,0.151549,-0.91957,-0.298251,-0.454716,0.574603
26,65,-0.0872665,-0.698132,-0.174533,0.174533,-0.0796034,-0.690675,-0.156344,0.151549,-0.91957,-0.298251,-0.454716,0.574603
26,65,-0.0872665,-0.698132,-0.174533,0.174533,-0.0796034,-0.690675,-0.156344,0.151549,-0.91957,-0.298251,-0.454716,0.574603
26,65,-0.0872665,-0.698132,-0.174533,0.174533,-0.0796034,-0.690675,-0.156344,0.151549,-0.91957,-0.298251,-0.454716,0.574603
26,65,-0.0872665,-0.698132,-0.174533,0.174533,-0.0796034,-0.690675,-0.156344,0.151549,-0.91957,-0.298251,-0.454716,0.574603
26,65,-0.0872665,-0.698132,-0.174533,0.174533,-0.0796034,-0.690675,-0.156344,0.151549,-0.91957,-0.298251,-0.454716,0.574603
26,65,-0.0872665,-0.698132,-0.174533,0.174533,-0.0796034,-0.690675,-0.156344,0.151549,-0.91957,-0.298251,-0.454716,0.574603
26,65,-0.0872665,-0.698132,-0.174533,0.174533,-0.0796034,-0.690675,-0.156344,0.151549,-0.91957,-0.298251,-0.454716,0.574603
26,65,-0.0872665,-0.698132,-0.174533,0.174533,-0.0796034,-0.690675,-0.156344,0.151549,-0.91957,-0.298251,-0.454716,0.574603
26,65,-0.0872665,-0.698132,-0.174533,0.174533,-0.0796034,-0.690675,-0.156344,0.151549,-0.91957,-0.298251,-0.454716,0.574603
26,65,-0.0872665,-0.698132,-0.174533,0.174533,-0.0796034,-0.690675,-0.156344,0.151549,-0.91957,-0.298251,-0.454716,0.574603
