stim_pw [us],stim_amp [mA],com_elbow_fe [rad],com_forearm_ps [rad],com_wrist_fe [rad],com_wrist_ru [rad],act_elbow_fe [rad],act_forearm_ps [rad],act_wrist_fe [rad],act_wrist_ru [rad],elbow_fe_trq [Nm],forearm_ps_trq [Nm],wrist_fe_trq [Nm],wrist_ru_trq [Nm]
26,65,-0.0872665,-0.698132,-0.174533,0.174533,-0.0858313,-0.69398,-0.160873,0.147667,-0.172215,-0.166065,-0.341489,0.671644
26,65,-0.0872665,-0.698132,-0.174533,0.174533,-0.0858313,-0.69398,-0.160873,0.147667,-0.172215,-0.166065,-0.341489,0.671644
26,65,-0.0872665,-0.698132,-0.174533,0.174533,-0.0858313,-0.69398,-0.160873,0.147667,-0.172215,-0.166065,-0.341489,0.671644
26,65,-0.0872665,-0.698132,-0.174533,0.174533,-0.0858313,-0.69398,-0.160873,0.147667,-0.172215,-0.166065,-0.341489,0.671644
26,65,-0.0872665,-0.698132,-0.174533,0.174533,-0.0858313,-0.69398,-0.160873,0.147667,-0.172215,-0.166065,-0.341489,0.671644
26,65,-0.0872665,-0.698132,-0.174533,0.174533,-0.0858313,-0.69398,-0.160873,0.147667,-0.172215,-0.166065,-0.341489,0.671644
26,65,-0.0872665,-0.698132,-0.174533,0.174533,-0.0858313,-0.69398,-0.160873,0.147667,-0.172215,-0.166065,-0.341489,0.671644
26,65,-0.0872665,-0.698132,-0.174533,0.174533,-0.0858313,-0.69398,-0.160873,0.147667,-0.172215,-0.166065,-0.341489,0.671644
26,65,-0.0872665,-0.698132,-0.174533,0.174533,-0.0858313,-0.69398,-0.160873,0.147667,-0.172215,-0.166065,-0.341489,0.671644
26,65,-0.0872665,-0.698132,-0.174533,0.174533,-0.0858313,-0.69398,-0.160873,0.147667,-0.172215,-0.166065,-0.341489,0.671644
26,65,-0.0872665,-0.698132,-0.174533,0.174533,-0.0858313,-0.69398,-0.160873,0.147667,-0.172215,-0.166065,-0.341489,0.671644
26,65,-0.0872665,-0.698132,-0.174533,0.174533,-0.0858313,-0.69398,-0.160873,0.147667,-0.172215,-0.166065,-0.341489,0.671644
26,65,-0.0872665,-0.698132,-0.174533,0.174533,-0.0858313,-0.69398,-0.160873,0.147667,-0.172215,-0.166065,-0.341489,0.671644
26,65,-0.0872665,-0.698132,-0.174533,0.174533,-0.0858313,-0.69398,-0.160873,0.147667,-0.172215,-0.166065,-0.341489,0.671644
26,65,-0.0872665,-0.698132,-0.174533,0.174533,-0.0858313,-0.69398,-0.160873,0.147667,-0.172215,-0.166065,-0.341489,0.671644
26,65,-0.0872665,-0.698132,-0.174533,0.174533,-0.0858313,-0.69398,-0.160873,0.147667,-0.172215,-0.166065,-0.341489,0.671644
26,65,-0.0872665,-0.698132,-0.174533,0.174533,-0.0858313,-0.69398,-0.160873,0.147667,-0.172215,-0.166065,-0.341489,0.671644
26,65,-0.0872665,-0.698132,-0.174533,0.174533,-0.0858313,-0.69398,-0.160873,0.147667,-0.172215,-0.166065,-0.341489,0.671644
26,65,-0.0872665,-0.698132,-0.174533,0.174533,-0.0858313,-0.69398,-0.160873,0.147667,-0.172215,-0.166065,-0.341489,0.671644
26,65,-0.0872665,-0.698132,-0.174533,0.174533,-0.0858313,-0.69398,-0.160873,0.147667,-0.172215,-0.166065,-0.341489,0.671644
26,65,-0.0872665,-0.698132,-0.174533,0.174533,-0.0858313,-0.69398,-0.160873,0.147667,-0.172215,-0.166065,-0.341489,0.671644
26,65,-0.0872665,-0.698132,-0.174533,0.174533,-0.0858313,-0.69398,-0.160873,0.147667,-0.172215,-0.166065,-0.341489,0.671644
26,65,-0.0872665,-0.698132,-0.174533,0.174533,-0.0858313,-0.69398,-0.160873,0.147667,-0.172215,-0.166065,-0.341489,0.671644
26,65,-0.0872665,-0.698132,-0.174533,0.174533,-0.0858313,-0.69398,-0.160873,0.147667,-0.172215,-0.166065,-0.341489,0.671644
26,65,-0.0872665,-0.698132,-0.174533,0.174533,-0.0858313,-0.69398,-0.160873,0.147667,-0.172215,-0.166065,-0.341489,0.671644
26,65,-0.0872665,-0.698132,-0.174533,0.174533,-0.0858313,-0.69398,-0.160873,0.147667,-0.172215,-0.166065,-0.341489,0.671644
26,65,-0.0872665,-0.698132,-0.174533,0.174533,-0.0858313,-0.69398,-0.160873,0.147667,-0.172215,-0.166065,-0.341489,0.671644
26,65,-0.0872665,-0.698132,-0.174533,0.174533,-0.0858313,-0.69398,-0.160873,0.147667,-0.172215,-0.166065,-0.341489,0.671644
26,65,-0.0872665,-0.698132,-0.174533,0.174533,-0.0858313,-0.69398,-0.160873,0.147667,-0.172215,-0.166065,-0.341489,0.671644
26,65,-0.0872665,-0.698132,-0.174533,0.174533,-0.0858313,-0.69398,-0.160873,0.147667,-0.172215,-0.166065,-0.341489,0.671644
26,65,-0.0872665,-0.698132,-0.174533,0.174533,-0.0858313,-0.69398,-0.160873,0.147667,-0.172215,-0.166065,-0.341489,0.671644
26,65,-0.0872665,-0.698132,-0.174533,0.174533,-0.0858313,-0.69398,-0.160873,0.147667,-0.172215,-0.166065,-0.341489,0.671644
26,65,-0.0872665,-0.698132,-0.174533,0.174533,-0.0858313,-0.69398,-0.160873,0.147667,-0.172215,-0.166065,-0.341489,0.671644
26,65,-0.0872665,-0.698132,-0.174533,0.174533,-0.0858313,-0.69398,-0.160877,0.147739,-0.172215,-0.166065,-0.341405,0.669854
26,65,-0.0872665,-0.698132,-0.174533,0.174533,-0.0858313,-0.69398,-0.160877,0.147739,-0.172215,-0.166065,-0.341405,0.669854
26,65,-0.0872665,-0.698132,-0.174533,0.174533,-0.0858313,-0.69398,-0.160877,0.147739,-0.172215,-0.166065,-0.341405,0.669854
26,65,-0.0872665,-0.698132,-0.174533,0.174533,-0.0858313,-0.69398,-0.160877,0.147739,-0.172215,-0.166065,-0.341405,0.669854
26,65,-0.0872665,-0.698132,-0.174533,0.174533,-0.0858313,-0.69398,-0.160877,0.147739,-0.172215,-0.166065,-0.341405,0.669854
26,65,-0.0872665,-0.698132,-0.174533,0.174533,-0.0858313,-0.69398,-0.160877,0.147739,-0.172215,-0.166065,-0.341405,0.669854
26,65,-0.0872665,-0.698132,-0.174533,0.174533,-0.0858313,-0.69398,-0.160877,0.147739,-0.172215,-0.166065,-0.341405,0.669854
26,65,-0.0872665,-0.698132,-0.174533,0.174533,-0.0858313,-0.69398,-0.160877,0.147739,-0.172215,-0.166065,-0.341405,0.669854
26,65,-0.0872665,-0.698132,-0.174533,0.174533,-0.0858313,-0.69398,-0.160877,0.147739,-0.172215,-0.166065,-0.341405,0.669854
26,65,-0.0872665,-0.698132,-0.174533,0.174533,-0.0858313,-0.69398,-0.160877,0.147739,-0.172215,-0.166065,-0.341405,0.669854
26,65,-0.0872665,-0.698132,-0.174533,0.174533,-0.0858313,-0.69398,-0.160877,0.147739,-0.172215,-0.166065,-0.341405,0.669854
26,65,-0.0872665,-0.698132,-0.174533,0.174533,-0.0858313,-0.69398,-0.160877,0.147739,-0.172215,-0.166065,-0.341405,0.669854
26,65,-0.0872665,-0.698132,-0.174533,0.174533,-0.0858313,-0.69398,-0.160877,0.147739,-0.172215,-0.166065,-0.341405,0.669854
26,65,-0.0872665,-0.698132,-0.174533,0.174533,-0.0858313,-0.69398,-0.160877,0.147739,-0.172215,-0.166065,-0.341405,0.669854
26,65,-0.0872665,-0.698132,-0.174533,0.174533,-0.0858313,-0.69398,-0.160877,0.147739,-0.172215,-0.166065,-0.341405,0.669854
26,65,-0.0872665,-0.698132,-0.174533,0.174533,-0.0858313,-0.69398,-0.160824,0.147712,-0.172215,-0.166065,-0.342714,0.670513
26,65,-0.0872665,-0.698132,-0.174533,0.174533,-0.0858313,-0.69398,-0.160824,0.147712,-0.172215,-0.166065,-0.342714,0.670513
26,65,-0.0872665,-0.698132,-0.174533,0.174533,-0.0858313,-0.69398,-0.160824,0.147712,-0.172215,-0.166065,-0.342714,0.670513
26,65,-0.0872665,-0.698132,-0.174533,0.174533,-0.0858313,-0.69398,-0.160824,0.147712,-0.172215,-0.166065,-0.342714,0.670513
26,65,-0.0872665,-0.698132,-0.174533,0.174533,-0.0858313,-0.69398,-0.160824,0.147712,-0.172215,-0.166065,-0.342714,0.670513
26,65,-0.0872665,-0.698132,-0.174533,0.174533,-0.0858313,-0.69398,-0.160824,0.147712,-0.172215,-0.166065,-0.342714,0.670513
26,65,-0.0872665,-0.698132,-0.174533,0.174533,-0.0858313,-0.69398,-0.160824,0.147712,-0.172215,-0.166065,-0.342714,0.670513
26,65,-0.0872665,-0.698132,-0.174533,0.174533,-0.0858313,-0.69398,-0.160824,0.147712,-0.172215,-0.166065,-0.342714,0.670513
26,65,-0.0872665,-0.698132,-0.174533,0.174533,-0.0858313,-0.69398,-0.160824,0.147712,-0.172215,-0.166065,-0.342714,0.670513
26,65,-0.0872665,-0.698132,-0.174533,0.174533,-0.0858313,-0.69398,-0.160824,0.147712,-0.172215,-0.166065,-0.342714,0.670513
26,65,-0.0872665,-0.698132,-0.174533,0.174533,-0.0858313,-0.69398,-0.160824,0.147712,-0.172215,-0.166065,-0.342714,0.670513
26,65,-0.0872665,-0.698132,-0.174533,0.174533,-0.0858313,-0.69398,-0.160824,0.147712,-0.172215,-0.166065,-0.342714,0.670513
26,65,-0.0872665,-0.698132,-0.174533,0.174533,-0.0858313,-0.69398,-0.160824,0.147712,-0.172215,-0.166065,-0.342714,0.670513
26,65,-0.0872665,-0.698132,-0.174533,0.174533,-0.0858313,-0.69398,-0.160824,0.147712,-0.172215,-0.166065,-0.342714,0.670513
26,65,-0.0872665,-0.698132,-0.174533,0.174533,-0.0858313,-0.69398,-0.160824,0.147712,-0.172215,-0.166065,-0.342714,0.670513
26,65,-0.0872665,-0.698132,-0.174533,0.174533,-0.0858313,-0.69398,-0.160824,0.147712,-0.172215,-0.166065,-0.342714,0.670513
26,65,-0.0872665,-0.698132,-0.174533,0.174533,-0.0858313,-0.69398,-0.160824,0.147712,-0.172215,-0.166065,-0.342714,0.670513
26,65,-0.0872665,-0.698132,-0.174533,0.174533,-0.0858313,-0.69398,-0.160824,0.147712,-0.172215,-0.166065,-0.342714,0.670513
26,65,-0.0872665,-0.698132,-0.174533,0.174533,-0.0858313,-0.69398,-0.160824,0.147712,-0.172215,-0.166065,-0.342714,0.670513
26,65,-0.0872665,-0.698132,-0.174533,0.174533,-0.0858313,-0.69398,-0.160824,0.147712,-0.172215,-0.166065,-0.342714,0.670513
26,65,-0.0872665,-0.698132,-0.174533,0.174533,-0.0858313,-0.69398,-0.160824,0.147712,-0.172215,-0.166065,-0.342714,0.670513
26,65,-0.0872665,-0.698132,-0.174533,0.174533,-0.0858313,-0.69398,-0.160824,0.147712,-0.172215,-0.166065,-0.342714,0.670513
26,65,-0.0872665,-0.698132,-0.174533,0.174533,-0.0858313,-0.69398,-0.160824,0.147712,-0.172215,-0.166065,-0.342714,0.670513
26,65,-0.0872665,-0.698132,-0.174533,0.174533,-0.0858313,-0.69398,-0.160828,0.147784,-0.172215,-0.166065,-0.34263,0.668723
26,65,-0.0872665,-0.698132,-0.174533,0.174533,-0.0858313,-0.69398,-0.160828,0.147784,-0.172215,-0.166065,-0.34263,0.668723
26,65,-0.0872665,-0.698132,-0.174533,0.174533,-0.0858313,-0.69398,-0.160828,0.147784,-0.172215,-0.166065,-0.34263,0.668723
26,65,-0.0872665,-0.698132,-0.174533,0.174533,-0.0858313,-0.69398,-0.160828,0.147784,-0.172215,-0.166065,-0.34263,0.668723
26,65,-0.0872665,-0.698132,-0.174533,0.174533,-0.0858313,-0.69398,-0.160828,0.147784,-0.172215,-0.166065,-0.34263,0.668723
26,65,-0.0872665,-0.698132,-0.174533,0.174533,-0.0858313,-0.69398,-0.160828,0.147784,-0.172215,-0.166065,-0.34263,0.668723
26,65,-0.0872665,-0.698132,-0.174533,0.174533,-0.0858313,-0.69398,-0.160828,0.147784,-0.172215,-0.166065,-0.34263,0.668723
26,65,-0.0872665,-0.698132,-0.174533,0.174533,-0.0858313,-0.69398,-0.160828,0.147784,-0.172215,-0.166065,-0.34263,0.668723
26,65,-0.0872665,-0.698132,-0.174533,0.174533,-0.0858313,-0.69398,-0.160828,0.147784,-0.172215,-0.166065,-0.34263,0.668723
26,65,-0.0872665,-0.698132,-0.174533,0.174533,-0.0858313,-0.69398,-0.160828,0.147784,-0.172215,-0.166065,-0.34263,0.668723
26,65,-0.0872665,-0.698132,-0.174533,0.174533,-0.0858313,-0.69398,-0.160828,0.147784,-0.172215,-0.166065,-0.34263,0.668723
26,65,-0.0872665,-0.698132,-0.174533,0.174533,-0.0858313,-0.69398,-0.160828,0.147784,-0.172215,-0.166065,-0.34263,0.668723
26,65,-0.0872665,-0.698132,-0.174533,0.174533,-0.0858313,-0.69398,-0.160828,0.147784,-0.172215,-0.166065,-0.34263,0.668723
26,65,-0.0872665,-0.698132,-0.174533,0.174533,-0.0858313,-0.69398,-0.160828,0.147784,-0.172215,-0.166065,-0.34263,0.668723
26,65,-0.0872665,-0.698132,-0.174533,0.174533,-0.0858313,-0.69398,-0.160828,0.147784,-0.172215,-0.166065,-0.34263,0.668723
26,65,-0.0872665,-0.698132,-0.174533,0.174533,-0.0858313,-0.69398,-0.160828,0.147784,-0.172215,-0.166065,-0.34263,0.668723
26,65,-0.0872665,-0.698132,-0.174533,0.174533,-0.0858313,-0.69398,-0.160828,0.147784,-0.172215,-0.166065,-0.34263,0.668723
26,65,-0.0872665,-0.698132,-0.174533,0.174533,-0.0858313,-0.69398,-0.160828,0.147784,-0.172215,-0.166065,-0.34263,0.668723
26,65,-0.0872665,-0.698132,-0.174533,0.174533,-0.0858313,-0.69398,-0.160828,0.147784,-0.172215,-0.166065,-0.34263,0.668723
26,65,-0.0872665,-0.698132,-0.174533,0.174533,-0.0858313,-0.69398,-0.160828,0.147784,-0.172215,-0.166065,-0.34263,0.668723
26,65,-0.0872665,-0.698132,-0.174533,0.174533,-0.0858313,-0.69398,-0.160828,0.147784,-0.172215,-0.166065,-0.34263,0.668723
26,65,-0.0872665,-0.698132,-0.174533,0.174533,-0.0858313,-0.69398,-0.160828,0.147784,-0.172215,-0.166065,-0.34263,0.668723
26,65,-0.0872665,-0.698132,-0.174533,0.174533,-0.0858313,-0.69398,-0.160775,0.147758,-0.172215,-0.166065,-0.343938,0.669382
26,65,-0.0872665,-0.698132,-0.174533,0.174533,-0.0858313,-0.69398,-0.160775,0.147758,-0.172215,-0.166065,-0.343938,0.669382
26,65,-0.0872665,-0.698132,-0.174533,0.174533,-0.0858313,-0.69398,-0.160775,0.147758,-0.172215,-0.166065,-0.343938,0.669382
26,65,-0.0872665,-0.698132,-0.174533,0.174533,-0.0858313,-0.69398,-0.160775,0.147758,-0.172215,-0.166065,-0.343938,0.669382
26,65,-0.0872665,-0.698132,-0.174533,0.174533,-0.0858313,-0.69398,-0.160779,0.147829,-0.172215,-0.166065,-0.343854,0.667592
26,65,-0.0872665,-0.698132,-0.174533,0.174533,-0.0858313,-0.69398,-0.160779,0.147829,-0.172215,-0.166065,-0.343854,0.667592
26,65,-0.0872665,-0.698132,-0.174533,0.174533,-0.0858313,-0.69398,-0.160779,0.147829,-0.172215,-0.166065,-0.343854,0.667592
26,65,-0.0872665,-0.698132,-0.174533,0.174533,-0.0858313,-0.69398,-0.160779,0.147829,-0.172215,-0.166065,-0.343854,0.667592
26,65,-0.0872665,-0.698132,-0.174533,0.174533,-0.0858313,-0.69398,-0.160779,0.147829,-0.172215,-0.166065,-0.343854,0.667592
26,65,-0.0872665,-0.698132,-0.174533,0.174533,-0.0858313,-0.69398,-0.160779,0.147829,-0.172215,-0.166065,-0.343854,0.667592
26,65,-0.0872665,-0.698132,-0.174533,0.174533,-0.0858313,-0.69398,-0.160779,0.147829,-0.172215,-0.166065,-0.343854,0.667592
26,65,-0.0872665,-0.698132,-0.174533,0.174533,-0.0858313,-0.69398,-0.160779,0.147829,-0.172215,-0.166065,-0.343854,0.667592
26,65,-0.0872665,-0.698132,-0.174533,0.174533,-0.0858313,-0.69398,-0.160779,0.147829,-0.172215,-0.166065,-0.343854,0.667592
26,65,-0.0872665,-0.698132,-0.174533,0.174533,-0.0858313,-0.69398,-0.160779,0.147829,-0.172215,-0.166065,-0.343854,0.667592
26,65,-0.0872665,-0.698132,-0.174533,0.174533,-0.0858313,-0.69398,-0.160779,0.147829,-0.172215,-0.166065,-0.343854,0.667592
26,65,-0.0872665,-0.698132,-0.174533,0.174533,-0.0858313,-0.69398,-0.160779,0.147829,-0.172215,-0.166065,-0.343854,0.667592
26,65,-0.0872665,-0.698132,-0.174533,0.174533,-0.0858313,-0.69398,-0.160779,0.147829,-0.172215,-0.166065,-0.343854,0.667592
26,65,-0.0872665,-0.698132,-0.174533,0.174533,-0.0858313,-0.69398,-0.160779,0.147829,-0.172215,-0.166065,-0.343854,0.667592
26,65,-0.0872665,-0.698132,-0.174533,0.174533,-0.0858313,-0.69398,-0.160779,0.147829,-0.172215,-0.166065,-0.343854,0.667592
26,65,-0.0872665,-0.698132,-0.174533,0.174533,-0.0858313,-0.69398,-0.160779,0.147829,-0.172215,-0.166065,-0.343854,0.667592
26,65,-0.0872665,-0.698132,-0.174533,0.174533,-0.0858313,-0.69398,-0.160779,0.147829,-0.172215,-0.166065,-0.343854,0.667592
26,65,-0.0872665,-0.698132,-0.174533,0.174533,-0.0858313,-0.69398,-0.160779,0.147829,-0.172215,-0.166065,-0.343854,0.667592
26,65,-0.0872665,-0.698132,-0.174533,0.174533,-0.0858313,-0.69398,-0.160779,0.147829,-0.172215,-0.166065,-0.343854,0.667592
26,65,-0.0872665,-0.698132,-0.174533,0.174533,-0.0858313,-0.69398,-0.160779,0.147829,-0.172215,-0.166065,-0.343854,0.667592
26,65,-0.0872665,-0.698132,-0.174533,0.174533,-0.0858313,-0.69398,-0.160726,0.147803,-0.172215,-0.166065,-0.345163,0.668251
26,65,-0.0872665,-0.698132,-0.174533,0.174533,-0.0858313,-0.69398,-0.160726,0.147803,-0.172215,-0.166065,-0.345163,0.668251
26,65,-0.0872665,-0.698132,-0.174533,0.174533,-0.0858313,-0.69398,-0.160726,0.147803,-0.172215,-0.166065,-0.345163,0.668251
26,65,-0.0872665,-0.698132,-0.174533,0.174533,-0.0858313,-0.69398,-0.160726,0.147803,-0.172215,-0.166065,-0.345163,0.668251
26,65,-0.0872665,-0.698132,-0.174533,0.174533,-0.0858313,-0.69398,-0.160726,0.147803,-0.172215,-0.166065,-0.345163,0.668251
26,65,-0.0872665,-0.698132,-0.174533,0.174533,-0.0858313,-0.69398,-0.160726,0.147803,-0.172215,-0.166065,-0.345163,0.668251
26,65,-0.0872665,-0.698132,-0.174533,0.174533,-0.0858313,-0.69398,-0.160726,0.147803,-0.172215,-0.166065,-0.345163,0.668251
26,65,-0.0872665,-0.698132,-0.174533,0.174533,-0.0858313,-0.69398,-0.160726,0.147803,-0.172215,-0.166065,-0.345163,0.668251
26,65,-0.0872665,-0.698132,-0.174533,0.174533,-0.0858313,-0.69398,-0.160726,0.147803,-0.172215,-0.166065,-0.345163,0.668251
26,65,-0.0872665,-0.698132,-0.174533,0.174533,-0.0858313,-0.69398,-0.160726,0.147803,-0.172215,-0.166065,-0.345163,0.668251
26,65,-0.0872665,-0.698132,-0.174533,0.174533,-0.0858313,-0.69398,-0.160726,0.147803,-0.172215,-0.166065,-0.345163,0.668251
26,65,-0.0872665,-0.698132,-0.174533,0.174533,-0.0858313,-0.69398,-0.160726,0.147803,-0.172215,-0.166065,-0.345163,0.668251
26,65,-0.0872665,-0.698132,-0.174533,0.174533,-0.0858313,-0.69398,-0.160726,0.147803,-0.172215,-0.166065,-0.345163,0.668251
26,65,-0.0872665,-0.698132,-0.174533,0.174533,-0.0858313,-0.69398,-0.160726,0.147803,-0.172215,-0.166065,-0.345163,0.668251
26,65,-0.0872665,-0.698132,-0.174533,0.174533,-0.0858313,-0.69398,-0.160726,0.147803,-0.172215,-0.166065,-0.345163,0.668251
26,65,-0.0872665,-0.698132,-0.174533,0.174533,-0.0858313,-0.69398,-0.160726,0.147803,-0.172215,-0.166065,-0.345163,0.668251
26,65,-0.0872665,-0.698132,-0.174533,0.174533,-0.0858313,-0.69398,-0.160726,0.147803,-0.172215,-0.166065,-0.345163,0.668251
26,65,-0.0872665,-0.698132,-0.174533,0.174533,-0.0858313,-0.69398,-0.160726,0.147803,-0.172215,-0.166065,-0.345163,0.668251
26,65,-0.0872665,-0.698132,-0.174533,0.174533,-0.0858313,-0.69398,-0.160726,0.147803,-0.172215,-0.166065,-0.345163,0.668251
26,65,-0.0872665,-0.698132,-0.174533,0.174533,-0.0858313,-0.69398,-0.160726,0.147803,-0.172215,-0.166065,-0.345163,0.668251
26,65,-0.0872665,-0.698132,-0.174533,0.174533,-0.0858313,-0.69398,-0.160726,0.147803,-0.172215,-0.166065,-0.345163,0.668251
26,65,-0.0872665,-0.698132,-0.174533,0.174533,-0.0858313,-0.69398,-0.160674,0.147776,-0.172215,-0.166065,-0.346471,0.668911
26,65,-0.0872665,-0.698132,-0.174533,0.174533,-0.0858313,-0.69398,-0.160674,0.147776,-0.172215,-0.166065,-0.346471,0.668911
26,65,-0.0872665,-0.698132,-0.174533,0.174533,-0.0858313,-0.69398,-0.160674,0.147776,-0.172215,-0.166065,-0.346471,0.668911
26,65,-0.0872665,-0.698132,-0.174533,0.174533,-0.0858313,-0.69398,-0.160674,0.147776,-0.172215,-0.166065,-0.346471,0.668911
26,65,-0.0872665,-0.698132,-0.174533,0.174533,-0.0858313,-0.69398,-0.160674,0.147776,-0.172215,-0.166065,-0.346471,0.668911
26,65,-0.0872665,-0.698132,-0.174533,0.174533,-0.0858313,-0.69398,-0.160674,0.147776,-0.172215,-0.166065,-0.346471,0.668911
26,65,-0.0872665,-0.698132,-0.174533,0.174533,-0.0858313,-0.69398,-0.160674,0.147776,-0.172215,-0.166065,-0.346471,0.668911
26,65,-0.0872665,-0.698132,-0.174533,0.174533,-0.0858313,-0.69398,-0.160674,0.147776,-0.172215,-0.166065,-0.346471,0.668911
26,65,-0.0872665,-0.698132,-0.174533,0.174533,-0.0858313,-0.69398,-0.160674,0.147776,-0.172215,-0.166065,-0.346471,0.668911
26,65,-0.0872665,-0.698132,-0.174533,0.174533,-0.0858313,-0.69398,-0.160674,0.147776,-0.172215,-0.166065,-0.346471,0.668911
26,65,-0.0872665,-0.698132,-0.174533,0.174533,-0.0858313,-0.69398,-0.160674,0.147776,-0.172215,-0.166065,-0.346471,0.668911
26,65,-0.0872665,-0.698132,-0.174533,0.174533,-0.0858313,-0.69398,-0.160674,0.147776,-0.172215,-0.166065,-0.346471,0.668911
26,65,-0.0872665,-0.698132,-0.174533,0.174533,-0.0858313,-0.69398,-0.160677,0.147848,-0.172215,-0.166065,-0.346387,0.66712
26,65,-0.0872665,-0.698132,-0.174533,0.174533,-0.0858313,-0.69398,-0.160677,0.147848,-0.172215,-0.166065,-0.346387,0.66712
26,65,-0.0872665,-0.698132,-0.174533,0.174533,-0.0858313,-0.69398,-0.160677,0.147848,-0.172215,-0.166065,-0.346387,0.66712
26,65,-0.0872665,-0.698132,-0.174533,0.174533,-0.0858313,-0.69398,-0.160677,0.147848,-0.172215,-0.166065,-0.346387,0.66712
26,65,-0.0872665,-0.698132,-0.174533,0.174533,-0.0858313,-0.69398,-0.160677,0.147848,-0.172215,-0.166065,-0.346387,0.66712
26,65,-0.0872665,-0.698132,-0.174533,0.174533,-0.0858313,-0.69398,-0.160677,0.147848,-0.172215,-0.166065,-0.346387,0.66712
26,65,-0.0872665,-0.698132,-0.174533,0.174533,-0.0858313,-0.69398,-0.160677,0.147848,-0.172215,-0.166065,-0.346387,0.66712
26,65,-0.0872665,-0.698132,-0.174533,0.174533,-0.0858313,-0.69398,-0.160677,0.147848,-0.172215,-0.166065,-0.346387,0.66712
26,65,-0.0872665,-0.698132,-0.174533,0.174533,-0.0858313,-0.69398,-0.160677,0.147848,-0.172215,-0.166065,-0.346387,0.66712
26,65,-0.0872665,-0.698132,-0.174533,0.174533,-0.0858313,-0.69398,-0.160677,0.147848,-0.172215,-0.166065,-0.346387,0.66712
26,65,-0.0872665,-0.698132,-0.174533,0.174533,-0.0858313,-0.69398,-0.160677,0.147848,-0.172215,-0.166065,-0.346387,0.66712
26,65,-0.0872665,-0.698132,-0.174533,0.174533,-0.0858313,-0.69398,-0.160677,0.147848,-0.172215,-0.166065,-0.346387,0.66712
26,65,-0.0872665,-0.698132,-0.174533,0.174533,-0.0858313,-0.69398,-0.160677,0.147848,-0.172215,-0.166065,-0.346387,0.66712
26,65,-0.0872665,-0.698132,-0.174533,0.174533,-0.0858313,-0.69398,-0.160677,0.147848,-0.172215,-0.166065,-0.346387,0.66712
26,65,-0.0872665,-0.698132,-0.174533,0.174533,-0.0858313,-0.69398,-0.160677,0.147848,-0.172215,-0.166065,-0.346387,0.66712
26,65,-0.0872665,-0.698132,-0.174533,0.174533,-0.0858313,-0.69398,-0.160677,0.147848,-0.172215,-0.166065,-0.346387,0.66712
26,65,-0.0872665,-0.698132,-0.174533,0.174533,-0.0858313,-0.69398,-0.160677,0.147848,-0.172215,-0.166065,-0.346387,0.66712
26,65,-0.0872665,-0.698132,-0.174533,0.174533,-0.0858313,-0.69398,-0.160677,0.147848,-0.172215,-0.166065,-0.346387,0.66712
26,65,-0.0872665,-0.698132,-0.174533,0.174533,-0.0858313,-0.69398,-0.160677,0.147848,-0.172215,-0.166065,-0.346387,0.66712
26,65,-0.0872665,-0.698132,-0.174533,0.174533,-0.0858313,-0.69398,-0.160677,0.147848,-0.172215,-0.166065,-0.346387,0.66712
26,65,-0.0872665,-0.698132,-0.174533,0.174533,-0.0858313,-0.69398,-0.160677,0.147848,-0.172215,-0.166065,-0.346387,0.66712
26,65,-0.0872665,-0.698132,-0.174533,0.174533,-0.0858313,-0.69398,-0.160677,0.147848,-0.172215,-0.166065,-0.346387,0.66712
26,65,-0.0872665,-0.698132,-0.174533,0.174533,-0.0858313,-0.69398,-0.160677,0.147848,-0.172215,-0.166065,-0.346387,0.66712
26,65,-0.0872665,-0.698132,-0.174533,0.174533,-0.0858313,-0.69398,-0.160677,0.147848,-0.172215,-0.166065,-0.346387,0.66712
26,65,-0.0872665,-0.698132,-0.174533,0.174533,-0.0858313,-0.69398,-0.160677,0.147848,-0.172215,-0.166065,-0.346387,0.66712
26,65,-0.0872665,-0.698132,-0.174533,0.174533,-0.0858313,-0.69398,-0.160677,0.147848,-0.172215,-0.166065,-0.346387,0.66712
26,65,-0.0872665,-0.698132,-0.174533,0.174533,-0.0858313,-0.69398,-0.160677,0.147848,-0.172215,-0.166065,-0.346387,0.66712
26,65,-0.0872665,-0.698132,-0.174533,0.174533,-0.0858313,-0.69398,-0.160677,0.147848,-0.172215,-0.166065,-0.346387,0.66712
26,65,-0.0872665,-0.698132,-0.174533,0.174533,-0.0858313,-0.69398,-0.160677,0.147848,-0.172215,-0.166065,-0.346387,0.66712
26,65,-0.0872665,-0.698132,-0.174533,0.174533,-0.0858313,-0.69398,-0.160677,0.147848,-0.172215,-0.166065,-0.346387,0.66712
26,65,-0.0872665,-0.698132,-0.174533,0.174533,-0.0858313,-0.69398,-0.160677,0.147848,-0.172215,-0.166065,-0.346387,0.66712
26,65,-0.0872665,-0.698132,-0.174533,0.174533,-0.0858313,-0.69398,-0.160677,0.147848,-0.172215,-0.166065,-0.346387,0.66712
26,65,-0.0872665,-0.698132,-0.174533,0.174533,-0.0858313,-0.69398,-0.160677,0.147848,-0.172215,-0.166065,-0.346387,0.66712
26,65,-0.0872665,-0.698132,-0.174533,0.174533,-0.0858313,-0.69398,-0.160677,0.147848,-0.172215,-0.166065,-0.346387,0.66712
26,65,-0.0872665,-0.698132,-0.174533,0.174533,-0.0858313,-0.69398,-0.160677,0.147848,-0.172215,-0.166065,-0.346387,0.66712
26,65,-0.0872665,-0.698132,-0.174533,0.174533,-0.0858313,-0.69398,-0.160677,0.147848,-0.172215,-0.166065,-0.346387,0.66712
26,65,-0.0872665,-0.698132,-0.174533,0.174533,-0.0858313,-0.69398,-0.160677,0.147848,-0.172215,-0.166065,-0.346387,0.66712
26,65,-0.0872665,-0.698132,-0.174533,0.174533,-0.0858313,-0.69398,-0.160677,0.147848,-0.172215,-0.166065,-0.346387,0.66712
26,65,-0.0872665,-0.698132,-0.174533,0.174533,-0.0858313,-0.69398,-0.160677,0.147848,-0.172215,-0.166065,-0.346387,0.66712
26,65,-0.0872665,-0.698132,-0.174533,0.174533,-0.0858313,-0.69398,-0.160677,0.147848,-0.172215,-0.166065,-0.346387,0.66712
26,65,-0.0872665,-0.698132,-0.174533,0.174533,-0.0858313,-0.69398,-0.160677,0.147848,-0.172215,-0.166065,-0.346387,0.66712
26,65,-0.0872665,-0.698132,-0.174533,0.174533,-0.0858313,-0.69398,-0.160677,0.147848,-0.172215,-0.166065,-0.346387,0.66712
26,65,-0.0872665,-0.698132,-0.174533,0.174533,-0.0858313,-0.69398,-0.160677,0.147848,-0.172215,-0.166065,-0.346387,0.66712
26,65,-0.0872665,-0.698132,-0.174533,0.174533,-0.0858313,-0.69398,-0.160677,0.147848,-0.172215,-0.166065,-0.346387,0.66712
26,65,-0.0872665,-0.698132,-0.174533,0.174533,-0.0858313,-0.69398,-0.160677,0.147848,-0.172215,-0.166065,-0.346387,0.66712
26,65,-0.0872665,-0.698132,-0.174533,0.174533,-0.0858313,-0.69398,-0.160677,0.147848,-0.172215,-0.166065,-0.346387,0.66712
26,65,-0.0872665,-0.698132,-0.174533,0.174533,-0.0858313,-0.69398,-0.160677,0.147848,-0.172215,-0.166065,-0.346387,0.66712
26,65,-0.0872665,-0.698132,-0.174533,0.174533,-0.0858313,-0.69398,-0.160677,0.147848,-0.172215,-0.166065,-0.346387,0.66712
26,65,-0.0872665,-0.698132,-0.174533,0.174533,-0.0858313,-0.69398,-0.160677,0.147848,-0.172215,-0.166065,-0.346387,0.66712
26,65,-0.0872665,-0.698132,-0.174533,0.174533,-0.0858313,-0.69398,-0.160677,0.147848,-0.172215,-0.166065,-0.346387,0.66712
26,65,-0.0872665,-0.698132,-0.174533,0.174533,-0.0858313,-0.69398,-0.160677,0.147848,-0.172215,-0.166065,-0.346387,0.66712
26,65,-0.0872665,-0.698132,-0.174533,0.174533,-0.0858313,-0.69398,-0.160677,0.147848,-0.172215,-0.166065,-0.346387,0.66712
26,65,-0.0872665,-0.698132,-0.174533,0.174533,-0.0858313,-0.69398,-0.160677,0.147848,-0.172215,-0.166065,-0.346387,0.66712
26,65,-0.0872665,-0.698132,-0.174533,0.174533,-0.0858313,-0.69398,-0.160677,0.147848,-0.172215,-0.166065,-0.346387,0.66712
26,65,-0.0872665,-0.698132,-0.174533,0.174533,-0.0858313,-0.69398,-0.160677,0.147848,-0.172215,-0.166065,-0.346387,0.66712
26,65,-0.0872665,-0.698132,-0.174533,0.174533,-0.0858313,-0.69398,-0.160677,0.147848,-0.172215,-0.166065,-0.346387,0.66712
26,65,-0.0872665,-0.698132,-0.174533,0.174533,-0.0858313,-0.69398,-0.160677,0.147848,-0.172215,-0.166065,-0.346387,0.66712
26,65,-0.0872665,-0.698132,-0.174533,0.174533,-0.0858313,-0.69398,-0.160677,0.147848,-0.172215,-0.166065,-0.346387,0.66712
26,65,-0.0872665,-0.698132,-0.174533,0.174533,-0.0858313,-0.69398,-0.160677,0.147848,-0.172215,-0.166065,-0.346387,0.66712
26,65,-0.0872665,-0.698132,-0.174533,0.174533,-0.0858313,-0.69398,-0.160677,0.147848,-0.172215,-0.166065,-0.346387,0.66712
26,65,-0.0872665,-0.698132,-0.174533,0.174533,-0.0858313,-0.69398,-0.160677,0.147848,-0.172215,-0.166065,-0.346387,0.66712
26,65,-0.0872665,-0.698132,-0.174533,0.174533,-0.0858313,-0.69398,-0.160677,0.147848,-0.172215,-0.166065,-0.346387,0.66712
26,65,-0.0872665,-0.698132,-0.174533,0.174533,-0.0858313,-0.69398,-0.160677,0.147848,-0.172215,-0.166065,-0.346387,0.66712
26,65,-0.0872665,-0.698132,-0.174533,0.174533,-0.0858313,-0.69398,-0.160677,0.147848,-0.172215,-0.166065,-0.346387,0.66712
26,65,-0.0872665,-0.698132,-0.174533,0.174533,-0.0858313,-0.69398,-0.160677,0.147848,-0.172215,-0.166065,-0.346387,0.66712
26,65,-0.0872665,-0.698132,-0.174533,0.174533,-0.0858313,-0.69398,-0.160677,0.147848,-0.172215,-0.166065,-0.346387,0.66712
26,65,-0.0872665,-0.698132,-0.174533,0.174533,-0.0858313,-0.69398,-0.160677,0.147848,-0.172215,-0.166065,-0.346387,0.66712
26,65,-0.0872665,-0.698132,-0.174533,0.174533,-0.0858313,-0.69398,-0.160677,0.147848,-0.172215,-0.166065,-0.346387,0.66712
26,65,-0.0872665,-0.698132,-0.174533,0.174533,-0.0858313,-0.69398,-0.160677,0.147848,-0.172215,-0.166065,-0.346387,0.66712
26,65,-0.0872665,-0.698132,-0.174533,0.174533,-0.0858313,-0.69398,-0.160677,0.147848,-0.172215,-0.166065,-0.346387,0.66712
26,65,-0.0872665,-0.698132,-0.174533,0.174533,-0.0858313,-0.69398,-0.160677,0.147848,-0.172215,-0.166065,-0.346387,0.66712
26,65,-0.0872665,-0.698132,-0.174533,0.174533,-0.0858313,-0.69398,-0.160677,0.147848,-0.172215,-0.166065,-0.346387,0.66712
26,65,-0.0872665,-0.698132,-0.174533,0.174533,-0.0858313,-0.69398,-0.160677,0.147848,-0.172215,-0.166065,-0.346387,0.66712
26,65,-0.0872665,-0.698132,-0.174533,0.174533,-0.0858313,-0.69398,-0.160677,0.147848,-0.172215,-0.166065,-0.346387,0.66712
26,65,-0.0872665,-0.698132,-0.174533,0.174533,-0.0858313,-0.69398,-0.160677,0.147848,-0.172215,-0.166065,-0.346387,0.66712
26,65,-0.0872665,-0.698132,-0.174533,0.174533,-0.0858313,-0.69398,-0.160677,0.147848,-0.172215,-0.166065,-0.346387,0.66712
26,65,-0.0872665,-0.698132,-0.174533,0.174533,-0.0858313,-0.69398,-0.160677,0.147848,-0.172215,-0.166065,-0.346387,0.66712
26,65,-0.0872665,-0.698132,-0.174533,0.174533,-0.0858313,-0.69398,-0.160677,0.147848,-0.172215,-0.166065,-0.346387,0.66712
26,65,-0.0872665,-0.698132,-0.174533,0.174533,-0.0858313,-0.69398,-0.160677,0.147848,-0.172215,-0.166065,-0.346387,0.66712
26,65,-0.0872665,-0.698132,-0.174533,0.174533,-0.0858313,-0.69398,-0.160677,0.147848,-0.172215,-0.166065,-0.346387,0.66712
26,65,-0.0872665,-0.698132,-0.174533,0.174533,-0.0858313,-0.69398,-0.160677,0.147848,-0.172215,-0.166065,-0.346387,0.66712
26,65,-0.0872665,-0.698132,-0.174533,0.174533,-0.0858313,-0.69398,-0.160677,0.147848,-0.172215,-0.166065,-0.346387,0.66712
26,65,-0.0872665,-0.698132,-0.174533,0.174533,-0.0858313,-0.69398,-0.160677,0.147848,-0.172215,-0.166065,-0.346387,0.66712
26,65,-0.0872665,-0.698132,-0.174533,0.174533,-0.0858313,-0.69398,-0.160677,0.147848,-0.172215,-0.166065,-0.346387,0.66712
26,65,-0.0872665,-0.698132,-0.174533,0.174533,-0.0858313,-0.69398,-0.160677,0.147848,-0.172215,-0.166065,-0.346387,0.66712
26,65,-0.0872665,-0.698132,-0.174533,0.174533,-0.0858313,-0.69398,-0.160677,0.147848,-0.172215,-0.166065,-0.346387,0.66712
26,65,-0.0872665,-0.698132,-0.174533,0.174533,-0.0858313,-0.69398,-0.160677,0.147848,-0.172215,-0.166065,-0.346387,0.66712
26,65,-0.0872665,-0.698132,-0.174533,0.174533,-0.0858313,-0.69398,-0.160681,0.14792,-0.172215,-0.166065,-0.346303,0.66533
26,65,-0.0872665,-0.698132,-0.174533,0.174533,-0.0858313,-0.69398,-0.160681,0.14792,-0.172215,-0.166065,-0.346303,0.66533
26,65,-0.0872665,-0.698132,-0.174533,0.174533,-0.0858313,-0.69398,-0.160681,0.14792,-0.172215,-0.166065,-0.346303,0.66533
26,65,-0.0872665,-0.698132,-0.174533,0.174533,-0.0858313,-0.69398,-0.160681,0.14792,-0.172215,-0.166065,-0.346303,0.66533
26,65,-0.0872665,-0.698132,-0.174533,0.174533,-0.0858313,-0.69398,-0.160681,0.14792,-0.172215,-0.166065,-0.346303,0.66533
26,65,-0.0872665,-0.698132,-0.174533,0.174533,-0.0858313,-0.69398,-0.160681,0.14792,-0.172215,-0.166065,-0.346303,0.66533
26,65,-0.0872665,-0.698132,-0.174533,0.174533,-0.0858313,-0.69398,-0.160681,0.14792,-0.172215,-0.166065,-0.346303,0.66533
26,65,-0.0872665,-0.698132,-0.174533,0.174533,-0.0858313,-0.69398,-0.160681,0.14792,-0.172215,-0.166065,-0.346303,0.66533
26,65,-0.0872665,-0.698132,-0.174533,0.174533,-0.0858313,-0.69398,-0.160681,0.14792,-0.172215,-0.166065,-0.346303,0.66533
26,65,-0.0872665,-0.698132,-0.174533,0.174533,-0.0858313,-0.69398,-0.160681,0.14792,-0.172215,-0.166065,-0.346303,0.66533
26,65,-0.0872665,-0.698132,-0.174533,0.174533,-0.0858313,-0.69398,-0.160681,0.14792,-0.172215,-0.166065,-0.346303,0.66533
26,65,-0.0872665,-0.698132,-0.174533,0.174533,-0.0858313,-0.69398,-0.160681,0.14792,-0.172215,-0.166065,-0.346303,0.66533
26,65,-0.0872665,-0.698132,-0.174533,0.174533,-0.0858313,-0.69398,-0.160681,0.14792,-0.172215,-0.166065,-0.346303,0.66533
26,65,-0.0872665,-0.698132,-0.174533,0.174533,-0.0858313,-0.69398,-0.160681,0.14792,-0.172215,-0.166065,-0.346303,0.66533
26,65,-0.0872665,-0.698132,-0.174533,0.174533,-0.0858313,-0.69398,-0.160681,0.14792,-0.172215,-0.166065,-0.346303,0.66533
26,65,-0.0872665,-0.698132,-0.174533,0.174533,-0.0858313,-0.69398,-0.160681,0.14792,-0.172215,-0.166065,-0.346303,0.66533
26,65,-0.0872665,-0.698132,-0.174533,0.174533,-0.0858313,-0.69398,-0.160681,0.14792,-0.172215,-0.166065,-0.346303,0.66533
26,65,-0.0872665,-0.698132,-0.174533,0.174533,-0.0858313,-0.69398,-0.160681,0.14792,-0.172215,-0.166065,-0.346303,0.66533
26,65,-0.0872665,-0.698132,-0.174533,0.174533,-0.0858313,-0.69398,-0.160681,0.14792,-0.172215,-0.166065,-0.346303,0.66533
26,65,-0.0872665,-0.698132,-0.174533,0.174533,-0.0858313,-0.69398,-0.160681,0.14792,-0.172215,-0.166065,-0.346303,0.66533
26,65,-0.0872665,-0.698132,-0.174533,0.174533,-0.0858313,-0.69398,-0.160681,0.14792,-0.172215,-0.166065,-0.346303,0.66533
26,65,-0.0872665,-0.698132,-0.174533,0.174533,-0.0858313,-0.69398,-0.160681,0.14792,-0.172215,-0.166065,-0.346303,0.66533
26,65,-0.0872665,-0.698132,-0.174533,0.174533,-0.0858313,-0.69398,-0.160681,0.14792,-0.172215,-0.166065,-0.346303,0.66533
26,65,-0.0872665,-0.698132,-0.174533,0.174533,-0.0858313,-0.69398,-0.160681,0.14792,-0.172215,-0.166065,-0.346303,0.66533
26,65,-0.0872665,-0.698132,-0.174533,0.174533,-0.0858313,-0.69398,-0.160681,0.14792,-0.172215,-0.166065,-0.346303,0.66533
26,65,-0.0872665,-0.698132,-0.174533,0.174533,-0.0858313,-0.69398,-0.160628,0.147893,-0.172215,-0.166065,-0.347611,0.665989
26,65,-0.0872665,-0.698132,-0.174533,0.174533,-0.0858313,-0.69398,-0.160628,0.147893,-0.172215,-0.166065,-0.347611,0.665989
26,65,-0.0872665,-0.698132,-0.174533,0.174533,-0.0858313,-0.69398,-0.160628,0.147893,-0.172215,-0.166065,-0.347611,0.665989
26,65,-0.0872665,-0.698132,-0.174533,0.174533,-0.0858313,-0.69398,-0.160628,0.147893,-0.172215,-0.166065,-0.347611,0.665989
26,65,-0.0872665,-0.698132,-0.174533,0.174533,-0.0858313,-0.69398,-0.160628,0.147893,-0.172215,-0.166065,-0.347611,0.665989
26,65,-0.0872665,-0.698132,-0.174533,0.174533,-0.0858313,-0.69398,-0.160628,0.147893,-0.172215,-0.166065,-0.347611,0.665989
26,65,-0.0872665,-0.698132,-0.174533,0.174533,-0.0858313,-0.69398,-0.160628,0.147893,-0.172215,-0.166065,-0.347611,0.665989
26,65,-0.0872665,-0.698132,-0.174533,0.174533,-0.0858313,-0.69398,-0.160628,0.147893,-0.172215,-0.166065,-0.347611,0.665989
26,65,-0.0872665,-0.698132,-0.174533,0.174533,-0.0858313,-0.69398,-0.160628,0.147893,-0.172215,-0.166065,-0.347611,0.665989
26,65,-0.0872665,-0.698132,-0.174533,0.174533,-0.0858313,-0.69398,-0.160628,0.147893,-0.172215,-0.166065,-0.347611,0.665989
26,65,-0.0872665,-0.698132,-0.174533,0.174533,-0.0858313,-0.69398,-0.160628,0.147893,-0.172215,-0.166065,-0.347611,0.665989
26,65,-0.0872665,-0.698132,-0.174533,0.174533,-0.0858313,-0.69398,-0.160628,0.147893,-0.172215,-0.166065,-0.347611,0.665989
26,65,-0.0872665,-0.698132,-0.174533,0.174533,-0.0858313,-0.69398,-0.160628,0.147893,-0.172215,-0.166065,-0.347611,0.665989
26,65,-0.0872665,-0.698132,-0.174533,0.174533,-0.0858313,-0.69398,-0.160628,0.147893,-0.172215,-0.166065,-0.347611,0.665989
26,65,-0.0872665,-0.698132,-0.174533,0.174533,-0.0858313,-0.69398,-0.160628,0.147893,-0.172215,-0.166065,-0.347611,0.665989
26,65,-0.0872665,-0.698132,-0.174533,0.174533,-0.0858313,-0.69398,-0.160628,0.147893,-0.172215,-0.166065,-0.347611,0.665989
26,65,-0.0872665,-0.698132,-0.174533,0.174533,-0.0858313,-0.69398,-0.160628,0.147893,-0.172215,-0.166065,-0.347611,0.665989
26,65,-0.0872665,-0.698132,-0.174533,0.174533,-0.0858313,-0.69398,-0.160628,0.147893,-0.172215,-0.166065,-0.347611,0.665989
26,65,-0.0872665,-0.698132,-0.174533,0.174533,-0.0858313,-0.69398,-0.160628,0.147893,-0.172215,-0.166065,-0.347611,0.665989
26,65,-0.0872665,-0.698132,-0.174533,0.174533,-0.0858313,-0.69398,-0.160628,0.147893,-0.172215,-0.166065,-0.347611,0.665989
26,65,-0.0872665,-0.698132,-0.174533,0.174533,-0.0858313,-0.69398,-0.160628,0.147893,-0.172215,-0.166065,-0.347611,0.665989
26,65,-0.0872665,-0.698132,-0.174533,0.174533,-0.0858313,-0.69398,-0.160628,0.147893,-0.172215,-0.166065,-0.347611,0.665989
26,65,-0.0872665,-0.698132,-0.174533,0.174533,-0.0858313,-0.69398,-0.160628,0.147893,-0.172215,-0.166065,-0.347611,0.665989
26,65,-0.0872665,-0.698132,-0.174533,0.174533,-0.0858313,-0.69398,-0.160628,0.147893,-0.172215,-0.166065,-0.347611,0.665989
26,65,-0.0872665,-0.698132,-0.174533,0.174533,-0.0858313,-0.69398,-0.160576,0.147867,-0.172215,-0.166065,-0.348919,0.666649
26,65,-0.0872665,-0.698132,-0.174533,0.174533,-0.0858313,-0.69398,-0.160576,0.147867,-0.172215,-0.166065,-0.348919,0.666649
26,65,-0.0872665,-0.698132,-0.174533,0.174533,-0.0858313,-0.69398,-0.160576,0.147867,-0.172215,-0.166065,-0.348919,0.666649
26,65,-0.0872665,-0.698132,-0.174533,0.174533,-0.0858313,-0.69398,-0.160576,0.147867,-0.172215,-0.166065,-0.348919,0.666649
26,65,-0.0872665,-0.698132,-0.174533,0.174533,-0.0858313,-0.69398,-0.160576,0.147867,-0.172215,-0.166065,-0.348919,0.666649
26,65,-0.0872665,-0.698132,-0.174533,0.174533,-0.0858313,-0.69398,-0.160576,0.147867,-0.172215,-0.166065,-0.348919,0.666649
26,65,-0.0872665,-0.698132,-0.174533,0.174533,-0.0858313,-0.69398,-0.160576,0.147867,-0.172215,-0.166065,-0.348919,0.666649
26,65,-0.0872665,-0.698132,-0.174533,0.174533,-0.0858313,-0.69398,-0.160576,0.147867,-0.172215,-0.166065,-0.348919,0.666649
26,65,-0.0872665,-0.698132,-0.174533,0.174533,-0.0858313,-0.69398,-0.160576,0.147867,-0.172215,-0.166065,-0.348919,0.666649
26,65,-0.0872665,-0.698132,-0.174533,0.174533,-0.0858313,-0.69398,-0.160576,0.147867,-0.172215,-0.166065,-0.348919,0.666649
26,65,-0.0872665,-0.698132,-0.174533,0.174533,-0.0858313,-0.69398,-0.160576,0.147867,-0.172215,-0.166065,-0.348919,0.666649
26,65,-0.0872665,-0.698132,-0.174533,0.174533,-0.0858313,-0.69398,-0.160576,0.147867,-0.172215,-0.166065,-0.348919,0.666649
26,65,-0.0872665,-0.698132,-0.174533,0.174533,-0.0858313,-0.69398,-0.160576,0.147867,-0.172215,-0.166065,-0.348919,0.666649
26,65,-0.0872665,-0.698132,-0.174533,0.174533,-0.0858313,-0.69398,-0.160576,0.147867,-0.172215,-0.166065,-0.348919,0.666649
26,65,-0.0872665,-0.698132,-0.174533,0.174533,-0.0858313,-0.69398,-0.160576,0.147867,-0.172215,-0.166065,-0.348919,0.666649
26,65,-0.0872665,-0.698132,-0.174533,0.174533,-0.0858313,-0.69398,-0.160576,0.147867,-0.172215,-0.166065,-0.348919,0.666649
26,65,-0.0872665,-0.698132,-0.174533,0.174533,-0.0858313,-0.69398,-0.160576,0.147867,-0.172215,-0.166065,-0.348919,0.666649
26,65,-0.0872665,-0.698132,-0.174533,0.174533,-0.0858313,-0.69398,-0.160576,0.147867,-0.172215,-0.166065,-0.348919,0.666649
26,65,-0.0872665,-0.698132,-0.174533,0.174533,-0.0858313,-0.69398,-0.160576,0.147867,-0.172215,-0.166065,-0.348919,0.666649
26,65,-0.0872665,-0.698132,-0.174533,0.174533,-0.0858313,-0.69398,-0.160576,0.147867,-0.172215,-0.166065,-0.348919,0.666649
26,65,-0.0872665,-0.698132,-0.174533,0.174533,-0.0858313,-0.69398,-0.160576,0.147867,-0.172215,-0.166065,-0.348919,0.666649
26,65,-0.0872665,-0.698132,-0.174533,0.174533,-0.0858313,-0.69398,-0.160524,0.147841,-0.172215,-0.166065,-0.350228,0.667309
26,65,-0.0872665,-0.698132,-0.174533,0.174533,-0.0858313,-0.69398,-0.160524,0.147841,-0.172215,-0.166065,-0.350228,0.667309
26,65,-0.0872665,-0.698132,-0.174533,0.174533,-0.0858313,-0.69398,-0.160524,0.147841,-0.172215,-0.166065,-0.350228,0.667309
26,65,-0.0872665,-0.698132,-0.174533,0.174533,-0.0858313,-0.69398,-0.160524,0.147841,-0.172215,-0.166065,-0.350228,0.667309
26,65,-0.0872665,-0.698132,-0.174533,0.174533,-0.0858313,-0.69398,-0.160524,0.147841,-0.172215,-0.166065,-0.350228,0.667309
26,65,-0.0872665,-0.698132,-0.174533,0.174533,-0.0858313,-0.69398,-0.160524,0.147841,-0.172215,-0.166065,-0.350228,0.667309
26,65,-0.0872665,-0.698132,-0.174533,0.174533,-0.0858313,-0.69398,-0.160524,0.147841,-0.172215,-0.166065,-0.350228,0.667309
26,65,-0.0872665,-0.698132,-0.174533,0.174533,-0.0858313,-0.69398,-0.160524,0.147841,-0.172215,-0.166065,-0.350228,0.667309
26,65,-0.0872665,-0.698132,-0.174533,0.174533,-0.0858313,-0.69398,-0.160524,0.147841,-0.172215,-0.166065,-0.350228,0.667309
26,65,-0.0872665,-0.698132,-0.174533,0.174533,-0.0858313,-0.69398,-0.160524,0.147841,-0.172215,-0.166065,-0.350228,0.667309
26,65,-0.0872665,-0.698132,-0.174533,0.174533,-0.0858313,-0.69398,-0.160524,0.147841,-0.172215,-0.166065,-0.350228,0.667309
26,65,-0.0872665,-0.698132,-0.174533,0.174533,-0.0858313,-0.69398,-0.160527,0.147912,-0.172215,-0.166065,-0.350144,0.665518
26,65,-0.0872665,-0.698132,-0.174533,0.174533,-0.0858313,-0.69398,-0.160527,0.147912,-0.172215,-0.166065,-0.350144,0.665518
26,65,-0.0872665,-0.698132,-0.174533,0.174533,-0.0858313,-0.69398,-0.160527,0.147912,-0.172215,-0.166065,-0.350144,0.665518
26,65,-0.0872665,-0.698132,-0.174533,0.174533,-0.0858313,-0.69398,-0.160527,0.147912,-0.172215,-0.166065,-0.350144,0.665518
26,65,-0.0872665,-0.698132,-0.174533,0.174533,-0.0858313,-0.69398,-0.160527,0.147912,-0.172215,-0.166065,-0.350144,0.665518
26,65,-0.0872665,-0.698132,-0.174533,0.174533,-0.0858313,-0.69398,-0.160475,0.147886,-0.172215,-0.166065,-0.351452,0.666178
26,65,-0.0872665,-0.698132,-0.174533,0.174533,-0.0858313,-0.69398,-0.160475,0.147886,-0.172215,-0.166065,-0.351452,0.666178
26,65,-0.0872665,-0.698132,-0.174533,0.174533,-0.0858313,-0.69398,-0.160475,0.147886,-0.172215,-0.166065,-0.351452,0.666178
26,65,-0.0872665,-0.698132,-0.174533,0.174533,-0.0858313,-0.69398,-0.160475,0.147886,-0.172215,-0.166065,-0.351452,0.666178
26,65,-0.0872665,-0.698132,-0.174533,0.174533,-0.0858313,-0.69398,-0.160475,0.147886,-0.172215,-0.166065,-0.351452,0.666178
26,65,-0.0872665,-0.698132,-0.174533,0.174533,-0.0858313,-0.69398,-0.160475,0.147886,-0.172215,-0.166065,-0.351452,0.666178
26,65,-0.0872665,-0.698132,-0.174533,0.174533,-0.0858313,-0.69398,-0.160478,0.147957,-0.172215,-0.166065,-0.351368,0.664387
26,65,-0.0872665,-0.698132,-0.174533,0.174533,-0.0858313,-0.69398,-0.160478,0.147957,-0.172215,-0.166065,-0.351368,0.664387
26,65,-0.0872665,-0.698132,-0.174533,0.174533,-0.0858313,-0.69398,-0.160426,0.147931,-0.172215,-0.166065,-0.352737,0.665078
26,65,-0.0872665,-0.698132,-0.174533,0.174533,-0.0858313,-0.69398,-0.160426,0.147931,-0.172215,-0.166065,-0.352737,0.665078
26,65,-0.0872665,-0.698132,-0.174533,0.174533,-0.0858313,-0.69398,-0.160426,0.147931,-0.172215,-0.166065,-0.352737,0.665078
26,65,-0.0872665,-0.698132,-0.174533,0.174533,-0.0858313,-0.69398,-0.160426,0.147931,-0.172215,-0.166065,-0.352737,0.665078
26,65,-0.0872665,-0.698132,-0.174533,0.174533,-0.0858313,-0.69398,-0.160374,0.147905,-0.172215,-0.166065,-0.35407,0.66575
26,65,-0.0872665,-0.698132,-0.174533,0.174533,-0.0858313,-0.69398,-0.160374,0.147905,-0.172215,-0.166065,-0.35407,0.66575
26,65,-0.0872665,-0.698132,-0.174533,0.174533,-0.0858313,-0.69398,-0.160374,0.147905,-0.172215,-0.166065,-0.35407,0.66575
26,65,-0.0872665,-0.698132,-0.174533,0.174533,-0.0858313,-0.69398,-0.160374,0.147905,-0.172215,-0.166065,-0.35407,0.66575
26,65,-0.0872665,-0.698132,-0.174533,0.174533,-0.0858313,-0.69398,-0.160374,0.147905,-0.172215,-0.166065,-0.35407,0.66575
26,65,-0.0872665,-0.698132,-0.174533,0.174533,-0.0858313,-0.69398,-0.160321,0.147878,-0.172215,-0.166065,-0.355421,0.666431
26,65,-0.0872665,-0.698132,-0.174533,0.174533,-0.0858313,-0.69398,-0.160321,0.147878,-0.172215,-0.166065,-0.355421,0.666431
26,65,-0.0872665,-0.698132,-0.174533,0.174533,-0.0858313,-0.69398,-0.160325,0.14795,-0.172215,-0.166065,-0.355337,0.664641
26,65,-0.0872665,-0.698132,-0.174533,0.174533,-0.0858313,-0.69398,-0.160325,0.14795,-0.172215,-0.166065,-0.355337,0.664641
26,65,-0.0872665,-0.698132,-0.174533,0.174533,-0.0858313,-0.69398,-0.160325,0.14795,-0.172215,-0.166065,-0.355337,0.664641
26,65,-0.0872665,-0.698132,-0.174533,0.174533,-0.0858313,-0.69398,-0.160325,0.14795,-0.172215,-0.166065,-0.355337,0.664641
26,65,-0.0872665,-0.698132,-0.174533,0.174533,-0.0858313,-0.69398,-0.160325,0.14795,-0.172215,-0.166065,-0.355337,0.664641
26,65,-0.0872665,-0.698132,-0.174533,0.174533,-0.0858313,-0.69398,-0.160325,0.14795,-0.172215,-0.166065,-0.355337,0.664641
26,65,-0.0872665,-0.698132,-0.174533,0.174533,-0.0858313,-0.69398,-0.160325,0.14795,-0.172215,-0.166065,-0.355337,0.664641
26,65,-0.0872665,-0.698132,-0.174533,0.174533,-0.0858313,-0.69398,-0.160325,0.14795,-0.172215,-0.166065,-0.355337,0.664641
26,65,-0.0872665,-0.698132,-0.174533,0.174533,-0.0858313,-0.69398,-0.160325,0.14795,-0.172215,-0.166065,-0.355337,0.664641
26,65,-0.0872665,-0.698132,-0.174533,0.174533,-0.0858313,-0.69398,-0.160325,0.14795,-0.172215,-0.166065,-0.355337,0.664641
26,65,-0.0872665,-0.698132,-0.174533,0.174533,-0.0858313,-0.69398,-0.160272,0.147923,-0.172215,-0.166065,-0.356662,0.665309
26,65,-0.0872665,-0.698132,-0.174533,0.174533,-0.0858313,-0.69398,-0.160272,0.147923,-0.172215,-0.166065,-0.356662,0.665309
26,65,-0.0872665,-0.698132,-0.174533,0.174533,-0.0858313,-0.69398,-0.160272,0.147923,-0.172215,-0.166065,-0.356662,0.665309
26,65,-0.0872665,-0.698132,-0.174533,0.174533,-0.0858313,-0.69398,-0.160276,0.147995,-0.172215,-0.166065,-0.356578,0.663518
26,65,-0.0872665,-0.698132,-0.174533,0.174533,-0.0858313,-0.69398,-0.160276,0.147995,-0.172215,-0.166065,-0.356578,0.663518
26,65,-0.0872665,-0.698132,-0.174533,0.174533,-0.0858313,-0.69398,-0.160276,0.147995,-0.172215,-0.166065,-0.356578,0.663518
26,65,-0.0872665,-0.698132,-0.174533,0.174533,-0.0858313,-0.69398,-0.160276,0.147995,-0.172215,-0.166065,-0.356578,0.663518
26,65,-0.0872665,-0.698132,-0.174533,0.174533,-0.0858313,-0.69398,-0.160276,0.147995,-0.172215,-0.166065,-0.356578,0.663518
26,65,-0.0872665,-0.698132,-0.174533,0.174533,-0.0858313,-0.69398,-0.160223,0.147969,-0.172215,-0.166065,-0.357883,0.664177
26,65,-0.0872665,-0.698132,-0.174533,0.174533,-0.0858313,-0.69398,-0.160223,0.147969,-0.172215,-0.166065,-0.357883,0.664177
26,65,-0.0872665,-0.698132,-0.174533,0.174533,-0.0858313,-0.69398,-0.160223,0.147969,-0.172215,-0.166065,-0.357883,0.664177
26,65,-0.0872665,-0.698132,-0.174533,0.174533,-0.0858313,-0.69398,-0.160223,0.147969,-0.172215,-0.166065,-0.357883,0.664177
26,65,-0.0872665,-0.698132,-0.174533,0.174533,-0.0858313,-0.69398,-0.160223,0.147969,-0.172215,-0.166065,-0.357883,0.664177
26,65,-0.0872665,-0.698132,-0.174533,0.174533,-0.0858313,-0.69398,-0.160227,0.14804,-0.172215,-0.166065,-0.357793,0.662264
26,65,-0.0872665,-0.698132,-0.174533,0.174533,-0.0858313,-0.69398,-0.160227,0.14804,-0.172215,-0.166065,-0.357793,0.662264
26,65,-0.0872665,-0.698132,-0.174533,0.174533,-0.0858313,-0.69398,-0.160227,0.14804,-0.172215,-0.166065,-0.357793,0.662264
26,65,-0.0872665,-0.698132,-0.174533,0.174533,-0.0858313,-0.69398,-0.160227,0.14804,-0.172215,-0.166065,-0.357793,0.662264
26,65,-0.0872665,-0.698132,-0.174533,0.174533,-0.0858313,-0.69398,-0.160227,0.14804,-0.172215,-0.166065,-0.357793,0.662264
26,65,-0.0872665,-0.698132,-0.174533,0.174533,-0.0858313,-0.69398,-0.160227,0.14804,-0.172215,-0.166065,-0.357793,0.662264
26,65,-0.0872665,-0.698132,-0.174533,0.174533,-0.0858313,-0.69398,-0.160227,0.14804,-0.172215,-0.166065,-0.357793,0.662264
26,65,-0.0872665,-0.698132,-0.174533,0.174533,-0.0858313,-0.69398,-0.160178,0.148086,-0.172215,-0.166065,-0.358987,0.661107
26,65,-0.0872665,-0.698132,-0.174533,0.174533,-0.0858313,-0.69398,-0.160178,0.148086,-0.172215,-0.166065,-0.358987,0.661107
26,65,-0.0872665,-0.698132,-0.174533,0.174533,-0.0858313,-0.69398,-0.160178,0.148086,-0.172215,-0.166065,-0.358987,0.661107
26,65,-0.0872665,-0.698132,-0.174533,0.174533,-0.0858313,-0.69398,-0.160178,0.148086,-0.172215,-0.166065,-0.358987,0.661107
26,65,-0.0872665,-0.698132,-0.174533,0.174533,-0.0858313,-0.69398,-0.160178,0.148086,-0.172215,-0.166065,-0.358987,0.661107
26,65,-0.0872665,-0.698132,-0.174533,0.174533,-0.0858313,-0.69398,-0.160125,0.148059,-0.172215,-0.166065,-0.360295,0.661767
26,65,-0.0872665,-0.698132,-0.174533,0.174533,-0.0858313,-0.69398,-0.160125,0.148059,-0.172215,-0.166065,-0.360295,0.661767
26,65,-0.0872665,-0.698132,-0.174533,0.174533,-0.0858313,-0.69398,-0.160125,0.148059,-0.172215,-0.166065,-0.360295,0.661767
26,65,-0.0872665,-0.698132,-0.174533,0.174533,-0.0858313,-0.69398,-0.160125,0.148059,-0.172215,-0.166065,-0.360295,0.661767
26,65,-0.0872665,-0.698132,-0.174533,0.174533,-0.0858313,-0.69398,-0.160125,0.148059,-0.172215,-0.166065,-0.360295,0.661767
26,65,-0.0872665,-0.698132,-0.174533,0.174533,-0.0858313,-0.69398,-0.160129,0.148131,-0.172215,-0.166065,-0.360211,0.659966
26,65,-0.0872665,-0.698132,-0.174533,0.174533,-0.0858313,-0.69398,-0.160129,0.148131,-0.172215,-0.166065,-0.360211,0.659966
26,65,-0.0872665,-0.698132,-0.174533,0.174533,-0.0858313,-0.69398,-0.160129,0.148131,-0.172215,-0.166065,-0.360211,0.659966
26,65,-0.0872665,-0.698132,-0.174533,0.174533,-0.0858313,-0.69398,-0.160129,0.148131,-0.172215,-0.166065,-0.360211,0.659966
26,65,-0.0872665,-0.698132,-0.174533,0.174533,-0.0858313,-0.69398,-0.160129,0.148131,-0.172215,-0.166065,-0.360211,0.659966
26,65,-0.0872665,-0.698132,-0.174533,0.174533,-0.0858313,-0.69398,-0.160129,0.148131,-0.172215,-0.166065,-0.360211,0.659966
26,65,-0.0872665,-0.698132,-0.174533,0.174533,-0.0858313,-0.69398,-0.160129,0.148131,-0.172215,-0.166065,-0.360211,0.659966
26,65,-0.0872665,-0.698132,-0.174533,0.174533,-0.0858313,-0.693929,-0.160076,0.148104,-0.172215,-0.168098,-0.361518,0.660626
26,65,-0.0872665,-0.698132,-0.174533,0.174533,-0.0858313,-0.693929,-0.160076,0.148104,-0.172215,-0.168098,-0.361518,0.660626
26,65,-0.0872665,-0.698132,-0.174533,0.174533,-0.0858313,-0.693929,-0.160076,0.148104,-0.172215,-0.168098,-0.361518,0.660626
26,65,-0.0872665,-0.698132,-0.174533,0.174533,-0.0858313,-0.693929,-0.16008,0.148176,-0.172215,-0.168098,-0.361433,0.658822
26,65,-0.0872665,-0.698132,-0.174533,0.174533,-0.0858313,-0.693929,-0.16008,0.148176,-0.172215,-0.168098,-0.361433,0.658822
26,65,-0.0872665,-0.698132,-0.174533,0.174533,-0.0858313,-0.693929,-0.16008,0.148176,-0.172215,-0.168098,-0.361433,0.658822
26,65,-0.0872665,-0.698132,-0.174533,0.174533,-0.0858313,-0.693929,-0.16008,0.148176,-0.172215,-0.168098,-0.361433,0.658822
26,65,-0.0872665,-0.698132,-0.174533,0.174533,-0.0858313,-0.693929,-0.16008,0.148176,-0.172215,-0.168098,-0.361433,0.658822
26,65,-0.0872665,-0.698132,-0.174533,0.174533,-0.0858313,-0.693929,-0.16008,0.148176,-0.172215,-0.168098,-0.361433,0.658822
26,65,-0.0872665,-0.698132,-0.174533,0.174533,-0.0858313,-0.693929,-0.16008,0.148176,-0.172215,-0.168098,-0.361433,0.658822
26,65,-0.0872665,-0.698132,-0.174533,0.174533,-0.0858313,-0.693929,-0.16008,0.148176,-0.172215,-0.168098,-0.361433,0.658822
26,65,-0.0872665,-0.698132,-0.174533,0.174533,-0.0858313,-0.693929,-0.16008,0.148176,-0.172215,-0.168098,-0.361433,0.658822
26,65,-0.0872665,-0.698132,-0.174533,0.174533,-0.0858313,-0.693929,-0.16008,0.148176,-0.172215,-0.168098,-0.361433,0.658822
26,65,-0.0872665,-0.698132,-0.174533,0.174533,-0.0858313,-0.693929,-0.16008,0.148176,-0.172215,-0.168098,-0.361433,0.658822
26,65,-0.0872665,-0.698132,-0.174533,0.174533,-0.0858313,-0.693929,-0.16008,0.148176,-0.172215,-0.168098,-0.361433,0.658822
26,65,-0.0872665,-0.698132,-0.174533,0.174533,-0.0858313,-0.693929,-0.16008,0.148176,-0.172215,-0.168098,-0.361433,0.658822
26,65,-0.0872665,-0.698132,-0.174533,0.174533,-0.0858313,-0.693929,-0.160027,0.14815,-0.172215,-0.168098,-0.362723,0.659472
26,65,-0.0872665,-0.698132,-0.174533,0.174533,-0.0858313,-0.693929,-0.160027,0.14815,-0.172215,-0.168098,-0.362723,0.659472
26,65,-0.0872665,-0.698132,-0.174533,0.174533,-0.0858313,-0.693929,-0.160027,0.14815,-0.172215,-0.168098,-0.362723,0.659472
26,65,-0.0872665,-0.698132,-0.174533,0.174533,-0.0858313,-0.693929,-0.160027,0.14815,-0.172215,-0.168098,-0.362723,0.659472
26,65,-0.0872665,-0.698132,-0.174533,0.174533,-0.0858313,-0.693929,-0.160027,0.14815,-0.172215,-0.168098,-0.362723,0.659472
26,65,-0.0872665,-0.698132,-0.174533,0.174533,-0.0858313,-0.693929,-0.160027,0.14815,-0.172215,-0.168098,-0.362723,0.659472
26,65,-0.0872665,-0.698132,-0.174533,0.174533,-0.0858313,-0.693929,-0.160027,0.14815,-0.172215,-0.168098,-0.362723,0.659472
26,65,-0.0872665,-0.698132,-0.174533,0.174533,-0.0858313,-0.693929,-0.160031,0.148221,-0.172215,-0.168098,-0.36264,0.657716
26,65,-0.0872665,-0.698132,-0.174533,0.174533,-0.0858313,-0.693929,-0.160031,0.148221,-0.172215,-0.168098,-0.36264,0.657716
26,65,-0.0872665,-0.698132,-0.174533,0.174533,-0.0858313,-0.693929,-0.159978,0.148195,-0.172215,-0.168098,-0.363956,0.65838
26,65,-0.0872665,-0.698132,-0.174533,0.174533,-0.0858313,-0.693929,-0.159978,0.148195,-0.172215,-0.168098,-0.363956,0.65838
26,65,-0.0872665,-0.698132,-0.174533,0.174533,-0.0858313,-0.693929,-0.159978,0.148195,-0.172215,-0.168098,-0.363956,0.65838
26,65,-0.0872665,-0.698132,-0.174533,0.174533,-0.0858313,-0.693929,-0.159978,0.148195,-0.172215,-0.168098,-0.363956,0.65838
26,65,-0.0872665,-0.698132,-0.174533,0.174533,-0.0858313,-0.693929,-0.159978,0.148195,-0.172215,-0.168098,-0.363956,0.65838
26,65,-0.0872665,-0.698132,-0.174533,0.174533,-0.0858313,-0.693929,-0.159978,0.148195,-0.172215,-0.168098,-0.363956,0.65838
26,65,-0.0872665,-0.698132,-0.174533,0.174533,-0.0858313,-0.693929,-0.159978,0.148195,-0.172215,-0.168098,-0.363956,0.65838
26,65,-0.0872665,-0.698132,-0.174533,0.174533,-0.0858313,-0.693929,-0.159978,0.148195,-0.172215,-0.168098,-0.363956,0.65838
26,65,-0.0872665,-0.698132,-0.174533,0.174533,-0.0858313,-0.693929,-0.159978,0.148195,-0.172215,-0.168098,-0.363956,0.65838
26,65,-0.0872665,-0.698132,-0.174533,0.174533,-0.0858313,-0.693929,-0.159978,0.148195,-0.172215,-0.168098,-0.363956,0.65838
26,65,-0.0872665,-0.698132,-0.174533,0.174533,-0.0858313,-0.693878,-0.159978,0.148195,-0.172215,-0.170132,-0.363956,0.65838
26,65,-0.0872665,-0.698132,-0.174533,0.174533,-0.0858313,-0.693878,-0.159978,0.148195,-0.172215,-0.170132,-0.363956,0.65838
26,65,-0.0872665,-0.698132,-0.174533,0.174533,-0.0858313,-0.693878,-0.159982,0.148267,-0.172215,-0.170132,-0.363872,0.656606
26,65,-0.0872665,-0.698132,-0.174533,0.174533,-0.0858313,-0.693878,-0.15993,0.14824,-0.172215,-0.170132,-0.365164,0.657258
26,65,-0.0872665,-0.698132,-0.174533,0.174533,-0.0858313,-0.693878,-0.15993,0.14824,-0.172215,-0.170132,-0.365164,0.657258
26,65,-0.0872665,-0.698132,-0.174533,0.174533,-0.0858313,-0.693878,-0.15993,0.14824,-0.172215,-0.170132,-0.365164,0.657258
26,65,-0.0872665,-0.698132,-0.174533,0.174533,-0.0858313,-0.693878,-0.15993,0.14824,-0.172215,-0.170132,-0.365164,0.657258
26,65,-0.0872665,-0.698132,-0.174533,0.174533,-0.0858313,-0.693878,-0.15993,0.14824,-0.172215,-0.170132,-0.365164,0.657258
26,65,-0.0872665,-0.698132,-0.174533,0.174533,-0.0858313,-0.693878,-0.15993,0.14824,-0.172215,-0.170132,-0.365164,0.657258
26,65,-0.0872665,-0.698132,-0.174533,0.174533,-0.0858313,-0.693878,-0.15993,0.14824,-0.172215,-0.170132,-0.365164,0.657258
26,65,-0.0872665,-0.698132,-0.174533,0.174533,-0.0858313,-0.693878,-0.15993,0.14824,-0.172215,-0.170132,-0.365164,0.657258
26,65,-0.0872665,-0.698132,-0.174533,0.174533,-0.0858313,-0.693878,-0.15993,0.14824,-0.172215,-0.170132,-0.365164,0.657258
26,65,-0.0872665,-0.698132,-0.174533,0.174533,-0.0858313,-0.693878,-0.15993,0.14824,-0.172215,-0.170132,-0.365164,0.657258
26,65,-0.0872665,-0.698132,-0.174533,0.174533,-0.0858313,-0.693878,-0.15993,0.14824,-0.172215,-0.170132,-0.365164,0.657258
26,65,-0.0872665,-0.698132,-0.174533,0.174533,-0.0858313,-0.693878,-0.15993,0.14824,-0.172215,-0.170132,-0.365164,0.657258
26,65,-0.0872665,-0.698132,-0.174533,0.174533,-0.0858313,-0.693878,-0.15993,0.14824,-0.172215,-0.170132,-0.365164,0.657258
26,65,-0.0872665,-0.698132,-0.174533,0.174533,-0.0858313,-0.693878,-0.15993,0.14824,-0.172215,-0.170132,-0.365164,0.657258
26,65,-0.0872665,-0.698132,-0.174533,0.174533,-0.0858313,-0.693878,-0.15993,0.14824,-0.172215,-0.170132,-0.365164,0.657258
26,65,-0.0872665,-0.698132,-0.174533,0.174533,-0.0858313,-0.693878,-0.15993,0.14824,-0.172215,-0.170132,-0.365164,0.657258
26,65,-0.0872665,-0.698132,-0.174533,0.174533,-0.0858313,-0.693878,-0.159877,0.148214,-0.172215,-0.170132,-0.366467,0.657915
26,65,-0.0872665,-0.698132,-0.174533,0.174533,-0.0858313,-0.693878,-0.159877,0.148214,-0.172215,-0.170132,-0.366467,0.657915
26,65,-0.0872665,-0.698132,-0.174533,0.174533,-0.0858313,-0.693878,-0.159881,0.148285,-0.172215,-0.170132,-0.366383,0.656138
26,65,-0.0872665,-0.698132,-0.174533,0.174533,-0.0858313,-0.693878,-0.159881,0.148285,-0.172215,-0.170132,-0.366383,0.656138
26,65,-0.0872665,-0.698132,-0.174533,0.174533,-0.0858313,-0.693878,-0.159881,0.148285,-0.172215,-0.170132,-0.366383,0.656138
26,65,-0.0872665,-0.698132,-0.174533,0.174533,-0.0858313,-0.693878,-0.159881,0.148285,-0.172215,-0.170132,-0.366383,0.656138
26,65,-0.0872665,-0.698132,-0.174533,0.174533,-0.0858313,-0.693878,-0.159881,0.148285,-0.172215,-0.170132,-0.366383,0.656138
26,65,-0.0872665,-0.698132,-0.174533,0.174533,-0.0858313,-0.693878,-0.159881,0.148285,-0.172215,-0.170132,-0.366383,0.656138
26,65,-0.0872665,-0.698132,-0.174533,0.174533,-0.0858313,-0.693878,-0.159828,0.148259,-0.172215,-0.170132,-0.367704,0.656805
26,65,-0.0872665,-0.698132,-0.174533,0.174533,-0.0858313,-0.693878,-0.159828,0.148259,-0.172215,-0.170132,-0.367704,0.656805
26,65,-0.0872665,-0.698132,-0.174533,0.174533,-0.0858313,-0.693878,-0.159832,0.148331,-0.172215,-0.170132,-0.36762,0.655011
26,65,-0.0872665,-0.698132,-0.174533,0.174533,-0.0858313,-0.693878,-0.159832,0.148331,-0.172215,-0.170132,-0.36762,0.655011
26,65,-0.0872665,-0.698132,-0.174533,0.174533,-0.0858313,-0.693878,-0.159832,0.148331,-0.172215,-0.170132,-0.36762,0.655011
26,65,-0.0872665,-0.698132,-0.174533,0.174533,-0.0858313,-0.693878,-0.159832,0.148331,-0.172215,-0.170132,-0.36762,0.655011
26,65,-0.0872665,-0.698132,-0.174533,0.174533,-0.0858313,-0.693878,-0.159832,0.148331,-0.172215,-0.170132,-0.36762,0.655011
26,65,-0.0872665,-0.698132,-0.174533,0.174533,-0.0858313,-0.693878,-0.159832,0.148331,-0.172215,-0.170132,-0.36762,0.655011
26,65,-0.0872665,-0.698132,-0.174533,0.174533,-0.0858313,-0.693878,-0.159779,0.148304,-0.172215,-0.170132,-0.36893,0.655672
26,65,-0.0872665,-0.698132,-0.174533,0.174533,-0.0858313,-0.693878,-0.159779,0.148304,-0.172215,-0.170132,-0.36893,0.655672
26,65,-0.0872665,-0.698132,-0.174533,0.174533,-0.0858313,-0.693878,-0.159779,0.148304,-0.172215,-0.170132,-0.36893,0.655672
26,65,-0.0872665,-0.698132,-0.174533,0.174533,-0.0858313,-0.693878,-0.159779,0.148304,-0.172215,-0.170132,-0.36893,0.655672
26,65,-0.0872665,-0.698132,-0.174533,0.174533,-0.0858313,-0.693878,-0.159779,0.148304,-0.172215,-0.170132,-0.36893,0.655672
26,65,-0.0872665,-0.698132,-0.174533,0.174533,-0.0858313,-0.693878,-0.159779,0.148304,-0.172215,-0.170132,-0.36893,0.655672
26,65,-0.0872665,-0.698132,-0.174533,0.174533,-0.0858313,-0.693878,-0.159779,0.148304,-0.172215,-0.170132,-0.36893,0.655672
26,65,-0.0872665,-0.698132,-0.174533,0.174533,-0.0858313,-0.693878,-0.159779,0.148304,-0.172215,-0.170132,-0.36893,0.655672
26,65,-0.0872665,-0.698132,-0.174533,0.174533,-0.0858313,-0.693878,-0.159779,0.148304,-0.172215,-0.170132,-0.36893,0.655672
26,65,-0.0872665,-0.698132,-0.174533,0.174533,-0.0858313,-0.693878,-0.159727,0.148278,-0.172215,-0.170132,-0.370246,0.656336
26,65,-0.0872665,-0.698132,-0.174533,0.174533,-0.0858313,-0.693878,-0.159727,0.148278,-0.172215,-0.170132,-0.370246,0.656336
26,65,-0.0872665,-0.698132,-0.174533,0.174533,-0.0858313,-0.693878,-0.159727,0.148278,-0.172215,-0.170132,-0.370246,0.656336
26,65,-0.0872665,-0.698132,-0.174533,0.174533,-0.0858313,-0.693878,-0.159727,0.148278,-0.172215,-0.170132,-0.370246,0.656336
26,65,-0.0872665,-0.698132,-0.174533,0.174533,-0.0858313,-0.693878,-0.159727,0.148278,-0.172215,-0.170132,-0.370246,0.656336
26,65,-0.0872665,-0.698132,-0.174533,0.174533,-0.0858313,-0.693878,-0.159727,0.148278,-0.172215,-0.170132,-0.370246,0.656336
26,65,-0.0872665,-0.698132,-0.174533,0.174533,-0.0858313,-0.693878,-0.159727,0.148278,-0.172215,-0.170132,-0.370246,0.656336
26,65,-0.0872665,-0.698132,-0.174533,0.174533,-0.0858313,-0.693878,-0.159727,0.148278,-0.172215,-0.170132,-0.370246,0.656336
26,65,-0.0872665,-0.698132,-0.174533,0.174533,-0.0858313,-0.693878,-0.159727,0.148278,-0.172215,-0.170132,-0.370246,0.656336
26,65,-0.0872665,-0.698132,-0.174533,0.174533,-0.0858313,-0.693878,-0.159727,0.148278,-0.172215,-0.170132,-0.370246,0.656336
26,65,-0.0872665,-0.698132,-0.174533,0.174533,-0.0858313,-0.693878,-0.159727,0.148278,-0.172215,-0.170132,-0.370246,0.656336
26,65,-0.0872665,-0.698132,-0.174533,0.174533,-0.0858313,-0.693878,-0.159727,0.148278,-0.172215,-0.170132,-0.370246,0.656336
26,65,-0.0872665,-0.698132,-0.174533,0.174533,-0.0858313,-0.693878,-0.159727,0.148278,-0.172215,-0.170132,-0.370246,0.656336
26,65,-0.0872665,-0.698132,-0.174533,0.174533,-0.0858313,-0.693878,-0.159727,0.148278,-0.172215,-0.170132,-0.370246,0.656336
26,65,-0.0872665,-0.698132,-0.174533,0.174533,-0.0858313,-0.693878,-0.159727,0.148278,-0.172215,-0.170132,-0.370246,0.656336
26,65,-0.0872665,-0.698132,-0.174533,0.174533,-0.0858313,-0.693878,-0.159727,0.148278,-0.172215,-0.170132,-0.370246,0.656336
26,65,-0.0872665,-0.698132,-0.174533,0.174533,-0.0858313,-0.693878,-0.159727,0.148278,-0.172215,-0.170132,-0.370246,0.656336
26,65,-0.0872665,-0.698132,-0.174533,0.174533,-0.0858313,-0.693878,-0.159727,0.148278,-0.172215,-0.170132,-0.370246,0.656336
26,65,-0.0872665,-0.698132,-0.174533,0.174533,-0.0858313,-0.693878,-0.159727,0.148278,-0.172215,-0.170132,-0.370246,0.656336
26,65,-0.0872665,-0.698132,-0.174533,0.174533,-0.0858313,-0.693878,-0.159727,0.148278,-0.172215,-0.170132,-0.370246,0.656336
26,65,-0.0872665,-0.698132,-0.174533,0.174533,-0.0858313,-0.693878,-0.159727,0.148278,-0.172215,-0.170132,-0.370246,0.656336
26,65,-0.0872665,-0.698132,-0.174533,0.174533,-0.0858313,-0.693878,-0.159727,0.148278,-0.172215,-0.170132,-0.370246,0.656336
26,65,-0.0872665,-0.698132,-0.174533,0.174533,-0.0858313,-0.693878,-0.159727,0.148278,-0.172215,-0.170132,-0.370246,0.656336
26,65,-0.0872665,-0.698132,-0.174533,0.174533,-0.0858313,-0.693878,-0.159727,0.148278,-0.172215,-0.170132,-0.370246,0.656336
26,65,-0.0872665,-0.698132,-0.174533,0.174533,-0.0858313,-0.693878,-0.159727,0.148278,-0.172215,-0.170132,-0.370246,0.656336
26,65,-0.0872665,-0.698132,-0.174533,0.174533,-0.0858313,-0.693878,-0.159727,0.148278,-0.172215,-0.170132,-0.370246,0.656336
26,65,-0.0872665,-0.698132,-0.174533,0.174533,-0.0858313,-0.693878,-0.159727,0.148278,-0.172215,-0.170132,-0.370246,0.656336
26,65,-0.0872665,-0.698132,-0.174533,0.174533,-0.0858313,-0.693878,-0.159727,0.148278,-0.172215,-0.170132,-0.370246,0.656336
26,65,-0.0872665,-0.698132,-0.174533,0.174533,-0.0858313,-0.693878,-0.159727,0.148278,-0.172215,-0.170132,-0.370246,0.656336
26,65,-0.0872665,-0.698132,-0.174533,0.174533,-0.0858313,-0.693878,-0.159727,0.148278,-0.172215,-0.170132,-0.370246,0.656336
26,65,-0.0872665,-0.698132,-0.174533,0.174533,-0.0858313,-0.693878,-0.159727,0.148278,-0.172215,-0.170132,-0.370246,0.656336
26,65,-0.0872665,-0.698132,-0.174533,0.174533,-0.0858313,-0.693878,-0.159727,0.148278,-0.172215,-0.170132,-0.370246,0.656336
26,65,-0.0872665,-0.698132,-0.174533,0.174533,-0.0858313,-0.693878,-0.159727,0.148278,-0.172215,-0.170132,-0.370246,0.656336
26,65,-0.0872665,-0.698132,-0.174533,0.174533,-0.0858313,-0.693878,-0.159727,0.148278,-0.172215,-0.170132,-0.370246,0.656336
26,65,-0.0872665,-0.698132,-0.174533,0.174533,-0.0858313,-0.693878,-0.159727,0.148278,-0.172215,-0.170132,-0.370246,0.656336
26,65,-0.0872665,-0.698132,-0.174533,0.174533,-0.0858313,-0.693878,-0.159727,0.148278,-0.172215,-0.170132,-0.370246,0.656336
26,65,-0.0872665,-0.698132,-0.174533,0.174533,-0.0858313,-0.693878,-0.159727,0.148278,-0.172215,-0.170132,-0.370246,0.656336
26,65,-0.0872665,-0.698132,-0.174533,0.174533,-0.0858313,-0.693878,-0.159727,0.148278,-0.172215,-0.170132,-0.370246,0.656336
26,65,-0.0872665,-0.698132,-0.174533,0.174533,-0.0858313,-0.693878,-0.159727,0.148278,-0.172215,-0.170132,-0.370246,0.656336
26,65,-0.0872665,-0.698132,-0.174533,0.174533,-0.0858313,-0.693878,-0.159777,0.148234,-0.172215,-0.170132,-0.369002,0.657426
26,65,-0.0872665,-0.698132,-0.174533,0.174533,-0.0858313,-0.693878,-0.159777,0.148234,-0.172215,-0.170132,-0.369002,0.657426
26,65,-0.0872665,-0.698132,-0.174533,0.174533,-0.0858313,-0.693878,-0.159777,0.148234,-0.172215,-0.170132,-0.369001,0.657425
26,65,-0.0872665,-0.698132,-0.174533,0.174533,-0.0858313,-0.693878,-0.159777,0.148234,-0.172215,-0.170132,-0.368998,0.657424
26,65,-0.0872665,-0.698132,-0.174533,0.174533,-0.0858313,-0.693878,-0.159777,0.148234,-0.172215,-0.170132,-0.368996,0.657423
26,65,-0.0872665,-0.698132,-0.174533,0.174533,-0.0858313,-0.693878,-0.159777,0.148234,-0.172215,-0.170132,-0.368994,0.657422
26,65,-0.0872665,-0.698132,-0.174533,0.174533,-0.0858313,-0.693878,-0.159777,0.148234,-0.172215,-0.170132,-0.368992,0.657421
26,65,-0.0872665,-0.698132,-0.174533,0.174533,-0.0858313,-0.693878,-0.159777,0.148234,-0.172215,-0.170132,-0.36899,0.657421
26,65,-0.0872665,-0.698132,-0.174533,0.174533,-0.0858313,-0.693878,-0.159777,0.148234,-0.172215,-0.170132,-0.368988,0.657422
26,65,-0.0872665,-0.698132,-0.174533,0.174533,-0.0858313,-0.693878,-0.159777,0.148234,-0.172215,-0.170132,-0.368987,0.657422
26,65,-0.0872665,-0.698132,-0.174533,0.174533,-0.0858313,-0.693878,-0.159777,0.148234,-0.172215,-0.170132,-0.368985,0.657423
26,65,-0.0872665,-0.698132,-0.174533,0.174533,-0.0858313,-0.693878,-0.159777,0.148234,-0.172215,-0.170132,-0.368983,0.657424
26,65,-0.0872665,-0.698132,-0.174533,0.174533,-0.0858313,-0.693878,-0.159777,0.148234,-0.172215,-0.170132,-0.368982,0.657424
26,65,-0.0872665,-0.698132,-0.174533,0.174533,-0.0858313,-0.693878,-0.159777,0.148234,-0.172215,-0.170132,-0.36898,0.657425
26,65,-0.0872665,-0.698132,-0.174533,0.174533,-0.0858313,-0.693878,-0.159777,0.148234,-0.172215,-0.170132,-0.368979,0.657425
26,65,-0.0872665,-0.698132,-0.174533,0.174533,-0.0858313,-0.693878,-0.159777,0.148234,-0.172215,-0.170132,-0.368978,0.657425
26,65,-0.0872665,-0.698132,-0.174533,0.174533,-0.0858313,-0.693878,-0.159777,0.148234,-0.172215,-0.170132,-0.368976,0.657426
26,65,-0.0872665,-0.698132,-0.174533,0.174533,-0.0858313,-0.693878,-0.159777,0.148234,-0.172215,-0.170132,-0.368975,0.657426
26,65,-0.0872665,-0.698132,-0.174533,0.174533,-0.0858313,-0.693878,-0.159777,0.148234,-0.172215,-0.170132,-0.368974,0.657427
26,65,-0.0872665,-0.698132,-0.174533,0.174533,-0.0858313,-0.693878,-0.159777,0.148234,-0.172215,-0.170132,-0.368973,0.657427
26,65,-0.0872665,-0.698132,-0.174533,0.174533,-0.0858313,-0.693878,-0.159777,0.148234,-0.172215,-0.170132,-0.368972,0.657428
26,65,-0.0872665,-0.698132,-0.174533,0.174533,-0.0858313,-0.693878,-0.159826,0.148191,-0.172215,-0.170132,-0.367726,0.658518
26,65,-0.0872665,-0.698132,-0.174533,0.174533,-0.0858313,-0.693878,-0.159826,0.148191,-0.172215,-0.170132,-0.367725,0.658518
26,65,-0.0872665,-0.698132,-0.174533,0.174533,-0.0858313,-0.693878,-0.159826,0.148191,-0.172215,-0.170132,-0.367724,0.658518
26,65,-0.0872665,-0.698132,-0.174533,0.174533,-0.0858313,-0.693878,-0.159826,0.148191,-0.172215,-0.170132,-0.367723,0.658519
26,65,-0.0872665,-0.698132,-0.174533,0.174533,-0.0858313,-0.693878,-0.159826,0.148191,-0.172215,-0.170132,-0.367722,0.658519
26,65,-0.0872665,-0.698132,-0.174533,0.174533,-0.0858313,-0.693878,-0.159826,0.148191,-0.172215,-0.170132,-0.367721,0.65852
26,65,-0.0872665,-0.698132,-0.174533,0.174533,-0.0858313,-0.693878,-0.159774,0.148164,-0.172215,-0.170132,-0.368966,0.659149
26,65,-0.0872665,-0.698132,-0.174533,0.174533,-0.0858313,-0.693878,-0.159774,0.148164,-0.172215,-0.170132,-0.368966,0.659149
26,65,-0.0872665,-0.698132,-0.174533,0.174533,-0.0858313,-0.693878,-0.159774,0.148164,-0.172215,-0.170132,-0.368966,0.65915
26,65,-0.0872665,-0.698132,-0.174533,0.174533,-0.0858313,-0.693878,-0.159774,0.148164,-0.172215,-0.170132,-0.368969,0.659218
26,65,-0.0872665,-0.698132,-0.174533,0.174533,-0.0858313,-0.693878,-0.159774,0.148164,-0.172215,-0.170132,-0.368969,0.659218
26,65,-0.0872665,-0.698132,-0.174533,0.174533,-0.0858313,-0.693878,-0.159774,0.148164,-0.172215,-0.170132,-0.368969,0.659218
26,65,-0.0872665,-0.698132,-0.174533,0.174533,-0.0858313,-0.693878,-0.159824,0.148121,-0.172215,-0.170132,-0.367725,0.660308
26,65,-0.0872665,-0.698132,-0.174533,0.174533,-0.0858313,-0.693878,-0.159824,0.148121,-0.172215,-0.170132,-0.367725,0.660308
26,65,-0.0872665,-0.698132,-0.174533,0.174533,-0.0858313,-0.693878,-0.159824,0.148121,-0.172215,-0.170132,-0.367725,0.660308
26,65,-0.0872665,-0.698132,-0.174533,0.174533,-0.0858313,-0.693878,-0.159824,0.148121,-0.172215,-0.170132,-0.367725,0.660308
26,65,-0.0872665,-0.698132,-0.174533,0.174533,-0.0858313,-0.693878,-0.159824,0.148121,-0.172215,-0.170132,-0.367725,0.660308
26,65,-0.0872665,-0.698132,-0.174533,0.174533,-0.0858313,-0.693878,-0.159824,0.148121,-0.172215,-0.170132,-0.367725,0.660308
26,65,-0.0872665,-0.698132,-0.174533,0.174533,-0.0858313,-0.693878,-0.159824,0.148121,-0.172215,-0.170132,-0.367725,0.660308
26,65,-0.0872665,-0.698132,-0.174533,0.174533,-0.0858313,-0.693878,-0.159824,0.148121,-0.172215,-0.170132,-0.367725,0.660308
26,65,-0.0872665,-0.698132,-0.174533,0.174533,-0.0858313,-0.693878,-0.159824,0.148121,-0.172215,-0.170132,-0.367725,0.660308
26,65,-0.0872665,-0.698132,-0.174533,0.174533,-0.0858313,-0.693878,-0.159824,0.148121,-0.172215,-0.170132,-0.367725,0.660308
26,65,-0.0872665,-0.698132,-0.174533,0.174533,-0.0858313,-0.693878,-0.159824,0.148121,-0.172215,-0.170132,-0.367725,0.660308
26,65,-0.0872665,-0.698132,-0.174533,0.174533,-0.0858313,-0.693878,-0.159824,0.148121,-0.172215,-0.170132,-0.367725,0.660308
26,65,-0.0872665,-0.698132,-0.174533,0.174533,-0.0858313,-0.693878,-0.159824,0.148121,-0.172215,-0.170132,-0.367725,0.660308
26,65,-0.0872665,-0.698132,-0.174533,0.174533,-0.0858313,-0.693878,-0.159824,0.148121,-0.172215,-0.170132,-0.367725,0.660308
26,65,-0.0872665,-0.698132,-0.174533,0.174533,-0.0858313,-0.693878,-0.159772,0.148094,-0.172215,-0.170132,-0.369033,0.660968
26,65,-0.0872665,-0.698132,-0.174533,0.174533,-0.0858313,-0.693878,-0.159772,0.148094,-0.172215,-0.170132,-0.369033,0.660968
26,65,-0.0872665,-0.698132,-0.174533,0.174533,-0.0858313,-0.693878,-0.159772,0.148094,-0.172215,-0.170132,-0.369033,0.660968
26,65,-0.0872665,-0.698132,-0.174533,0.174533,-0.0858313,-0.693878,-0.159772,0.148094,-0.172215,-0.170132,-0.369033,0.660968
26,65,-0.0872665,-0.698132,-0.174533,0.174533,-0.0858313,-0.693878,-0.159772,0.148094,-0.172215,-0.170132,-0.369033,0.660968
26,65,-0.0872665,-0.698132,-0.174533,0.174533,-0.0858313,-0.693878,-0.159772,0.148094,-0.172215,-0.170132,-0.369033,0.660968
26,65,-0.0872665,-0.698132,-0.174533,0.174533,-0.0858313,-0.693878,-0.159772,0.148094,-0.172215,-0.170132,-0.369033,0.660968
26,65,-0.0872665,-0.698132,-0.174533,0.174533,-0.0858313,-0.693878,-0.159772,0.148094,-0.172215,-0.170132,-0.369033,0.660968
26,65,-0.0872665,-0.698132,-0.174533,0.174533,-0.0858313,-0.693878,-0.159719,0.148068,-0.172215,-0.170132,-0.370342,0.661628
26,65,-0.0872665,-0.698132,-0.174533,0.174533,-0.0858313,-0.693878,-0.159719,0.148068,-0.172215,-0.170132,-0.370342,0.661628
26,65,-0.0872665,-0.698132,-0.174533,0.174533,-0.0858313,-0.693878,-0.159719,0.148068,-0.172215,-0.170132,-0.370342,0.661628
26,65,-0.0872665,-0.698132,-0.174533,0.174533,-0.0858313,-0.693878,-0.159719,0.148068,-0.172215,-0.170132,-0.370342,0.661628
26,65,-0.0872665,-0.698132,-0.174533,0.174533,-0.0858313,-0.693878,-0.159719,0.148068,-0.172215,-0.170132,-0.370342,0.661628
26,65,-0.0872665,-0.698132,-0.174533,0.174533,-0.0858313,-0.693878,-0.159667,0.148041,-0.172215,-0.170132,-0.37165,0.662289
26,65,-0.0872665,-0.698132,-0.174533,0.174533,-0.0858313,-0.693878,-0.159667,0.148041,-0.172215,-0.170132,-0.37165,0.662289
26,65,-0.0872665,-0.698132,-0.174533,0.174533,-0.0858313,-0.693878,-0.159667,0.148041,-0.172215,-0.170132,-0.37165,0.662289
26,65,-0.0872665,-0.698132,-0.174533,0.174533,-0.0858313,-0.693878,-0.159667,0.148041,-0.172215,-0.170132,-0.37165,0.662289
26,65,-0.0872665,-0.698132,-0.174533,0.174533,-0.0858313,-0.693878,-0.15967,0.148113,-0.172215,-0.170132,-0.371565,0.660498
26,65,-0.0872665,-0.698132,-0.174533,0.174533,-0.0858313,-0.693878,-0.15967,0.148113,-0.172215,-0.170132,-0.371565,0.660498
26,65,-0.0872665,-0.698132,-0.174533,0.174533,-0.0858313,-0.693878,-0.15967,0.148113,-0.172215,-0.170132,-0.371565,0.660498
26,65,-0.0872665,-0.698132,-0.174533,0.174533,-0.0858313,-0.693878,-0.15967,0.148113,-0.172215,-0.170132,-0.371565,0.660498
26,65,-0.0872665,-0.698132,-0.174533,0.174533,-0.0858313,-0.693878,-0.159618,0.148087,-0.172215,-0.170132,-0.372976,0.66121
26,65,-0.0872665,-0.698132,-0.174533,0.174533,-0.0858313,-0.693878,-0.159618,0.148087,-0.172215,-0.170132,-0.372976,0.66121
26,65,-0.0872665,-0.698132,-0.174533,0.174533,-0.0858313,-0.693878,-0.159618,0.148087,-0.172215,-0.170132,-0.372976,0.66121
26,65,-0.0872665,-0.698132,-0.174533,0.174533,-0.0858313,-0.693878,-0.159618,0.148087,-0.172215,-0.170132,-0.372976,0.66121
26,65,-0.0872665,-0.698132,-0.174533,0.174533,-0.0858313,-0.693878,-0.159618,0.148087,-0.172215,-0.170132,-0.372976,0.66121
26,65,-0.0872665,-0.698132,-0.174533,0.174533,-0.0858313,-0.693878,-0.159618,0.148087,-0.172215,-0.170132,-0.372976,0.66121
26,65,-0.0872665,-0.698132,-0.174533,0.174533,-0.0858313,-0.693878,-0.159618,0.148087,-0.172215,-0.170132,-0.372976,0.66121
26,65,-0.0872665,-0.698132,-0.174533,0.174533,-0.0858313,-0.693878,-0.159618,0.148087,-0.172215,-0.170132,-0.372976,0.66121
26,65,-0.0872665,-0.698132,-0.174533,0.174533,-0.0858313,-0.693878,-0.159566,0.14806,-0.172215,-0.170132,-0.374331,0.661893
26,65,-0.0872665,-0.698132,-0.174533,0.174533,-0.0858313,-0.693878,-0.159566,0.14806,-0.172215,-0.170132,-0.374331,0.661893
26,65,-0.0872665,-0.698132,-0.174533,0.174533,-0.0858313,-0.693878,-0.159566,0.14806,-0.172215,-0.170132,-0.374331,0.661893
26,65,-0.0872665,-0.698132,-0.174533,0.174533,-0.0858313,-0.693878,-0.159566,0.14806,-0.172215,-0.170132,-0.374331,0.661893
26,65,-0.0872665,-0.698132,-0.174533,0.174533,-0.0858313,-0.693878,-0.159513,0.148034,-0.172215,-0.170132,-0.375659,0.662564
26,65,-0.0872665,-0.698132,-0.174533,0.174533,-0.0858313,-0.693878,-0.159513,0.148034,-0.172215,-0.170132,-0.375659,0.662564
26,65,-0.0872665,-0.698132,-0.174533,0.174533,-0.0858313,-0.693878,-0.159513,0.148034,-0.172215,-0.170132,-0.375659,0.662564
26,65,-0.0872665,-0.698132,-0.174533,0.174533,-0.0858313,-0.693878,-0.159513,0.148034,-0.172215,-0.170132,-0.375659,0.662564
26,65,-0.0872665,-0.698132,-0.174533,0.174533,-0.0858313,-0.693878,-0.159513,0.148034,-0.172215,-0.170132,-0.375659,0.662564
26,65,-0.0872665,-0.698132,-0.174533,0.174533,-0.0858313,-0.693878,-0.159513,0.148034,-0.172215,-0.170132,-0.375659,0.662564
26,65,-0.0872665,-0.698132,-0.174533,0.174533,-0.0858313,-0.693878,-0.159513,0.148034,-0.172215,-0.170132,-0.375659,0.662564
26,65,-0.0872665,-0.698132,-0.174533,0.174533,-0.0858313,-0.693878,-0.159513,0.148034,-0.172215,-0.170132,-0.375659,0.662564
26,65,-0.0872665,-0.698132,-0.174533,0.174533,-0.0858313,-0.693878,-0.159461,0.148007,-0.172215,-0.170132,-0.37695,0.663215
26,65,-0.0872665,-0.698132,-0.174533,0.174533,-0.0858313,-0.693878,-0.159461,0.148007,-0.172215,-0.170132,-0.37695,0.663215
26,65,-0.0872665,-0.698132,-0.174533,0.174533,-0.0858313,-0.693878,-0.159461,0.148007,-0.172215,-0.170132,-0.37695,0.663215
26,65,-0.0872665,-0.698132,-0.174533,0.174533,-0.0858313,-0.693878,-0.159461,0.148007,-0.172215,-0.170132,-0.37695,0.663215
26,65,-0.0872665,-0.698132,-0.174533,0.174533,-0.0858313,-0.693878,-0.159461,0.148007,-0.172215,-0.170132,-0.37695,0.663215
26,65,-0.0872665,-0.698132,-0.174533,0.174533,-0.0858313,-0.693878,-0.159409,0.147981,-0.172215,-0.170132,-0.378276,0.663884
26,65,-0.0872665,-0.698132,-0.174533,0.174533,-0.0858313,-0.693878,-0.159409,0.147981,-0.172215,-0.170132,-0.378276,0.663884
26,65,-0.0872665,-0.698132,-0.174533,0.174533,-0.0858313,-0.693878,-0.159409,0.147981,-0.172215,-0.170132,-0.378276,0.663884
26,65,-0.0872665,-0.698132,-0.174533,0.174533,-0.0858313,-0.693878,-0.159409,0.147981,-0.172215,-0.170132,-0.378276,0.663884
26,65,-0.0872665,-0.698132,-0.174533,0.174533,-0.0858313,-0.693878,-0.159412,0.148053,-0.172215,-0.170132,-0.378191,0.662094
26,65,-0.0872665,-0.698132,-0.174533,0.174533,-0.0858313,-0.693878,-0.159412,0.148053,-0.172215,-0.170132,-0.378191,0.662094
26,65,-0.0872665,-0.698132,-0.174533,0.174533,-0.0858313,-0.693878,-0.159412,0.148053,-0.172215,-0.170132,-0.378191,0.662094
26,65,-0.0872665,-0.698132,-0.174533,0.174533,-0.0858313,-0.693878,-0.15936,0.148026,-0.172215,-0.170132,-0.379501,0.662755
26,65,-0.0872665,-0.698132,-0.174533,0.174533,-0.0858313,-0.693878,-0.15936,0.148026,-0.172215,-0.170132,-0.379501,0.662755
26,65,-0.0872665,-0.698132,-0.174533,0.174533,-0.0858313,-0.693878,-0.15936,0.148026,-0.172215,-0.170132,-0.379501,0.662755
26,65,-0.0872665,-0.698132,-0.174533,0.174533,-0.0858313,-0.693878,-0.15936,0.148026,-0.172215,-0.170132,-0.379501,0.662755
26,65,-0.0872665,-0.698132,-0.174533,0.174533,-0.0858313,-0.693878,-0.15936,0.148026,-0.172215,-0.170132,-0.379501,0.662755
26,65,-0.0872665,-0.698132,-0.174533,0.174533,-0.0858313,-0.693878,-0.15936,0.148026,-0.172215,-0.170132,-0.379501,0.662755
26,65,-0.0872665,-0.698132,-0.174533,0.174533,-0.0858313,-0.693878,-0.15936,0.148026,-0.172215,-0.170132,-0.379501,0.662755
26,65,-0.0872665,-0.698132,-0.174533,0.174533,-0.0858313,-0.693878,-0.15936,0.148026,-0.172215,-0.170132,-0.379501,0.662755
26,65,-0.0872665,-0.698132,-0.174533,0.174533,-0.0858313,-0.693878,-0.15936,0.148026,-0.172215,-0.170132,-0.379501,0.662755
26,65,-0.0872665,-0.698132,-0.174533,0.174533,-0.0858313,-0.693878,-0.15936,0.148026,-0.172215,-0.170132,-0.379501,0.662755
26,65,-0.0872665,-0.698132,-0.174533,0.174533,-0.0858313,-0.693878,-0.15936,0.148026,-0.172215,-0.170132,-0.379501,0.662755
26,65,-0.0872665,-0.698132,-0.174533,0.174533,-0.0858313,-0.693878,-0.15936,0.148026,-0.172215,-0.170132,-0.379501,0.662755
26,65,-0.0872665,-0.698132,-0.174533,0.174533,-0.0858313,-0.693878,-0.15936,0.148026,-0.172215,-0.170132,-0.379501,0.662755
26,65,-0.0872665,-0.698132,-0.174533,0.174533,-0.0858313,-0.693878,-0.15936,0.148026,-0.172215,-0.170132,-0.379501,0.662755
26,65,-0.0872665,-0.698132,-0.174533,0.174533,-0.0858313,-0.693878,-0.15936,0.148026,-0.172215,-0.170132,-0.379501,0.662755
26,65,-0.0872665,-0.698132,-0.174533,0.174533,-0.0858313,-0.693878,-0.15936,0.148026,-0.172215,-0.170132,-0.379501,0.662755
26,65,-0.0872665,-0.698132,-0.174533,0.174533,-0.0858313,-0.693878,-0.15936,0.148026,-0.172215,-0.170132,-0.379501,0.662755
26,65,-0.0872665,-0.698132,-0.174533,0.174533,-0.0858313,-0.693878,-0.15936,0.148026,-0.172215,-0.170132,-0.379501,0.662755
26,65,-0.0872665,-0.698132,-0.174533,0.174533,-0.0858313,-0.693878,-0.15936,0.148026,-0.172215,-0.170132,-0.379501,0.662755
26,65,-0.0872665,-0.698132,-0.174533,0.174533,-0.0858313,-0.693878,-0.15936,0.148026,-0.172215,-0.170132,-0.379501,0.662755
26,65,-0.0872665,-0.698132,-0.174533,0.174533,-0.0858313,-0.693878,-0.15936,0.148026,-0.172215,-0.170132,-0.379501,0.662755
26,65,-0.0872665,-0.698132,-0.174533,0.174533,-0.0858313,-0.693878,-0.15936,0.148026,-0.172215,-0.170132,-0.379501,0.662755
26,65,-0.0872665,-0.698132,-0.174533,0.174533,-0.0858313,-0.693878,-0.15936,0.148026,-0.172215,-0.170132,-0.379501,0.662755
26,65,-0.0872665,-0.698132,-0.174533,0.174533,-0.0858313,-0.693878,-0.15936,0.148026,-0.172215,-0.170132,-0.379501,0.662755
26,65,-0.0872665,-0.698132,-0.174533,0.174533,-0.0858313,-0.693878,-0.15936,0.148026,-0.172215,-0.170132,-0.379501,0.662755
26,65,-0.0872665,-0.698132,-0.174533,0.174533,-0.0858313,-0.693878,-0.15936,0.148026,-0.172215,-0.170132,-0.379497,0.662753
26,65,-0.0872665,-0.698132,-0.174533,0.174533,-0.0858313,-0.693878,-0.15936,0.148026,-0.172215,-0.170132,-0.379491,0.66275
26,65,-0.0872665,-0.698132,-0.174533,0.174533,-0.0858313,-0.693878,-0.15936,0.148026,-0.172215,-0.170132,-0.379485,0.662747
26,65,-0.0872665,-0.698132,-0.174533,0.174533,-0.0858313,-0.693878,-0.15936,0.148026,-0.172215,-0.170132,-0.379479,0.662744
26,65,-0.0872665,-0.698132,-0.174533,0.174533,-0.0858313,-0.693878,-0.15936,0.148026,-0.172215,-0.170132,-0.379474,0.662741
26,65,-0.0872665,-0.698132,-0.174533,0.174533,-0.0858313,-0.693878,-0.15936,0.148026,-0.172215,-0.170132,-0.37947,0.662739
26,65,-0.0872665,-0.698132,-0.174533,0.174533,-0.0858313,-0.693878,-0.15936,0.148026,-0.172215,-0.170132,-0.379465,0.662737
26,65,-0.0872665,-0.698132,-0.174533,0.174533,-0.0858313,-0.693878,-0.15936,0.148026,-0.172215,-0.170132,-0.379461,0.662735
26,65,-0.0872665,-0.698132,-0.174533,0.174533,-0.0858313,-0.693878,-0.15936,0.148026,-0.172215,-0.170132,-0.379457,0.662733
26,65,-0.0872665,-0.698132,-0.174533,0.174533,-0.0858313,-0.693878,-0.15936,0.148026,-0.172215,-0.170132,-0.379453,0.662731
26,65,-0.0872665,-0.698132,-0.174533,0.174533,-0.0858313,-0.693878,-0.15936,0.148026,-0.172215,-0.170132,-0.37945,0.662729
26,65,-0.0872665,-0.698132,-0.174533,0.174533,-0.0858313,-0.693878,-0.15936,0.148026,-0.172215,-0.170132,-0.379447,0.662727
26,65,-0.0872665,-0.698132,-0.174533,0.174533,-0.0858313,-0.693878,-0.15936,0.148026,-0.172215,-0.170132,-0.379444,0.662726
26,65,-0.0872665,-0.698132,-0.174533,0.174533,-0.0858313,-0.693878,-0.15936,0.148026,-0.172215,-0.170132,-0.379441,0.662724
26,65,-0.0872665,-0.698132,-0.174533,0.174533,-0.0858313,-0.693878,-0.15936,0.148026,-0.172215,-0.170132,-0.379438,0.662723
26,65,-0.0872665,-0.698132,-0.174533,0.174533,-0.0858313,-0.693878,-0.15936,0.148026,-0.172215,-0.170132,-0.379435,0.662722
26,65,-0.0872665,-0.698132,-0.174533,0.174533,-0.0858313,-0.693878,-0.15936,0.148026,-0.172215,-0.170132,-0.379433,0.66272
26,65,-0.0872665,-0.698132,-0.174533,0.174533,-0.0858313,-0.693878,-0.15936,0.148026,-0.172215,-0.170132,-0.37943,0.662719
26,65,-0.0872665,-0.698132,-0.174533,0.174533,-0.0858313,-0.693878,-0.15936,0.148026,-0.172215,-0.170132,-0.379428,0.662718
26,65,-0.0872665,-0.698132,-0.174533,0.174533,-0.0858313,-0.693878,-0.15936,0.148026,-0.172215,-0.170132,-0.379426,0.662717
26,65,-0.0872665,-0.698132,-0.174533,0.174533,-0.0858313,-0.693878,-0.15936,0.148026,-0.172215,-0.170132,-0.379424,0.662716
26,65,-0.0872665,-0.698132,-0.174533,0.174533,-0.0858313,-0.693878,-0.15936,0.148026,-0.172215,-0.170132,-0.379422,0.662715
26,65,-0.0872665,-0.698132,-0.174533,0.174533,-0.0858313,-0.693878,-0.15936,0.148026,-0.172215,-0.170132,-0.37942,0.662714
26,65,-0.0872665,-0.698132,-0.174533,0.174533,-0.0858313,-0.693878,-0.15936,0.148026,-0.172215,-0.170132,-0.379418,0.662713
26,65,-0.0872665,-0.698132,-0.174533,0.174533,-0.0858313,-0.693878,-0.15936,0.148026,-0.172215,-0.170132,-0.379416,0.662712
26,65,-0.0872665,-0.698132,-0.174533,0.174533,-0.0858313,-0.693878,-0.15936,0.148026,-0.172215,-0.170132,-0.379414,0.662711
26,65,-0.0872665,-0.698132,-0.174533,0.174533,-0.0858313,-0.693878,-0.15936,0.148026,-0.172215,-0.170132,-0.379413,0.66271
26,65,-0.0872665,-0.698132,-0.174533,0.174533,-0.0858313,-0.693878,-0.15936,0.148026,-0.172215,-0.170132,-0.379411,0.66271
26,65,-0.0872665,-0.698132,-0.174533,0.174533,-0.0858313,-0.693878,-0.15936,0.148026,-0.172215,-0.170132,-0.37941,0.662709
26,65,-0.0872665,-0.698132,-0.174533,0.174533,-0.0858313,-0.693878,-0.159363,0.148098,-0.172215,-0.170132,-0.379324,0.660917
26,65,-0.0872665,-0.698132,-0.174533,0.174533,-0.0858313,-0.693878,-0.159363,0.148098,-0.172215,-0.170132,-0.379322,0.660917
26,65,-0.0872665,-0.698132,-0.174533,0.174533,-0.0858313,-0.693878,-0.159363,0.148098,-0.172215,-0.170132,-0.379321,0.660916
26,65,-0.0872665,-0.698132,-0.174533,0.174533,-0.0858313,-0.693878,-0.159363,0.148098,-0.172215,-0.170132,-0.37932,0.660915
26,65,-0.0872665,-0.698132,-0.174533,0.174533,-0.0858313,-0.693878,-0.159363,0.148098,-0.172215,-0.170132,-0.379319,0.660915
26,65,-0.0872665,-0.698132,-0.174533,0.174533,-0.0858313,-0.693878,-0.159363,0.148098,-0.172215,-0.170132,-0.379317,0.660914
26,65,-0.0872665,-0.698132,-0.174533,0.174533,-0.0858313,-0.693878,-0.159363,0.148098,-0.172215,-0.170132,-0.379316,0.660913
26,65,-0.0872665,-0.698132,-0.174533,0.174533,-0.0858313,-0.693878,-0.159363,0.148098,-0.172215,-0.170132,-0.379315,0.660913
26,65,-0.0872665,-0.698132,-0.174533,0.174533,-0.0858313,-0.693878,-0.159363,0.148098,-0.172215,-0.170132,-0.379314,0.660912
26,65,-0.0872665,-0.698132,-0.174533,0.174533,-0.0858313,-0.693878,-0.159363,0.148098,-0.172215,-0.170132,-0.379313,0.660912
26,65,-0.0872665,-0.698132,-0.174533,0.174533,-0.0858313,-0.693878,-0.159363,0.148098,-0.172215,-0.170132,-0.379312,0.660911
26,65,-0.0872665,-0.698132,-0.174533,0.174533,-0.0858313,-0.693878,-0.159363,0.148098,-0.172215,-0.170132,-0.379311,0.660911
26,65,-0.0872665,-0.698132,-0.174533,0.174533,-0.0858313,-0.693878,-0.159366,0.148169,-0.172215,-0.170132,-0.379225,0.659119
26,65,-0.0872665,-0.698132,-0.174533,0.174533,-0.0858313,-0.693878,-0.159366,0.148169,-0.172215,-0.170132,-0.379224,0.659119
26,65,-0.0872665,-0.698132,-0.174533,0.174533,-0.0858313,-0.693878,-0.159366,0.148169,-0.172215,-0.170132,-0.379223,0.659118
26,65,-0.0872665,-0.698132,-0.174533,0.174533,-0.0858313,-0.693878,-0.159366,0.148169,-0.172215,-0.170132,-0.379222,0.659118
26,65,-0.0872665,-0.698132,-0.174533,0.174533,-0.0858313,-0.693878,-0.159366,0.148169,-0.172215,-0.170132,-0.379221,0.659117
26,65,-0.0872665,-0.698132,-0.174533,0.174533,-0.0858313,-0.693878,-0.159366,0.148169,-0.172215,-0.170132,-0.379221,0.659117
26,65,-0.0872665,-0.698132,-0.174533,0.174533,-0.0858313,-0.693878,-0.15937,0.148241,-0.172215,-0.170132,-0.379135,0.657326
26,65,-0.0872665,-0.698132,-0.174533,0.174533,-0.0858313,-0.693878,-0.15937,0.148241,-0.172215,-0.170132,-0.379134,0.657325
26,65,-0.0872665,-0.698132,-0.174533,0.174533,-0.0858313,-0.693878,-0.15937,0.148241,-0.172215,-0.170132,-0.379134,0.657325
26,65,-0.0872665,-0.698132,-0.174533,0.174533,-0.0858313,-0.693878,-0.159321,0.148286,-0.172215,-0.170132,-0.380297,0.656092
26,65,-0.0872665,-0.698132,-0.174533,0.174533,-0.0858313,-0.693878,-0.159321,0.148286,-0.172215,-0.170132,-0.380297,0.656092
26,65,-0.0872665,-0.698132,-0.174533,0.174533,-0.0858313,-0.693878,-0.159321,0.148286,-0.172215,-0.170132,-0.380297,0.656092
26,65,-0.0872665,-0.698132,-0.174533,0.174533,-0.0858313,-0.693878,-0.159321,0.148286,-0.172215,-0.170132,-0.380297,0.656092
26,65,-0.0872665,-0.698132,-0.174533,0.174533,-0.0858313,-0.693878,-0.159269,0.14826,-0.172215,-0.170132,-0.381606,0.656753
26,65,-0.0872665,-0.698132,-0.174533,0.174533,-0.0858313,-0.693878,-0.159269,0.14826,-0.172215,-0.170132,-0.381606,0.656753
26,65,-0.0872665,-0.698132,-0.174533,0.174533,-0.0858313,-0.693878,-0.159269,0.14826,-0.172215,-0.170132,-0.381606,0.656753
26,65,-0.0872665,-0.698132,-0.174533,0.174533,-0.0858313,-0.693878,-0.159269,0.14826,-0.172215,-0.170132,-0.381606,0.656753
26,65,-0.0872665,-0.698132,-0.174533,0.174533,-0.0858313,-0.693878,-0.159269,0.14826,-0.172215,-0.170132,-0.381606,0.656753
26,65,-0.0872665,-0.698132,-0.174533,0.174533,-0.0858313,-0.693878,-0.159269,0.14826,-0.172215,-0.170132,-0.381606,0.656753
26,65,-0.0872665,-0.698132,-0.174533,0.174533,-0.0858313,-0.693878,-0.159269,0.14826,-0.172215,-0.170132,-0.381606,0.656753
26,65,-0.0872665,-0.698132,-0.174533,0.174533,-0.0858313,-0.693878,-0.159216,0.148233,-0.172215,-0.170132,-0.382914,0.657413
26,65,-0.0872665,-0.698132,-0.174533,0.174533,-0.0858313,-0.693878,-0.159216,0.148233,-0.172215,-0.170132,-0.382914,0.657413
26,65,-0.0872665,-0.698132,-0.174533,0.174533,-0.0858313,-0.693878,-0.15922,0.148305,-0.172215,-0.170132,-0.382825,0.655527
26,65,-0.0872665,-0.698132,-0.174533,0.174533,-0.0858313,-0.693878,-0.15922,0.148305,-0.172215,-0.170132,-0.382825,0.655527
26,65,-0.0872665,-0.698132,-0.174533,0.174533,-0.0858313,-0.693878,-0.15922,0.148305,-0.172215,-0.170132,-0.382825,0.655527
26,65,-0.0872665,-0.698132,-0.174533,0.174533,-0.0858313,-0.693878,-0.15922,0.148305,-0.172215,-0.170132,-0.382825,0.655527
26,65,-0.0872665,-0.698132,-0.174533,0.174533,-0.0858313,-0.693878,-0.159167,0.148279,-0.172215,-0.170132,-0.384133,0.656188
26,65,-0.0872665,-0.698132,-0.174533,0.174533,-0.0858313,-0.693878,-0.159167,0.148279,-0.172215,-0.170132,-0.384133,0.656188
26,65,-0.0872665,-0.698132,-0.174533,0.174533,-0.0858313,-0.693878,-0.159171,0.14835,-0.172215,-0.170132,-0.384047,0.654362
26,65,-0.0872665,-0.698132,-0.174533,0.174533,-0.0858313,-0.693878,-0.159171,0.14835,-0.172215,-0.170132,-0.384047,0.654362
26,65,-0.0872665,-0.698132,-0.174533,0.174533,-0.0858313,-0.693878,-0.159118,0.148324,-0.172215,-0.170132,-0.385557,0.655125
26,65,-0.0872665,-0.698132,-0.174533,0.174533,-0.0858313,-0.693878,-0.159118,0.148324,-0.172215,-0.170132,-0.385557,0.655125
26,65,-0.0872665,-0.698132,-0.174533,0.174533,-0.0858313,-0.693878,-0.159118,0.148324,-0.172215,-0.170132,-0.385557,0.655125
26,65,-0.0872665,-0.698132,-0.174533,0.174533,-0.0858313,-0.693878,-0.159118,0.148324,-0.172215,-0.170132,-0.385557,0.655125
26,65,-0.0872665,-0.698132,-0.174533,0.174533,-0.0858313,-0.693878,-0.159066,0.148297,-0.172215,-0.170132,-0.386863,0.655784
26,65,-0.0872665,-0.698132,-0.174533,0.174533,-0.0858313,-0.693878,-0.159066,0.148297,-0.172215,-0.170132,-0.386863,0.655784
26,65,-0.0872665,-0.698132,-0.174533,0.174533,-0.0858313,-0.693878,-0.159066,0.148297,-0.172215,-0.170132,-0.386863,0.655784
26,65,-0.0872665,-0.698132,-0.174533,0.174533,-0.0858313,-0.693878,-0.159066,0.148297,-0.172215,-0.170132,-0.386863,0.655784
26,65,-0.0872665,-0.698132,-0.174533,0.174533,-0.0858313,-0.693878,-0.159014,0.148271,-0.172215,-0.170132,-0.388206,0.656463
26,65,-0.0872665,-0.698132,-0.174533,0.174533,-0.0858313,-0.693878,-0.159014,0.148271,-0.172215,-0.170132,-0.388206,0.656463
26,65,-0.0872665,-0.698132,-0.174533,0.174533,-0.0858313,-0.693878,-0.159014,0.148271,-0.172215,-0.170132,-0.388206,0.656463
26,65,-0.0872665,-0.698132,-0.174533,0.174533,-0.0858313,-0.693878,-0.159014,0.148271,-0.172215,-0.170132,-0.388206,0.656463
26,65,-0.0872665,-0.698132,-0.174533,0.174533,-0.0858313,-0.693878,-0.159014,0.148271,-0.172215,-0.170132,-0.388206,0.656463
26,65,-0.0872665,-0.698132,-0.174533,0.174533,-0.0858313,-0.693878,-0.159014,0.148271,-0.172215,-0.170132,-0.388206,0.656463
26,65,-0.0872665,-0.698132,-0.174533,0.174533,-0.0858313,-0.693878,-0.159014,0.148271,-0.172215,-0.170132,-0.388206,0.656463
26,65,-0.0872665,-0.698132,-0.174533,0.174533,-0.0858313,-0.693878,-0.159014,0.148271,-0.172215,-0.170132,-0.388206,0.656463
26,65,-0.0872665,-0.698132,-0.174533,0.174533,-0.0858313,-0.693878,-0.158961,0.148245,-0.172215,-0.170132,-0.389481,0.657107
26,65,-0.0872665,-0.698132,-0.174533,0.174533,-0.0858313,-0.693878,-0.158961,0.148245,-0.172215,-0.170132,-0.389481,0.657107
26,65,-0.0872665,-0.698132,-0.174533,0.174533,-0.0858313,-0.693878,-0.158961,0.148245,-0.172215,-0.170132,-0.389481,0.657107
26,65,-0.0872665,-0.698132,-0.174533,0.174533,-0.0858313,-0.693878,-0.159011,0.148201,-0.172215,-0.170132,-0.388238,0.658195
26,65,-0.0872665,-0.698132,-0.174533,0.174533,-0.0858313,-0.693878,-0.159011,0.148201,-0.172215,-0.170132,-0.388238,0.658195
26,65,-0.0872665,-0.698132,-0.174533,0.174533,-0.0858313,-0.693878,-0.158959,0.148175,-0.172215,-0.170132,-0.389543,0.658855
26,65,-0.0872665,-0.698132,-0.174533,0.174533,-0.0858313,-0.693878,-0.158959,0.148175,-0.172215,-0.170132,-0.389543,0.658855
26,65,-0.0872665,-0.698132,-0.174533,0.174533,-0.0858313,-0.693878,-0.158959,0.148175,-0.172215,-0.170132,-0.389543,0.658855
26,65,-0.0872665,-0.698132,-0.174533,0.174533,-0.0858313,-0.693878,-0.158959,0.148175,-0.172215,-0.170132,-0.389543,0.658855
26,65,-0.0872665,-0.698132,-0.174533,0.174533,-0.0858313,-0.693828,-0.158906,0.148148,-0.172215,-0.172165,-0.390852,0.659516
26,65,-0.0872665,-0.698132,-0.174533,0.174533,-0.0858313,-0.693828,-0.158906,0.148148,-0.172215,-0.172165,-0.390852,0.659519
26,65,-0.0872665,-0.698132,-0.174533,0.174533,-0.0858313,-0.693828,-0.158906,0.148148,-0.172215,-0.172165,-0.390852,0.659525
26,65,-0.0872665,-0.698132,-0.174533,0.174533,-0.0858313,-0.693828,-0.158906,0.148148,-0.172215,-0.172165,-0.390852,0.659531
26,65,-0.0872665,-0.698132,-0.174533,0.174533,-0.0858313,-0.693828,-0.158906,0.148148,-0.172215,-0.172165,-0.390853,0.659537
26,65,-0.0872665,-0.698132,-0.174533,0.174533,-0.0858313,-0.693828,-0.158906,0.148148,-0.172215,-0.172165,-0.390853,0.659543
26,65,-0.0872665,-0.698132,-0.174533,0.174533,-0.0858313,-0.693828,-0.158906,0.148148,-0.172215,-0.172165,-0.390853,0.659548
26,65,-0.0872665,-0.698132,-0.174533,0.174533,-0.0858313,-0.693828,-0.158906,0.148148,-0.172215,-0.172165,-0.390853,0.659553
26,65,-0.0872665,-0.698132,-0.174533,0.174533,-0.0858313,-0.693828,-0.158906,0.148148,-0.172215,-0.172165,-0.390854,0.659558
26,65,-0.0872665,-0.698132,-0.174533,0.174533,-0.0858313,-0.693828,-0.158906,0.148148,-0.172215,-0.172165,-0.390854,0.659562
26,65,-0.0872665,-0.698132,-0.174533,0.174533,-0.0858313,-0.693828,-0.158906,0.148148,-0.172215,-0.172165,-0.390854,0.659566
26,65,-0.0872665,-0.698132,-0.174533,0.174533,-0.0858313,-0.693828,-0.158906,0.148148,-0.172215,-0.172165,-0.390854,0.65957
26,65,-0.0872665,-0.698132,-0.174533,0.174533,-0.0858313,-0.693828,-0.158854,0.148122,-0.172215,-0.172165,-0.392111,0.660209
26,65,-0.0872665,-0.698132,-0.174533,0.174533,-0.0858313,-0.693828,-0.158854,0.148122,-0.172215,-0.172165,-0.392112,0.660212
26,65,-0.0872665,-0.698132,-0.174533,0.174533,-0.0858313,-0.693828,-0.158857,0.148193,-0.172215,-0.172165,-0.392029,0.658473
26,65,-0.0872665,-0.698132,-0.174533,0.174533,-0.0858313,-0.693828,-0.158857,0.148193,-0.172215,-0.172165,-0.392029,0.658473
26,65,-0.0872665,-0.698132,-0.174533,0.174533,-0.0858313,-0.693828,-0.158857,0.148193,-0.172215,-0.172165,-0.392029,0.658473
26,65,-0.0872665,-0.698132,-0.174533,0.174533,-0.0858313,-0.693828,-0.158857,0.148193,-0.172215,-0.172165,-0.392029,0.658473
26,65,-0.0872665,-0.698132,-0.174533,0.174533,-0.0858313,-0.693828,-0.158857,0.148193,-0.172215,-0.172165,-0.392029,0.658473
26,65,-0.0872665,-0.698132,-0.174533,0.174533,-0.0858313,-0.693828,-0.158857,0.148193,-0.172215,-0.172165,-0.392029,0.658473
26,65,-0.0872665,-0.698132,-0.174533,0.174533,-0.0858313,-0.693828,-0.158857,0.148193,-0.172215,-0.172165,-0.392029,0.658473
26,65,-0.0872665,-0.698132,-0.174533,0.174533,-0.0858313,-0.693828,-0.158857,0.148193,-0.172215,-0.172165,-0.392029,0.658473
26,65,-0.0872665,-0.698132,-0.174533,0.174533,-0.0858313,-0.693828,-0.158857,0.148193,-0.172215,-0.172165,-0.392029,0.658473
26,65,-0.0872665,-0.698132,-0.174533,0.174533,-0.0858313,-0.693828,-0.158857,0.148193,-0.172215,-0.172165,-0.392029,0.658473
26,65,-0.0872665,-0.698132,-0.174533,0.174533,-0.0858313,-0.693828,-0.158805,0.148167,-0.172215,-0.172165,-0.393317,0.659123
26,65,-0.0872665,-0.698132,-0.174533,0.174533,-0.0858313,-0.693828,-0.158805,0.148167,-0.172215,-0.172165,-0.393317,0.659123
26,65,-0.0872665,-0.698132,-0.174533,0.174533,-0.0858313,-0.693828,-0.158805,0.148167,-0.172215,-0.172165,-0.393317,0.659123
26,65,-0.0872665,-0.698132,-0.174533,0.174533,-0.0858313,-0.693828,-0.158805,0.148167,-0.172215,-0.172165,-0.393317,0.659123
26,65,-0.0872665,-0.698132,-0.174533,0.174533,-0.0858313,-0.693828,-0.158805,0.148167,-0.172215,-0.172165,-0.393317,0.659123
26,65,-0.0872665,-0.698132,-0.174533,0.174533,-0.0858313,-0.693828,-0.158805,0.148167,-0.172215,-0.172165,-0.393317,0.659123
26,65,-0.0872665,-0.698132,-0.174533,0.174533,-0.0858313,-0.693828,-0.158805,0.148167,-0.172215,-0.172165,-0.393317,0.659123
26,65,-0.0872665,-0.698132,-0.174533,0.174533,-0.0858313,-0.693828,-0.158805,0.148167,-0.172215,-0.172165,-0.393317,0.659123
26,65,-0.0872665,-0.698132,-0.174533,0.174533,-0.0858313,-0.693828,-0.158805,0.148167,-0.172215,-0.172165,-0.393317,0.659123
26,65,-0.0872665,-0.698132,-0.174533,0.174533,-0.0858313,-0.693828,-0.158805,0.148167,-0.172215,-0.172165,-0.393317,0.659123
26,65,-0.0872665,-0.698132,-0.174533,0.174533,-0.0858313,-0.693828,-0.158805,0.148167,-0.172215,-0.172165,-0.393317,0.659123
26,65,-0.0872665,-0.698132,-0.174533,0.174533,-0.0858313,-0.693828,-0.158809,0.148239,-0.172215,-0.172165,-0.393233,0.657351
26,65,-0.0872665,-0.698132,-0.174533,0.174533,-0.0858313,-0.693828,-0.158809,0.148239,-0.172215,-0.172165,-0.393233,0.657351
26,65,-0.0872665,-0.698132,-0.174533,0.174533,-0.0858313,-0.693828,-0.158809,0.148239,-0.172215,-0.172165,-0.393233,0.657351
26,65,-0.0872665,-0.698132,-0.174533,0.174533,-0.0858313,-0.693828,-0.158756,0.148212,-0.172215,-0.172165,-0.394515,0.657998
26,65,-0.0872665,-0.698132,-0.174533,0.174533,-0.0858313,-0.693828,-0.158756,0.148212,-0.172215,-0.172165,-0.394515,0.657998
26,65,-0.0872665,-0.698132,-0.174533,0.174533,-0.0858313,-0.693828,-0.158756,0.148212,-0.172215,-0.172165,-0.394515,0.657998
26,65,-0.0872665,-0.698132,-0.174533,0.174533,-0.0858313,-0.693828,-0.158756,0.148212,-0.172215,-0.172165,-0.394515,0.657998
26,65,-0.0872665,-0.698132,-0.174533,0.174533,-0.0858313,-0.693828,-0.158756,0.148212,-0.172215,-0.172165,-0.394515,0.657998
26,65,-0.0872665,-0.698132,-0.174533,0.174533,-0.0858313,-0.693828,-0.158756,0.148212,-0.172215,-0.172165,-0.394515,0.657998
26,65,-0.0872665,-0.698132,-0.174533,0.174533,-0.0858313,-0.693828,-0.158806,0.148169,-0.172215,-0.172165,-0.393271,0.659087
26,65,-0.0872665,-0.698132,-0.174533,0.174533,-0.0858313,-0.693828,-0.158806,0.148169,-0.172215,-0.172165,-0.393271,0.659087
26,65,-0.0872665,-0.698132,-0.174533,0.174533,-0.0858313,-0.693828,-0.158806,0.148169,-0.172215,-0.172165,-0.393271,0.659087
26,65,-0.0872665,-0.698132,-0.174533,0.174533,-0.0858313,-0.693828,-0.158806,0.148169,-0.172215,-0.172165,-0.393271,0.659087
26,65,-0.0872665,-0.698132,-0.174533,0.174533,-0.0858313,-0.693828,-0.158806,0.148169,-0.172215,-0.172165,-0.393271,0.659087
26,65,-0.0872665,-0.698132,-0.174533,0.174533,-0.0858313,-0.693828,-0.158806,0.148169,-0.172215,-0.172165,-0.393271,0.659087
26,65,-0.0872665,-0.698132,-0.174533,0.174533,-0.0858313,-0.693828,-0.158754,0.148142,-0.172215,-0.172165,-0.394564,0.65974
26,65,-0.0872665,-0.698132,-0.174533,0.174533,-0.0858313,-0.693828,-0.158754,0.148142,-0.172215,-0.172165,-0.394564,0.65974
26,65,-0.0872665,-0.698132,-0.174533,0.174533,-0.0858313,-0.693828,-0.158754,0.148142,-0.172215,-0.172165,-0.394564,0.65974
26,65,-0.0872665,-0.698132,-0.174533,0.174533,-0.0858313,-0.693828,-0.158754,0.148142,-0.172215,-0.172165,-0.394564,0.65974
26,65,-0.0872665,-0.698132,-0.174533,0.174533,-0.0858313,-0.693828,-0.158754,0.148142,-0.172215,-0.172165,-0.394564,0.65974
26,65,-0.0872665,-0.698132,-0.174533,0.174533,-0.0858313,-0.693828,-0.158754,0.148142,-0.172215,-0.172165,-0.394564,0.65974
26,65,-0.0872665,-0.698132,-0.174533,0.174533,-0.0858313,-0.693828,-0.158754,0.148142,-0.172215,-0.172165,-0.394564,0.65974
26,65,-0.0872665,-0.698132,-0.174533,0.174533,-0.0858313,-0.693828,-0.158754,0.148142,-0.172215,-0.172165,-0.394564,0.65974
26,65,-0.0872665,-0.698132,-0.174533,0.174533,-0.0858313,-0.693828,-0.158754,0.148142,-0.172215,-0.172165,-0.394564,0.65974
26,65,-0.0872665,-0.698132,-0.174533,0.174533,-0.0858313,-0.693828,-0.158757,0.148214,-0.172215,-0.172165,-0.394483,0.658021
26,65,-0.0872665,-0.698132,-0.174533,0.174533,-0.0858313,-0.693828,-0.158757,0.148214,-0.172215,-0.172165,-0.394483,0.658021
26,65,-0.0872665,-0.698132,-0.174533,0.174533,-0.0858313,-0.693828,-0.158757,0.148214,-0.172215,-0.172165,-0.394483,0.658021
26,65,-0.0872665,-0.698132,-0.174533,0.174533,-0.0858313,-0.693828,-0.158757,0.148214,-0.172215,-0.172165,-0.394483,0.658021
26,65,-0.0872665,-0.698132,-0.174533,0.174533,-0.0858313,-0.693828,-0.158705,0.148187,-0.172215,-0.172165,-0.395789,0.658681
26,65,-0.0872665,-0.698132,-0.174533,0.174533,-0.0858313,-0.693828,-0.158705,0.148187,-0.172215,-0.172165,-0.395789,0.658681
26,65,-0.0872665,-0.698132,-0.174533,0.174533,-0.0858313,-0.693828,-0.158705,0.148187,-0.172215,-0.172165,-0.395789,0.658681
26,65,-0.0872665,-0.698132,-0.174533,0.174533,-0.0858313,-0.693828,-0.158705,0.148187,-0.172215,-0.172165,-0.395789,0.658681
26,65,-0.0872665,-0.698132,-0.174533,0.174533,-0.0858313,-0.693828,-0.158705,0.148187,-0.172215,-0.172165,-0.395789,0.658681
26,65,-0.0872665,-0.698132,-0.174533,0.174533,-0.0858313,-0.693828,-0.158705,0.148187,-0.172215,-0.172165,-0.395789,0.658681
26,65,-0.0872665,-0.698132,-0.174533,0.174533,-0.0858313,-0.693828,-0.158705,0.148187,-0.172215,-0.172165,-0.395789,0.658681
26,65,-0.0872665,-0.698132,-0.174533,0.174533,-0.0858313,-0.693828,-0.158705,0.148187,-0.172215,-0.172165,-0.395789,0.658681
26,65,-0.0872665,-0.698132,-0.174533,0.174533,-0.0858313,-0.693828,-0.158705,0.148187,-0.172215,-0.172165,-0.395789,0.658681
26,65,-0.0872665,-0.698132,-0.174533,0.174533,-0.0858313,-0.693828,-0.158705,0.148187,-0.172215,-0.172165,-0.395789,0.658681
26,65,-0.0872665,-0.698132,-0.174533,0.174533,-0.0858313,-0.693828,-0.158754,0.148144,-0.172215,-0.172165,-0.394546,0.659769
26,65,-0.0872665,-0.698132,-0.174533,0.174533,-0.0858313,-0.693828,-0.158754,0.148144,-0.172215,-0.172165,-0.394546,0.659769
26,65,-0.0872665,-0.698132,-0.174533,0.174533,-0.0858313,-0.693828,-0.158754,0.148144,-0.172215,-0.172165,-0.394546,0.659769
26,65,-0.0872665,-0.698132,-0.174533,0.174533,-0.0858313,-0.693828,-0.158754,0.148144,-0.172215,-0.172165,-0.394546,0.659769
26,65,-0.0872665,-0.698132,-0.174533,0.174533,-0.0858313,-0.693828,-0.158754,0.148144,-0.172215,-0.172165,-0.394546,0.659769
26,65,-0.0872665,-0.698132,-0.174533,0.174533,-0.0858313,-0.693828,-0.158754,0.148144,-0.172215,-0.172165,-0.394546,0.659769
26,65,-0.0872665,-0.698132,-0.174533,0.174533,-0.0858313,-0.693828,-0.158754,0.148144,-0.172215,-0.172165,-0.394546,0.659769
26,65,-0.0872665,-0.698132,-0.174533,0.174533,-0.0858313,-0.693828,-0.158754,0.148144,-0.172215,-0.172165,-0.394546,0.659769
26,65,-0.0872665,-0.698132,-0.174533,0.174533,-0.0858313,-0.693828,-0.158754,0.148144,-0.172215,-0.172165,-0.394546,0.659769
26,65,-0.0872665,-0.698132,-0.174533,0.174533,-0.0858313,-0.693828,-0.158754,0.148144,-0.172215,-0.172165,-0.394546,0.659769
26,65,-0.0872665,-0.698132,-0.174533,0.174533,-0.0858313,-0.693828,-0.158702,0.148117,-0.172215,-0.172165,-0.395843,0.660424
26,65,-0.0872665,-0.698132,-0.174533,0.174533,-0.0858313,-0.693828,-0.158702,0.148117,-0.172215,-0.172165,-0.395843,0.660424
26,65,-0.0872665,-0.698132,-0.174533,0.174533,-0.0858313,-0.693828,-0.158702,0.148117,-0.172215,-0.172165,-0.395843,0.660424
26,65,-0.0872665,-0.698132,-0.174533,0.174533,-0.0858313,-0.693828,-0.158702,0.148117,-0.172215,-0.172165,-0.395843,0.660424
26,65,-0.0872665,-0.698132,-0.174533,0.174533,-0.0858313,-0.693828,-0.158702,0.148117,-0.172215,-0.172165,-0.395843,0.660424
26,65,-0.0872665,-0.698132,-0.174533,0.174533,-0.0858313,-0.693828,-0.158702,0.148117,-0.172215,-0.172165,-0.395843,0.660424
26,65,-0.0872665,-0.698132,-0.174533,0.174533,-0.0858313,-0.693828,-0.158702,0.148117,-0.172215,-0.172165,-0.395843,0.660424
26,65,-0.0872665,-0.698132,-0.174533,0.174533,-0.0858313,-0.693828,-0.158702,0.148117,-0.172215,-0.172165,-0.395843,0.660424
26,65,-0.0872665,-0.698132,-0.174533,0.174533,-0.0858313,-0.693828,-0.158702,0.148117,-0.172215,-0.172165,-0.395843,0.660424
26,65,-0.0872665,-0.698132,-0.174533,0.174533,-0.0858313,-0.693828,-0.158705,0.148189,-0.172215,-0.172165,-0.395758,0.658633
26,65,-0.0872665,-0.698132,-0.174533,0.174533,-0.0858313,-0.693828,-0.158705,0.148189,-0.172215,-0.172165,-0.395758,0.658633
26,65,-0.0872665,-0.698132,-0.174533,0.174533,-0.0858313,-0.693828,-0.158705,0.148189,-0.172215,-0.172165,-0.395758,0.658633
26,65,-0.0872665,-0.698132,-0.174533,0.174533,-0.0858313,-0.693828,-0.158705,0.148189,-0.172215,-0.172165,-0.395758,0.658633
26,65,-0.0872665,-0.698132,-0.174533,0.174533,-0.0858313,-0.693828,-0.158705,0.148189,-0.172215,-0.172165,-0.395758,0.658633
26,65,-0.0872665,-0.698132,-0.174533,0.174533,-0.0858313,-0.693828,-0.158705,0.148189,-0.172215,-0.172165,-0.395758,0.658633
26,65,-0.0872665,-0.698132,-0.174533,0.174533,-0.0858313,-0.693828,-0.158705,0.148189,-0.172215,-0.172165,-0.395758,0.658633
26,65,-0.0872665,-0.698132,-0.174533,0.174533,-0.0858313,-0.693828,-0.158653,0.148163,-0.172215,-0.172165,-0.397064,0.659293
26,65,-0.0872665,-0.698132,-0.174533,0.174533,-0.0858313,-0.693828,-0.158653,0.148163,-0.172215,-0.172165,-0.397064,0.659293
26,65,-0.0872665,-0.698132,-0.174533,0.174533,-0.0858313,-0.693828,-0.158653,0.148163,-0.172215,-0.172165,-0.397064,0.659293
26,65,-0.0872665,-0.698132,-0.174533,0.174533,-0.0858313,-0.693828,-0.158653,0.148163,-0.172215,-0.172165,-0.397064,0.659293
26,65,-0.0872665,-0.698132,-0.174533,0.174533,-0.0858313,-0.693828,-0.158653,0.148163,-0.172215,-0.172165,-0.397064,0.659293
26,65,-0.0872665,-0.698132,-0.174533,0.174533,-0.0858313,-0.693828,-0.158653,0.148163,-0.172215,-0.172165,-0.397064,0.659293
26,65,-0.0872665,-0.698132,-0.174533,0.174533,-0.0858313,-0.693828,-0.158653,0.148163,-0.172215,-0.172165,-0.397064,0.659293
26,65,-0.0872665,-0.698132,-0.174533,0.174533,-0.0858313,-0.693828,-0.158653,0.148163,-0.172215,-0.172165,-0.397064,0.659293
26,65,-0.0872665,-0.698132,-0.174533,0.174533,-0.0858313,-0.693828,-0.158653,0.148163,-0.172215,-0.172165,-0.397064,0.659293
26,65,-0.0872665,-0.698132,-0.174533,0.174533,-0.0858313,-0.693828,-0.158601,0.148136,-0.172215,-0.172165,-0.398376,0.659956
26,65,-0.0872665,-0.698132,-0.174533,0.174533,-0.0858313,-0.693828,-0.158601,0.148136,-0.172215,-0.172165,-0.398376,0.659956
26,65,-0.0872665,-0.698132,-0.174533,0.174533,-0.0858313,-0.693828,-0.158601,0.148136,-0.172215,-0.172165,-0.398376,0.659956
26,65,-0.0872665,-0.698132,-0.174533,0.174533,-0.0858313,-0.693828,-0.158601,0.148136,-0.172215,-0.172165,-0.398376,0.659956
26,65,-0.0872665,-0.698132,-0.174533,0.174533,-0.0858313,-0.693828,-0.158548,0.14811,-0.172215,-0.172165,-0.399697,0.660623
26,65,-0.0872665,-0.698132,-0.174533,0.174533,-0.0858313,-0.693828,-0.158548,0.14811,-0.172215,-0.172165,-0.399697,0.660623
26,65,-0.0872665,-0.698132,-0.174533,0.174533,-0.0858313,-0.693828,-0.158548,0.14811,-0.172215,-0.172165,-0.399697,0.660623
26,65,-0.0872665,-0.698132,-0.174533,0.174533,-0.0858313,-0.693828,-0.158548,0.14811,-0.172215,-0.172165,-0.399697,0.660623
26,65,-0.0872665,-0.698132,-0.174533,0.174533,-0.0858313,-0.693828,-0.158548,0.14811,-0.172215,-0.172165,-0.399697,0.660623
26,65,-0.0872665,-0.698132,-0.174533,0.174533,-0.0858313,-0.693828,-0.158548,0.14811,-0.172215,-0.172165,-0.399697,0.660623
26,65,-0.0872665,-0.698132,-0.174533,0.174533,-0.0858313,-0.693828,-0.158548,0.14811,-0.172215,-0.172165,-0.399697,0.660623
26,65,-0.0872665,-0.698132,-0.174533,0.174533,-0.0858313,-0.693828,-0.158548,0.14811,-0.172215,-0.172165,-0.399697,0.660623
26,65,-0.0872665,-0.698132,-0.174533,0.174533,-0.0858313,-0.693828,-0.158496,0.148083,-0.172215,-0.172165,-0.401034,0.661299
26,65,-0.0872665,-0.698132,-0.174533,0.174533,-0.0858313,-0.693828,-0.158496,0.148083,-0.172215,-0.172165,-0.401034,0.661299
26,65,-0.0872665,-0.698132,-0.174533,0.174533,-0.0858313,-0.693828,-0.158496,0.148083,-0.172215,-0.172165,-0.401034,0.661299
26,65,-0.0872665,-0.698132,-0.174533,0.174533,-0.0858313,-0.693828,-0.158496,0.148083,-0.172215,-0.172165,-0.401034,0.661299
26,65,-0.0872665,-0.698132,-0.174533,0.174533,-0.0858313,-0.693828,-0.158496,0.148083,-0.172215,-0.172165,-0.401034,0.661299
26,65,-0.0872665,-0.698132,-0.174533,0.174533,-0.0858313,-0.693828,-0.158496,0.148083,-0.172215,-0.172165,-0.401034,0.661299
26,65,-0.0872665,-0.698132,-0.174533,0.174533,-0.0858313,-0.693828,-0.158496,0.148083,-0.172215,-0.172165,-0.401034,0.661299
26,65,-0.0872665,-0.698132,-0.174533,0.174533,-0.0858313,-0.693828,-0.158496,0.148083,-0.172215,-0.172165,-0.401034,0.661299
26,65,-0.0872665,-0.698132,-0.174533,0.174533,-0.0858313,-0.693828,-0.158444,0.148057,-0.172215,-0.172165,-0.402371,0.661974
26,65,-0.0872665,-0.698132,-0.174533,0.174533,-0.0858313,-0.693828,-0.158444,0.148057,-0.172215,-0.172165,-0.402371,0.661974
26,65,-0.0872665,-0.698132,-0.174533,0.174533,-0.0858313,-0.693828,-0.158444,0.148057,-0.172215,-0.172165,-0.402371,0.661974
26,65,-0.0872665,-0.698132,-0.174533,0.174533,-0.0858313,-0.693828,-0.158444,0.148057,-0.172215,-0.172165,-0.402371,0.661974
26,65,-0.0872665,-0.698132,-0.174533,0.174533,-0.0858313,-0.693828,-0.158444,0.148057,-0.172215,-0.172165,-0.402371,0.661974
26,65,-0.0872665,-0.698132,-0.174533,0.174533,-0.0858313,-0.693828,-0.158444,0.148057,-0.172215,-0.172165,-0.402371,0.661974
26,65,-0.0872665,-0.698132,-0.174533,0.174533,-0.0858313,-0.693828,-0.158444,0.148057,-0.172215,-0.172165,-0.402371,0.661974
26,65,-0.0872665,-0.698132,-0.174533,0.174533,-0.0858313,-0.693828,-0.158444,0.148057,-0.172215,-0.172165,-0.402371,0.661974
26,65,-0.0872665,-0.698132,-0.174533,0.174533,-0.0858313,-0.693828,-0.158444,0.148057,-0.172215,-0.172165,-0.402371,0.661974
26,65,-0.0872665,-0.698132,-0.174533,0.174533,-0.0858313,-0.693828,-0.158444,0.148057,-0.172215,-0.172165,-0.402371,0.661974
26,65,-0.0872665,-0.698132,-0.174533,0.174533,-0.0858313,-0.693828,-0.158444,0.148057,-0.172215,-0.172165,-0.402371,0.661974
26,65,-0.0872665,-0.698132,-0.174533,0.174533,-0.0858313,-0.693828,-0.158444,0.148057,-0.172215,-0.172165,-0.402371,0.661974
26,65,-0.0872665,-0.698132,-0.174533,0.174533,-0.0858313,-0.693828,-0.158444,0.148057,-0.172215,-0.172165,-0.402371,0.661974
26,65,-0.0872665,-0.698132,-0.174533,0.174533,-0.0858313,-0.693828,-0.158391,0.14803,-0.172215,-0.172165,-0.403662,0.662626
26,65,-0.0872665,-0.698132,-0.174533,0.174533,-0.0858313,-0.693828,-0.158391,0.14803,-0.172215,-0.172165,-0.403662,0.662626
26,65,-0.0872665,-0.698132,-0.174533,0.174533,-0.0858313,-0.693828,-0.158391,0.14803,-0.172215,-0.172165,-0.403662,0.662626
26,65,-0.0872665,-0.698132,-0.174533,0.174533,-0.0858313,-0.693828,-0.158391,0.14803,-0.172215,-0.172165,-0.403662,0.662626
26,65,-0.0872665,-0.698132,-0.174533,0.174533,-0.0858313,-0.693828,-0.158391,0.14803,-0.172215,-0.172165,-0.403662,0.662626
26,65,-0.0872665,-0.698132,-0.174533,0.174533,-0.0858313,-0.693828,-0.158391,0.14803,-0.172215,-0.172165,-0.403662,0.662626
26,65,-0.0872665,-0.698132,-0.174533,0.174533,-0.0858313,-0.693828,-0.158391,0.14803,-0.172215,-0.172165,-0.403662,0.662626
26,65,-0.0872665,-0.698132,-0.174533,0.174533,-0.0858313,-0.693828,-0.158391,0.14803,-0.172215,-0.172165,-0.403662,0.662626
26,65,-0.0872665,-0.698132,-0.174533,0.174533,-0.0858313,-0.693828,-0.158391,0.14803,-0.172215,-0.172165,-0.403662,0.662626
26,65,-0.0872665,-0.698132,-0.174533,0.174533,-0.0858313,-0.693828,-0.158391,0.14803,-0.172215,-0.172165,-0.403662,0.662626
26,65,-0.0872665,-0.698132,-0.174533,0.174533,-0.0858313,-0.693828,-0.158391,0.14803,-0.172215,-0.172165,-0.403662,0.662626
26,65,-0.0872665,-0.698132,-0.174533,0.174533,-0.0858313,-0.693828,-0.158391,0.14803,-0.172215,-0.172165,-0.403662,0.662626
26,65,-0.0872665,-0.698132,-0.174533,0.174533,-0.0858313,-0.693828,-0.158391,0.14803,-0.172215,-0.172165,-0.403662,0.662626
26,65,-0.0872665,-0.698132,-0.174533,0.174533,-0.0858313,-0.693828,-0.158391,0.14803,-0.172215,-0.172165,-0.403662,0.662626
26,65,-0.0872665,-0.698132,-0.174533,0.174533,-0.0858313,-0.693828,-0.158391,0.14803,-0.172215,-0.172165,-0.403662,0.662626
26,65,-0.0872665,-0.698132,-0.174533,0.174533,-0.0858313,-0.693828,-0.158391,0.14803,-0.172215,-0.172165,-0.403662,0.662626
26,65,-0.0872665,-0.698132,-0.174533,0.174533,-0.0858313,-0.693828,-0.158391,0.14803,-0.172215,-0.172165,-0.403662,0.662626
26,65,-0.0872665,-0.698132,-0.174533,0.174533,-0.0858313,-0.693828,-0.158391,0.14803,-0.172215,-0.172165,-0.403662,0.662626
26,65,-0.0872665,-0.698132,-0.174533,0.174533,-0.0858313,-0.693828,-0.158391,0.14803,-0.172215,-0.172165,-0.403662,0.662626
26,65,-0.0872665,-0.698132,-0.174533,0.174533,-0.0858313,-0.693828,-0.158391,0.14803,-0.172215,-0.172165,-0.403662,0.662626
26,65,-0.0872665,-0.698132,-0.174533,0.174533,-0.0858313,-0.693828,-0.158391,0.14803,-0.172215,-0.172165,-0.403662,0.662626
26,65,-0.0872665,-0.698132,-0.174533,0.174533,-0.0858313,-0.693828,-0.158391,0.14803,-0.172215,-0.172165,-0.403662,0.662626
26,65,-0.0872665,-0.698132,-0.174533,0.174533,-0.0858313,-0.693828,-0.158441,0.147987,-0.172215,-0.172165,-0.402418,0.663714
26,65,-0.0872665,-0.698132,-0.174533,0.174533,-0.0858313,-0.693828,-0.158441,0.147987,-0.172215,-0.172165,-0.402418,0.663714
26,65,-0.0872665,-0.698132,-0.174533,0.174533,-0.0858313,-0.693828,-0.158441,0.147987,-0.172215,-0.172165,-0.402418,0.663714
26,65,-0.0872665,-0.698132,-0.174533,0.174533,-0.0858313,-0.693828,-0.158441,0.147987,-0.172215,-0.172165,-0.402418,0.663714
26,65,-0.0872665,-0.698132,-0.174533,0.174533,-0.0858313,-0.693828,-0.158441,0.147987,-0.172215,-0.172165,-0.402418,0.663714
26,65,-0.0872665,-0.698132,-0.174533,0.174533,-0.0858313,-0.693828,-0.158441,0.147987,-0.172215,-0.172165,-0.402418,0.663714
26,65,-0.0872665,-0.698132,-0.174533,0.174533,-0.0858313,-0.693828,-0.158441,0.147987,-0.172215,-0.172165,-0.402418,0.663714
26,65,-0.0872665,-0.698132,-0.174533,0.174533,-0.0858313,-0.693828,-0.158445,0.148058,-0.172215,-0.172165,-0.402333,0.661924
26,65,-0.0872665,-0.698132,-0.174533,0.174533,-0.0858313,-0.693828,-0.158445,0.148058,-0.172215,-0.172165,-0.402333,0.661924
26,65,-0.0872665,-0.698132,-0.174533,0.174533,-0.0858313,-0.693828,-0.158445,0.148058,-0.172215,-0.172165,-0.402333,0.661924
26,65,-0.0872665,-0.698132,-0.174533,0.174533,-0.0858313,-0.693828,-0.158445,0.148058,-0.172215,-0.172165,-0.402333,0.661924
26,65,-0.0872665,-0.698132,-0.174533,0.174533,-0.0858313,-0.693828,-0.158445,0.148058,-0.172215,-0.172165,-0.402333,0.661924
26,65,-0.0872665,-0.698132,-0.174533,0.174533,-0.0858313,-0.693828,-0.158445,0.148058,-0.172215,-0.172165,-0.40233,0.661922
26,65,-0.0872665,-0.698132,-0.174533,0.174533,-0.0858313,-0.693828,-0.158445,0.148058,-0.172215,-0.172165,-0.402327,0.66192
26,65,-0.0872665,-0.698132,-0.174533,0.174533,-0.0858313,-0.693828,-0.158445,0.148058,-0.172215,-0.172165,-0.402324,0.661919
26,65,-0.0872665,-0.698132,-0.174533,0.174533,-0.0858313,-0.693828,-0.158445,0.148058,-0.172215,-0.172165,-0.402321,0.661917
26,65,-0.0872665,-0.698132,-0.174533,0.174533,-0.0858313,-0.693828,-0.158445,0.148058,-0.172215,-0.172165,-0.402318,0.661916
26,65,-0.0872665,-0.698132,-0.174533,0.174533,-0.0858313,-0.693828,-0.158445,0.148058,-0.172215,-0.172165,-0.402315,0.661914
26,65,-0.0872665,-0.698132,-0.174533,0.174533,-0.0858313,-0.693828,-0.158445,0.148058,-0.172215,-0.172165,-0.402312,0.661913
26,65,-0.0872665,-0.698132,-0.174533,0.174533,-0.0858313,-0.693828,-0.158445,0.148058,-0.172215,-0.172165,-0.40231,0.661912
26,65,-0.0872665,-0.698132,-0.174533,0.174533,-0.0858313,-0.693828,-0.158445,0.148058,-0.172215,-0.172165,-0.402308,0.661911
26,65,-0.0872665,-0.698132,-0.174533,0.174533,-0.0858313,-0.693828,-0.158445,0.148058,-0.172215,-0.172165,-0.402305,0.661909
26,65,-0.0872665,-0.698132,-0.174533,0.174533,-0.0858313,-0.693828,-0.158392,0.148032,-0.172215,-0.172165,-0.403575,0.662551
26,65,-0.0872665,-0.698132,-0.174533,0.174533,-0.0858313,-0.693828,-0.158392,0.148032,-0.172215,-0.172165,-0.403575,0.662551
26,65,-0.0872665,-0.698132,-0.174533,0.174533,-0.0858313,-0.693828,-0.158392,0.148032,-0.172215,-0.172165,-0.403575,0.662551
26,65,-0.0872665,-0.698132,-0.174533,0.174533,-0.0858313,-0.693828,-0.158392,0.148032,-0.172215,-0.172165,-0.403575,0.662551
26,65,-0.0872665,-0.698132,-0.174533,0.174533,-0.0858313,-0.693828,-0.158392,0.148032,-0.172215,-0.172165,-0.403575,0.662551
26,65,-0.0872665,-0.698132,-0.174533,0.174533,-0.0858313,-0.693828,-0.158392,0.148032,-0.172215,-0.172165,-0.403575,0.662551
26,65,-0.0872665,-0.698132,-0.174533,0.174533,-0.0858313,-0.693828,-0.158392,0.148032,-0.172215,-0.172165,-0.403575,0.662551
26,65,-0.0872665,-0.698132,-0.174533,0.174533,-0.0858313,-0.693828,-0.158392,0.148032,-0.172215,-0.172165,-0.403575,0.662551
26,65,-0.0872665,-0.698132,-0.174533,0.174533,-0.0858313,-0.693828,-0.158392,0.148032,-0.172215,-0.172165,-0.403575,0.662551
26,65,-0.0872665,-0.698132,-0.174533,0.174533,-0.0858313,-0.693828,-0.158392,0.148032,-0.172215,-0.172165,-0.403575,0.662551
26,65,-0.0872665,-0.698132,-0.174533,0.174533,-0.0858313,-0.693828,-0.158392,0.148032,-0.172215,-0.172165,-0.403575,0.662551
26,65,-0.0872665,-0.698132,-0.174533,0.174533,-0.0858313,-0.693828,-0.158392,0.148032,-0.172215,-0.172165,-0.403575,0.662551
26,65,-0.0872665,-0.698132,-0.174533,0.174533,-0.0858313,-0.693828,-0.158392,0.148032,-0.172215,-0.172165,-0.403575,0.662551
26,65,-0.0872665,-0.698132,-0.174533,0.174533,-0.0858313,-0.693828,-0.158392,0.148032,-0.172215,-0.172165,-0.403575,0.662551
26,65,-0.0872665,-0.698132,-0.174533,0.174533,-0.0858313,-0.693828,-0.15834,0.148006,-0.172215,-0.172165,-0.404879,0.663209
26,65,-0.0872665,-0.698132,-0.174533,0.174533,-0.0858313,-0.693828,-0.15834,0.148006,-0.172215,-0.172165,-0.404879,0.663209
26,65,-0.0872665,-0.698132,-0.174533,0.174533,-0.0858313,-0.693828,-0.15834,0.148006,-0.172215,-0.172165,-0.404879,0.663209
26,65,-0.0872665,-0.698132,-0.174533,0.174533,-0.0858313,-0.693828,-0.15834,0.148006,-0.172215,-0.172165,-0.404879,0.663209
26,65,-0.0872665,-0.698132,-0.174533,0.174533,-0.0858313,-0.693828,-0.15834,0.148006,-0.172215,-0.172165,-0.404879,0.663209
26,65,-0.0872665,-0.698132,-0.174533,0.174533,-0.0858313,-0.693828,-0.15834,0.148006,-0.172215,-0.172165,-0.404879,0.663209
26,65,-0.0872665,-0.698132,-0.174533,0.174533,-0.0858313,-0.693828,-0.15834,0.148006,-0.172215,-0.172165,-0.404879,0.663209
26,65,-0.0872665,-0.698132,-0.174533,0.174533,-0.0858313,-0.693828,-0.15834,0.148006,-0.172215,-0.172165,-0.404879,0.663209
26,65,-0.0872665,-0.698132,-0.174533,0.174533,-0.0858313,-0.693828,-0.15834,0.148006,-0.172215,-0.172165,-0.404879,0.663209
26,65,-0.0872665,-0.698132,-0.174533,0.174533,-0.0858313,-0.693828,-0.15834,0.148006,-0.172215,-0.172165,-0.404879,0.663209
26,65,-0.0872665,-0.698132,-0.174533,0.174533,-0.0858313,-0.693828,-0.15834,0.148006,-0.172215,-0.172165,-0.404879,0.663209
26,65,-0.0872665,-0.698132,-0.174533,0.174533,-0.0858313,-0.693828,-0.15834,0.148006,-0.172215,-0.172165,-0.404879,0.663209
26,65,-0.0872665,-0.698132,-0.174533,0.174533,-0.0858313,-0.693828,-0.15834,0.148006,-0.172215,-0.172165,-0.404879,0.663209
26,65,-0.0872665,-0.698132,-0.174533,0.174533,-0.0858313,-0.693828,-0.15834,0.148006,-0.172215,-0.172165,-0.404879,0.663209
26,65,-0.0872665,-0.698132,-0.174533,0.174533,-0.0858313,-0.693828,-0.15834,0.148006,-0.172215,-0.172165,-0.404879,0.663209
26,65,-0.0872665,-0.698132,-0.174533,0.174533,-0.0858313,-0.693828,-0.15834,0.148006,-0.172215,-0.172165,-0.404879,0.663209
26,65,-0.0872665,-0.698132,-0.174533,0.174533,-0.0858313,-0.693828,-0.15834,0.148006,-0.172215,-0.172165,-0.404879,0.663209
26,65,-0.0872665,-0.698132,-0.174533,0.174533,-0.0858313,-0.693828,-0.158343,0.148077,-0.172215,-0.172165,-0.404794,0.661419
26,65,-0.0872665,-0.698132,-0.174533,0.174533,-0.0858313,-0.693828,-0.158343,0.148077,-0.172215,-0.172165,-0.404794,0.661419
26,65,-0.0872665,-0.698132,-0.174533,0.174533,-0.0858313,-0.693828,-0.158343,0.148077,-0.172215,-0.172165,-0.404794,0.661419
26,65,-0.0872665,-0.698132,-0.174533,0.174533,-0.0858313,-0.693828,-0.158343,0.148077,-0.172215,-0.172165,-0.404794,0.661419
26,65,-0.0872665,-0.698132,-0.174533,0.174533,-0.0858313,-0.693828,-0.158291,0.148051,-0.172215,-0.172165,-0.40605,0.662053
26,65,-0.0872665,-0.698132,-0.174533,0.174533,-0.0858313,-0.693828,-0.158341,0.148007,-0.172215,-0.172165,-0.404806,0.663141
26,65,-0.0872665,-0.698132,-0.174533,0.174533,-0.0858313,-0.693828,-0.158341,0.148007,-0.172215,-0.172165,-0.404806,0.663141
26,65,-0.0872665,-0.698132,-0.174533,0.174533,-0.0858313,-0.693828,-0.158341,0.148007,-0.172215,-0.172165,-0.404806,0.663141
26,65,-0.0872665,-0.698132,-0.174533,0.174533,-0.0858313,-0.693828,-0.158341,0.148007,-0.172215,-0.172165,-0.404806,0.663141
26,65,-0.0872665,-0.698132,-0.174533,0.174533,-0.0858313,-0.693828,-0.158341,0.148007,-0.172215,-0.172165,-0.404806,0.663141
26,65,-0.0872665,-0.698132,-0.174533,0.174533,-0.0858313,-0.693828,-0.158341,0.148007,-0.172215,-0.172165,-0.404806,0.663141
26,65,-0.0872665,-0.698132,-0.174533,0.174533,-0.0858313,-0.693828,-0.158341,0.148007,-0.172215,-0.172165,-0.404806,0.663141
26,65,-0.0872665,-0.698132,-0.174533,0.174533,-0.0858313,-0.693828,-0.158341,0.148007,-0.172215,-0.172165,-0.404806,0.663141
26,65,-0.0872665,-0.698132,-0.174533,0.174533,-0.0858313,-0.693828,-0.158341,0.148007,-0.172215,-0.172165,-0.404806,0.663141
26,65,-0.0872665,-0.698132,-0.174533,0.174533,-0.0858313,-0.693828,-0.15839,0.147964,-0.172215,-0.172165,-0.403562,0.66423
26,65,-0.0872665,-0.698132,-0.174533,0.174533,-0.0858313,-0.693828,-0.15839,0.147964,-0.172215,-0.172165,-0.403562,0.66423
26,65,-0.0872665,-0.698132,-0.174533,0.174533,-0.0858313,-0.693828,-0.15839,0.147964,-0.172215,-0.172165,-0.403562,0.66423
26,65,-0.0872665,-0.698132,-0.174533,0.174533,-0.0858313,-0.693828,-0.15839,0.147964,-0.172215,-0.172165,-0.403562,0.66423
26,65,-0.0872665,-0.698132,-0.174533,0.174533,-0.0858313,-0.693828,-0.15839,0.147964,-0.172215,-0.172165,-0.403562,0.66423
26,65,-0.0872665,-0.698132,-0.174533,0.174533,-0.0858313,-0.693828,-0.15839,0.147964,-0.172215,-0.172165,-0.403562,0.66423
26,65,-0.0872665,-0.698132,-0.174533,0.174533,-0.0858313,-0.693828,-0.15839,0.147964,-0.172215,-0.172165,-0.403562,0.66423
26,65,-0.0872665,-0.698132,-0.174533,0.174533,-0.0858313,-0.693828,-0.15839,0.147964,-0.172215,-0.172165,-0.403562,0.66423
26,65,-0.0872665,-0.698132,-0.174533,0.174533,-0.0858313,-0.693828,-0.15839,0.147964,-0.172215,-0.172165,-0.403562,0.66423
26,65,-0.0872665,-0.698132,-0.174533,0.174533,-0.0858313,-0.693828,-0.15839,0.147964,-0.172215,-0.172165,-0.403562,0.66423
26,65,-0.0872665,-0.698132,-0.174533,0.174533,-0.0858313,-0.693828,-0.15844,0.14792,-0.172215,-0.172165,-0.402318,0.665318
26,65,-0.0872665,-0.698132,-0.174533,0.174533,-0.0858313,-0.693828,-0.15844,0.14792,-0.172215,-0.172165,-0.402318,0.665318
26,65,-0.0872665,-0.698132,-0.174533,0.174533,-0.0858313,-0.693828,-0.15844,0.14792,-0.172215,-0.172165,-0.402318,0.665318
26,65,-0.0872665,-0.698132,-0.174533,0.174533,-0.0858313,-0.693828,-0.15844,0.14792,-0.172215,-0.172165,-0.402318,0.665318
26,65,-0.0872665,-0.698132,-0.174533,0.174533,-0.0858313,-0.693828,-0.15844,0.14792,-0.172215,-0.172165,-0.402318,0.665318
26,65,-0.0872665,-0.698132,-0.174533,0.174533,-0.0858313,-0.693828,-0.15844,0.14792,-0.172215,-0.172165,-0.402318,0.665318
26,65,-0.0872665,-0.698132,-0.174533,0.174533,-0.0858313,-0.693828,-0.15844,0.14792,-0.172215,-0.172165,-0.402318,0.665318
26,65,-0.0872665,-0.698132,-0.174533,0.174533,-0.0858313,-0.693828,-0.15844,0.14792,-0.172215,-0.172165,-0.402318,0.665318
26,65,-0.0872665,-0.698132,-0.174533,0.174533,-0.0858313,-0.693828,-0.15844,0.14792,-0.172215,-0.172165,-0.402318,0.665318
26,65,-0.0872665,-0.698132,-0.174533,0.174533,-0.0858313,-0.693828,-0.15844,0.14792,-0.172215,-0.172165,-0.402318,0.665318
26,65,-0.0872665,-0.698132,-0.174533,0.174533,-0.0858313,-0.693828,-0.15844,0.14792,-0.172215,-0.172165,-0.402318,0.665318
26,65,-0.0872665,-0.698132,-0.174533,0.174533,-0.0858313,-0.693828,-0.15844,0.14792,-0.172215,-0.172165,-0.402318,0.665318
26,65,-0.0872665,-0.698132,-0.174533,0.174533,-0.0858313,-0.693828,-0.15844,0.14792,-0.172215,-0.172165,-0.402318,0.665318
26,65,-0.0872665,-0.698132,-0.174533,0.174533,-0.0858313,-0.693828,-0.15844,0.14792,-0.172215,-0.172165,-0.402318,0.665318
26,65,-0.0872665,-0.698132,-0.174533,0.174533,-0.0858313,-0.693828,-0.15844,0.14792,-0.172215,-0.172165,-0.402318,0.665318
26,65,-0.0872665,-0.698132,-0.174533,0.174533,-0.0858313,-0.693828,-0.15844,0.14792,-0.172215,-0.172165,-0.402318,0.665318
26,65,-0.0872665,-0.698132,-0.174533,0.174533,-0.0858313,-0.693828,-0.15844,0.14792,-0.172215,-0.172165,-0.402318,0.665318
26,65,-0.0872665,-0.698132,-0.174533,0.174533,-0.0858313,-0.693828,-0.15844,0.14792,-0.172215,-0.172165,-0.402318,0.665318
26,65,-0.0872665,-0.698132,-0.174533,0.174533,-0.0858313,-0.693828,-0.15844,0.14792,-0.172215,-0.172165,-0.402318,0.665318
26,65,-0.0872665,-0.698132,-0.174533,0.174533,-0.0858313,-0.693828,-0.15844,0.14792,-0.172215,-0.172165,-0.402318,0.665318
26,65,-0.0872665,-0.698132,-0.174533,0.174533,-0.0858313,-0.693828,-0.15844,0.14792,-0.172215,-0.172165,-0.402318,0.665318
26,65,-0.0872665,-0.698132,-0.174533,0.174533,-0.0858313,-0.693828,-0.15844,0.14792,-0.172215,-0.172165,-0.402318,0.665318
26,65,-0.0872665,-0.698132,-0.174533,0.174533,-0.0858313,-0.693828,-0.15844,0.14792,-0.172215,-0.172165,-0.402318,0.665318
26,65,-0.0872665,-0.698132,-0.174533,0.174533,-0.0858313,-0.693828,-0.158444,0.147992,-0.172215,-0.172165,-0.402233,0.663527
26,65,-0.0872665,-0.698132,-0.174533,0.174533,-0.0858313,-0.693828,-0.158444,0.147992,-0.172215,-0.172165,-0.402233,0.663527
26,65,-0.0872665,-0.698132,-0.174533,0.174533,-0.0858313,-0.693828,-0.158444,0.147992,-0.172215,-0.172165,-0.402233,0.663527
26,65,-0.0872665,-0.698132,-0.174533,0.174533,-0.0858313,-0.693828,-0.158444,0.147992,-0.172215,-0.172165,-0.402233,0.663527
26,65,-0.0872665,-0.698132,-0.174533,0.174533,-0.0858313,-0.693828,-0.158444,0.147992,-0.172215,-0.172165,-0.402233,0.663527
26,65,-0.0872665,-0.698132,-0.174533,0.174533,-0.0858313,-0.693828,-0.158444,0.147992,-0.172215,-0.172165,-0.402233,0.663527
26,65,-0.0872665,-0.698132,-0.174533,0.174533,-0.0858313,-0.693828,-0.158444,0.147992,-0.172215,-0.172165,-0.402233,0.663527
26,65,-0.0872665,-0.698132,-0.174533,0.174533,-0.0858313,-0.693828,-0.158444,0.147992,-0.172215,-0.172165,-0.402233,0.663527
26,65,-0.0872665,-0.698132,-0.174533,0.174533,-0.0858313,-0.693828,-0.158444,0.147992,-0.172215,-0.172165,-0.402233,0.663527
