stim_pw [us],stim_amp [mA],com_elbow_fe [rad],com_forearm_ps [rad],com_wrist_fe [rad],com_wrist_ru [rad],act_elbow_fe [rad],act_forearm_ps [rad],act_wrist_fe [rad],act_wrist_ru [rad],elbow_fe_trq [Nm],forearm_ps_trq [Nm],wrist_fe_trq [Nm],wrist_ru_trq [Nm]
23,45,-1.0472,-0.698132,-0.174533,0.174533,-1.03348,-0.686761,-0.13856,0.142011,-1.64565,-0.454842,-0.899326,0.813047
23,45,-1.0472,-0.698132,-0.174533,0.174533,-1.03348,-0.686761,-0.13856,0.142011,-1.64565,-0.454842,-0.899326,0.813047
23,45,-1.0472,-0.698132,-0.174533,0.174533,-1.03348,-0.686761,-0.13856,0.142011,-1.64565,-0.454842,-0.899326,0.813047
23,45,-1.0472,-0.698132,-0.174533,0.174533,-1.03348,-0.686761,-0.13856,0.142011,-1.64565,-0.454842,-0.899326,0.813047
23,45,-1.0472,-0.698132,-0.174533,0.174533,-1.03348,-0.686761,-0.13856,0.142011,-1.64565,-0.454842,-0.899326,0.813047
23,45,-1.0472,-0.698132,-0.174533,0.174533,-1.03348,-0.686761,-0.13856,0.142011,-1.64565,-0.454842,-0.899326,0.813047
23,45,-1.0472,-0.698132,-0.174533,0.174533,-1.03348,-0.686761,-0.13856,0.142011,-1.64565,-0.454842,-0.899326,0.813047
23,45,-1.0472,-0.698132,-0.174533,0.174533,-1.03348,-0.686761,-0.13856,0.142011,-1.64565,-0.454842,-0.899326,0.813047
23,45,-1.0472,-0.698132,-0.174533,0.174533,-1.03348,-0.686761,-0.138564,0.142082,-1.64565,-0.454842,-0.899233,0.811285
23,45,-1.0472,-0.698132,-0.174533,0.174533,-1.03348,-0.686761,-0.138564,0.142082,-1.64565,-0.454842,-0.899233,0.811285
23,45,-1.0472,-0.698132,-0.174533,0.174533,-1.03348,-0.686761,-0.138564,0.142082,-1.64565,-0.454842,-0.899233,0.811285
23,45,-1.0472,-0.698132,-0.174533,0.174533,-1.03348,-0.686761,-0.138564,0.142082,-1.64565,-0.454842,-0.899233,0.811285
23,45,-1.0472,-0.698132,-0.174533,0.174533,-1.03348,-0.686761,-0.138564,0.142082,-1.64565,-0.454842,-0.899233,0.811285
23,45,-1.0472,-0.698132,-0.174533,0.174533,-1.03348,-0.686761,-0.138564,0.142082,-1.64565,-0.454842,-0.899233,0.811285
23,45,-1.0472,-0.698132,-0.174533,0.174533,-1.03348,-0.686761,-0.138564,0.142082,-1.64565,-0.454842,-0.899233,0.811285
23,45,-1.0472,-0.698132,-0.174533,0.174533,-1.03348,-0.686761,-0.138564,0.142082,-1.64565,-0.454842,-0.899233,0.811285
23,45,-1.0472,-0.698132,-0.174533,0.174533,-1.03348,-0.686761,-0.138564,0.142082,-1.64565,-0.454842,-0.899233,0.811285
23,45,-1.0472,-0.698132,-0.174533,0.174533,-1.03348,-0.686761,-0.138564,0.142082,-1.64565,-0.454842,-0.899233,0.811285
23,45,-1.0472,-0.698132,-0.174533,0.174533,-1.03348,-0.686761,-0.138564,0.142082,-1.64565,-0.454842,-0.899233,0.811285
23,45,-1.0472,-0.698132,-0.174533,0.174533,-1.03348,-0.686761,-0.138564,0.142082,-1.64565,-0.454842,-0.899233,0.811285
23,45,-1.0472,-0.698132,-0.174533,0.174533,-1.03348,-0.686761,-0.138564,0.142082,-1.64565,-0.454842,-0.899233,0.811285
23,45,-1.0472,-0.698132,-0.174533,0.174533,-1.03348,-0.686761,-0.138564,0.142082,-1.64565,-0.454842,-0.899233,0.811285
23,45,-1.0472,-0.698132,-0.174533,0.174533,-1.03348,-0.686761,-0.138564,0.142082,-1.64565,-0.454842,-0.899233,0.811285
23,45,-1.0472,-0.698132,-0.174533,0.174533,-1.03348,-0.686761,-0.138564,0.142082,-1.64565,-0.454842,-0.899233,0.811285
23,45,-1.0472,-0.698132,-0.174533,0.174533,-1.03348,-0.686761,-0.138564,0.142082,-1.64565,-0.454842,-0.899233,0.811285
23,45,-1.0472,-0.698132,-0.174533,0.174533,-1.03348,-0.686761,-0.138564,0.142082,-1.64565,-0.454842,-0.899233,0.811285
23,45,-1.0472,-0.698132,-0.174533,0.174533,-1.03348,-0.686761,-0.138564,0.142082,-1.64565,-0.454842,-0.899233,0.811285
23,45,-1.0472,-0.698132,-0.174533,0.174533,-1.03348,-0.686761,-0.138564,0.142082,-1.64565,-0.454842,-0.899233,0.811285
23,45,-1.0472,-0.698132,-0.174533,0.174533,-1.03348,-0.686761,-0.138564,0.142082,-1.64565,-0.454842,-0.899233,0.811285
23,45,-1.0472,-0.698132,-0.174533,0.174533,-1.03348,-0.686761,-0.138564,0.142082,-1.64565,-0.454842,-0.899233,0.811285
23,45,-1.0472,-0.698132,-0.174533,0.174533,-1.03348,-0.686761,-0.138564,0.142082,-1.64565,-0.454842,-0.899233,0.811285
23,45,-1.0472,-0.698132,-0.174533,0.174533,-1.03348,-0.686761,-0.138564,0.142082,-1.64565,-0.454842,-0.899233,0.811285
23,45,-1.0472,-0.698132,-0.174533,0.174533,-1.03348,-0.686761,-0.138564,0.142082,-1.64565,-0.454842,-0.899233,0.811285
23,45,-1.0472,-0.698132,-0.174533,0.174533,-1.03348,-0.686761,-0.138564,0.142082,-1.64565,-0.454842,-0.899233,0.811285
23,45,-1.0472,-0.698132,-0.174533,0.174533,-1.03348,-0.686761,-0.138564,0.142082,-1.64565,-0.454842,-0.899233,0.811285
23,45,-1.0472,-0.698132,-0.174533,0.174533,-1.03348,-0.686761,-0.138564,0.142082,-1.64565,-0.454842,-0.899233,0.811285
23,45,-1.0472,-0.698132,-0.174533,0.174533,-1.03348,-0.686761,-0.138564,0.142082,-1.64565,-0.454842,-0.899233,0.811285
23,45,-1.0472,-0.698132,-0.174533,0.174533,-1.03348,-0.686761,-0.138564,0.142082,-1.64565,-0.454842,-0.899233,0.811285
23,45,-1.0472,-0.698132,-0.174533,0.174533,-1.03348,-0.686761,-0.138564,0.142082,-1.64565,-0.454842,-0.899233,0.811285
23,45,-1.0472,-0.698132,-0.174533,0.174533,-1.03348,-0.686761,-0.138564,0.142082,-1.64565,-0.454842,-0.899233,0.811285
23,45,-1.0472,-0.698132,-0.174533,0.174533,-1.03348,-0.686761,-0.138564,0.142082,-1.64565,-0.454842,-0.899233,0.811285
23,45,-1.0472,-0.698132,-0.174533,0.174533,-1.03348,-0.686761,-0.138564,0.142082,-1.64565,-0.454842,-0.899233,0.811285
23,45,-1.0472,-0.698132,-0.174533,0.174533,-1.03348,-0.686761,-0.138564,0.142082,-1.64565,-0.454842,-0.899233,0.811285
23,45,-1.0472,-0.698132,-0.174533,0.174533,-1.03348,-0.686761,-0.138564,0.142082,-1.64565,-0.454842,-0.899233,0.811285
23,45,-1.0472,-0.698132,-0.174533,0.174533,-1.03348,-0.686761,-0.138564,0.142082,-1.64565,-0.454842,-0.899233,0.811285
23,45,-1.0472,-0.698132,-0.174533,0.174533,-1.03348,-0.686761,-0.138564,0.142082,-1.64565,-0.454842,-0.899233,0.811285
23,45,-1.0472,-0.698132,-0.174533,0.174533,-1.03348,-0.686761,-0.138564,0.142082,-1.64565,-0.454842,-0.899233,0.811285
23,45,-1.0472,-0.698132,-0.174533,0.174533,-1.03348,-0.686761,-0.138564,0.142082,-1.64565,-0.454842,-0.899233,0.811285
23,45,-1.0472,-0.698132,-0.174533,0.174533,-1.03348,-0.686761,-0.138564,0.142082,-1.64565,-0.454842,-0.899233,0.811285
23,45,-1.0472,-0.698132,-0.174533,0.174533,-1.03348,-0.686761,-0.138564,0.142082,-1.64565,-0.454842,-0.899233,0.811285
23,45,-1.0472,-0.698132,-0.174533,0.174533,-1.03348,-0.686761,-0.138564,0.142082,-1.64565,-0.454842,-0.899233,0.811285
23,45,-1.0472,-0.698132,-0.174533,0.174533,-1.03348,-0.686761,-0.138564,0.142082,-1.64565,-0.454842,-0.899233,0.811285
23,45,-1.0472,-0.698132,-0.174533,0.174533,-1.03348,-0.686761,-0.138564,0.142082,-1.64565,-0.454842,-0.899233,0.811285
23,45,-1.0472,-0.698132,-0.174533,0.174533,-1.03348,-0.686761,-0.138564,0.142082,-1.64565,-0.454842,-0.899233,0.811285
23,45,-1.0472,-0.698132,-0.174533,0.174533,-1.03348,-0.686761,-0.138564,0.142082,-1.64565,-0.454842,-0.899233,0.811285
23,45,-1.0472,-0.698132,-0.174533,0.174533,-1.03348,-0.686761,-0.138564,0.142082,-1.64565,-0.454842,-0.899233,0.811285
23,45,-1.0472,-0.698132,-0.174533,0.174533,-1.03348,-0.686761,-0.138564,0.142082,-1.64565,-0.454842,-0.899233,0.811285
23,45,-1.0472,-0.698132,-0.174533,0.174533,-1.03348,-0.686761,-0.138564,0.142082,-1.64565,-0.454842,-0.899233,0.811285
23,45,-1.0472,-0.698132,-0.174533,0.174533,-1.03348,-0.686761,-0.138564,0.142082,-1.64565,-0.454842,-0.899233,0.811285
23,45,-1.0472,-0.698132,-0.174533,0.174533,-1.03348,-0.686761,-0.138567,0.142152,-1.64565,-0.454842,-0.899139,0.809523
23,45,-1.0472,-0.698132,-0.174533,0.174533,-1.03348,-0.686761,-0.138567,0.142152,-1.64565,-0.454842,-0.899139,0.809523
23,45,-1.0472,-0.698132,-0.174533,0.174533,-1.03348,-0.686761,-0.138567,0.142152,-1.64565,-0.454842,-0.899139,0.809523
23,45,-1.0472,-0.698132,-0.174533,0.174533,-1.03348,-0.686761,-0.138567,0.142152,-1.64565,-0.454842,-0.899139,0.809523
23,45,-1.0472,-0.698132,-0.174533,0.174533,-1.03348,-0.686761,-0.138567,0.142152,-1.64565,-0.454842,-0.899139,0.809523
23,45,-1.0472,-0.698132,-0.174533,0.174533,-1.03348,-0.686761,-0.138567,0.142152,-1.64565,-0.454842,-0.899139,0.809523
23,45,-1.0472,-0.698132,-0.174533,0.174533,-1.03348,-0.686761,-0.138567,0.142152,-1.64565,-0.454842,-0.899139,0.809523
23,45,-1.0472,-0.698132,-0.174533,0.174533,-1.03348,-0.686761,-0.138567,0.142152,-1.64565,-0.454842,-0.899139,0.809523
23,45,-1.0472,-0.698132,-0.174533,0.174533,-1.03348,-0.686761,-0.138567,0.142152,-1.64565,-0.454842,-0.899139,0.809523
23,45,-1.0472,-0.698132,-0.174533,0.174533,-1.03348,-0.686761,-0.138567,0.142152,-1.64565,-0.454842,-0.899139,0.809523
23,45,-1.0472,-0.698132,-0.174533,0.174533,-1.03348,-0.686761,-0.138567,0.142152,-1.64565,-0.454842,-0.899139,0.809523
23,45,-1.0472,-0.698132,-0.174533,0.174533,-1.03348,-0.686761,-0.138567,0.142152,-1.64565,-0.454842,-0.899139,0.809523
23,45,-1.0472,-0.698132,-0.174533,0.174533,-1.03348,-0.686761,-0.138567,0.142152,-1.64565,-0.454842,-0.899139,0.809523
23,45,-1.0472,-0.698132,-0.174533,0.174533,-1.03348,-0.686761,-0.138567,0.142152,-1.64565,-0.454842,-0.899139,0.809523
23,45,-1.0472,-0.698132,-0.174533,0.174533,-1.03348,-0.686761,-0.138567,0.142152,-1.64565,-0.454842,-0.899139,0.809523
23,45,-1.0472,-0.698132,-0.174533,0.174533,-1.03348,-0.686761,-0.138567,0.142152,-1.64565,-0.454842,-0.899139,0.809523
23,45,-1.0472,-0.698132,-0.174533,0.174533,-1.03348,-0.686761,-0.138567,0.142152,-1.64565,-0.454842,-0.899139,0.809523
23,45,-1.0472,-0.698132,-0.174533,0.174533,-1.03348,-0.686761,-0.138567,0.142152,-1.64565,-0.454842,-0.899139,0.809523
23,45,-1.0472,-0.698132,-0.174533,0.174533,-1.03348,-0.686761,-0.138567,0.142152,-1.64565,-0.454842,-0.899139,0.809523
23,45,-1.0472,-0.698132,-0.174533,0.174533,-1.03348,-0.686761,-0.138567,0.142152,-1.64565,-0.454842,-0.899139,0.809523
23,45,-1.0472,-0.698132,-0.174533,0.174533,-1.03348,-0.686761,-0.138567,0.142152,-1.64565,-0.454842,-0.899139,0.809523
23,45,-1.0472,-0.698132,-0.174533,0.174533,-1.03348,-0.686761,-0.138567,0.142152,-1.64565,-0.454842,-0.899139,0.809523
23,45,-1.0472,-0.698132,-0.174533,0.174533,-1.03348,-0.686761,-0.138567,0.142152,-1.64565,-0.454842,-0.899139,0.809523
23,45,-1.0472,-0.698132,-0.174533,0.174533,-1.03348,-0.686761,-0.138567,0.142152,-1.64565,-0.454842,-0.899139,0.809523
23,45,-1.0472,-0.698132,-0.174533,0.174533,-1.03348,-0.686761,-0.138567,0.142152,-1.64565,-0.454842,-0.899139,0.809523
23,45,-1.0472,-0.698132,-0.174533,0.174533,-1.03348,-0.686761,-0.138567,0.142152,-1.64565,-0.454842,-0.899139,0.809523
23,45,-1.0472,-0.698132,-0.174533,0.174533,-1.03348,-0.686761,-0.138567,0.142152,-1.64565,-0.454842,-0.899139,0.809523
23,45,-1.0472,-0.698132,-0.174533,0.174533,-1.03348,-0.686761,-0.138567,0.142152,-1.64565,-0.454842,-0.899139,0.809523
23,45,-1.0472,-0.698132,-0.174533,0.174533,-1.03348,-0.686761,-0.138567,0.142152,-1.64565,-0.454842,-0.899139,0.809523
23,45,-1.0472,-0.698132,-0.174533,0.174533,-1.03348,-0.686761,-0.138567,0.142152,-1.64565,-0.454842,-0.899139,0.809523
23,45,-1.0472,-0.698132,-0.174533,0.174533,-1.03348,-0.686761,-0.138567,0.142152,-1.64565,-0.454842,-0.899139,0.809523
23,45,-1.0472,-0.698132,-0.174533,0.174533,-1.03348,-0.686761,-0.138567,0.142152,-1.64565,-0.454842,-0.899139,0.809523
23,45,-1.0472,-0.698132,-0.174533,0.174533,-1.03348,-0.686761,-0.138567,0.142152,-1.64565,-0.454842,-0.899139,0.809523
23,45,-1.0472,-0.698132,-0.174533,0.174533,-1.03348,-0.686761,-0.138567,0.142152,-1.64565,-0.454842,-0.899139,0.809523
23,45,-1.0472,-0.698132,-0.174533,0.174533,-1.03348,-0.686761,-0.138567,0.142152,-1.64565,-0.454842,-0.899139,0.809523
23,45,-1.0472,-0.698132,-0.174533,0.174533,-1.03348,-0.686761,-0.138567,0.142152,-1.64565,-0.454842,-0.899139,0.809523
23,45,-1.0472,-0.698132,-0.174533,0.174533,-1.03348,-0.686761,-0.138567,0.142152,-1.64565,-0.454842,-0.899139,0.809523
23,45,-1.0472,-0.698132,-0.174533,0.174533,-1.03348,-0.686761,-0.138567,0.142152,-1.64565,-0.454842,-0.899139,0.809523
23,45,-1.0472,-0.698132,-0.174533,0.174533,-1.03348,-0.686761,-0.138567,0.142152,-1.64565,-0.454842,-0.899139,0.809523
23,45,-1.0472,-0.698132,-0.174533,0.174533,-1.03348,-0.686761,-0.138567,0.142152,-1.64565,-0.454842,-0.899139,0.809523
23,45,-1.0472,-0.698132,-0.174533,0.174533,-1.03348,-0.686761,-0.138567,0.142152,-1.64565,-0.454842,-0.899139,0.809523
23,45,-1.0472,-0.698132,-0.174533,0.174533,-1.03348,-0.686761,-0.138567,0.142152,-1.64565,-0.454842,-0.899139,0.809523
23,45,-1.0472,-0.698132,-0.174533,0.174533,-1.03348,-0.686761,-0.138567,0.142152,-1.64565,-0.454842,-0.899139,0.809523
23,45,-1.0472,-0.698132,-0.174533,0.174533,-1.03348,-0.686761,-0.138567,0.142152,-1.64565,-0.454842,-0.899139,0.809523
23,45,-1.0472,-0.698132,-0.174533,0.174533,-1.03348,-0.686761,-0.138567,0.142152,-1.64565,-0.454842,-0.899139,0.809523
23,45,-1.0472,-0.698132,-0.174533,0.174533,-1.03348,-0.686761,-0.138567,0.142152,-1.64565,-0.454842,-0.899139,0.809523
23,45,-1.0472,-0.698132,-0.174533,0.174533,-1.03348,-0.686761,-0.138567,0.142152,-1.64565,-0.454842,-0.899139,0.809523
23,45,-1.0472,-0.698132,-0.174533,0.174533,-1.03348,-0.686761,-0.138567,0.142152,-1.64565,-0.454842,-0.899139,0.809523
23,45,-1.0472,-0.698132,-0.174533,0.174533,-1.03348,-0.686761,-0.138567,0.142152,-1.64565,-0.454842,-0.899139,0.809523
23,45,-1.0472,-0.698132,-0.174533,0.174533,-1.03348,-0.686761,-0.138567,0.142152,-1.64565,-0.454842,-0.899139,0.809523
23,45,-1.0472,-0.698132,-0.174533,0.174533,-1.03348,-0.686761,-0.138567,0.142152,-1.64565,-0.454842,-0.899139,0.809523
23,45,-1.0472,-0.698132,-0.174533,0.174533,-1.03348,-0.686761,-0.138567,0.142152,-1.64565,-0.454842,-0.899139,0.809523
23,45,-1.0472,-0.698132,-0.174533,0.174533,-1.03348,-0.686761,-0.138567,0.142152,-1.64565,-0.454842,-0.899139,0.809523
23,45,-1.0472,-0.698132,-0.174533,0.174533,-1.03348,-0.686761,-0.138567,0.142152,-1.64565,-0.454842,-0.899139,0.809523
23,45,-1.0472,-0.698132,-0.174533,0.174533,-1.03348,-0.686761,-0.138567,0.142152,-1.64565,-0.454842,-0.899139,0.809523
23,45,-1.0472,-0.698132,-0.174533,0.174533,-1.03348,-0.686761,-0.138567,0.142152,-1.64565,-0.454842,-0.899139,0.809523
23,45,-1.0472,-0.698132,-0.174533,0.174533,-1.03348,-0.686761,-0.138567,0.142152,-1.64565,-0.454842,-0.899139,0.809523
23,45,-1.0472,-0.698132,-0.174533,0.174533,-1.03348,-0.686761,-0.138567,0.142152,-1.64565,-0.454842,-0.899139,0.809523
23,45,-1.0472,-0.698132,-0.174533,0.174533,-1.03348,-0.686761,-0.138567,0.142152,-1.64565,-0.454842,-0.899139,0.809523
23,45,-1.0472,-0.698132,-0.174533,0.174533,-1.03348,-0.686761,-0.138567,0.142152,-1.64565,-0.454842,-0.899139,0.809523
23,45,-1.0472,-0.698132,-0.174533,0.174533,-1.03348,-0.686761,-0.138567,0.142152,-1.64565,-0.454842,-0.899139,0.809523
23,45,-1.0472,-0.698132,-0.174533,0.174533,-1.03348,-0.686761,-0.138567,0.142152,-1.64565,-0.454842,-0.899139,0.809523
23,45,-1.0472,-0.698132,-0.174533,0.174533,-1.03348,-0.686761,-0.138567,0.142152,-1.64565,-0.454842,-0.899139,0.809523
23,45,-1.0472,-0.698132,-0.174533,0.174533,-1.03348,-0.686761,-0.138567,0.142152,-1.64565,-0.454842,-0.899139,0.809523
23,45,-1.0472,-0.698132,-0.174533,0.174533,-1.03348,-0.686761,-0.138567,0.142152,-1.64565,-0.454842,-0.899139,0.809523
23,45,-1.0472,-0.698132,-0.174533,0.174533,-1.03348,-0.686761,-0.138567,0.142152,-1.64565,-0.454842,-0.899139,0.809523
23,45,-1.0472,-0.698132,-0.174533,0.174533,-1.03348,-0.686761,-0.138567,0.142152,-1.64565,-0.454842,-0.899139,0.809523
23,45,-1.0472,-0.698132,-0.174533,0.174533,-1.03348,-0.686761,-0.138567,0.142152,-1.64565,-0.454842,-0.899139,0.809523
23,45,-1.0472,-0.698132,-0.174533,0.174533,-1.03348,-0.686761,-0.138567,0.142152,-1.64565,-0.454842,-0.899139,0.809523
23,45,-1.0472,-0.698132,-0.174533,0.174533,-1.03348,-0.686761,-0.138567,0.142152,-1.64565,-0.454842,-0.899139,0.809523
23,45,-1.0472,-0.698132,-0.174533,0.174533,-1.03348,-0.686761,-0.138567,0.142152,-1.64565,-0.454842,-0.899139,0.809523
23,45,-1.0472,-0.698132,-0.174533,0.174533,-1.03348,-0.686761,-0.138567,0.142152,-1.64565,-0.454842,-0.899139,0.809523
23,45,-1.0472,-0.698132,-0.174533,0.174533,-1.03348,-0.686761,-0.138567,0.142152,-1.64565,-0.454842,-0.899139,0.809523
23,45,-1.0472,-0.698132,-0.174533,0.174533,-1.03348,-0.686761,-0.138567,0.142152,-1.64565,-0.454842,-0.899139,0.809523
23,45,-1.0472,-0.698132,-0.174533,0.174533,-1.03348,-0.686761,-0.138567,0.142152,-1.64565,-0.454842,-0.899139,0.809523
23,45,-1.0472,-0.698132,-0.174533,0.174533,-1.03348,-0.686761,-0.138567,0.142152,-1.64565,-0.454842,-0.899139,0.809523
23,45,-1.0472,-0.698132,-0.174533,0.174533,-1.03348,-0.686761,-0.138567,0.142152,-1.64565,-0.454842,-0.899139,0.809523
23,45,-1.0472,-0.698132,-0.174533,0.174533,-1.03348,-0.686761,-0.138567,0.142152,-1.64565,-0.454842,-0.899139,0.809523
23,45,-1.0472,-0.698132,-0.174533,0.174533,-1.03348,-0.686761,-0.138567,0.142152,-1.64565,-0.454842,-0.899139,0.809523
23,45,-1.0472,-0.698132,-0.174533,0.174533,-1.03348,-0.686761,-0.138567,0.142152,-1.64565,-0.454842,-0.899139,0.809523
23,45,-1.0472,-0.698132,-0.174533,0.174533,-1.03348,-0.686761,-0.138567,0.142152,-1.64565,-0.454842,-0.899139,0.809523
23,45,-1.0472,-0.698132,-0.174533,0.174533,-1.03348,-0.686761,-0.138567,0.142152,-1.64565,-0.454842,-0.899139,0.809523
23,45,-1.0472,-0.698132,-0.174533,0.174533,-1.03348,-0.686761,-0.138567,0.142152,-1.64565,-0.454842,-0.899139,0.809523
23,45,-1.0472,-0.698132,-0.174533,0.174533,-1.03348,-0.686761,-0.138567,0.142152,-1.64565,-0.454842,-0.899139,0.809523
23,45,-1.0472,-0.698132,-0.174533,0.174533,-1.03348,-0.686761,-0.138567,0.142152,-1.64565,-0.454842,-0.899139,0.809523
23,45,-1.0472,-0.698132,-0.174533,0.174533,-1.03348,-0.686761,-0.138567,0.142152,-1.64565,-0.454842,-0.899139,0.809523
23,45,-1.0472,-0.698132,-0.174533,0.174533,-1.03348,-0.686761,-0.138567,0.142152,-1.64565,-0.454842,-0.899139,0.809523
23,45,-1.0472,-0.698132,-0.174533,0.174533,-1.03348,-0.686761,-0.138567,0.142152,-1.64565,-0.454842,-0.899139,0.809523
23,45,-1.0472,-0.698132,-0.174533,0.174533,-1.03348,-0.686761,-0.138567,0.142152,-1.64565,-0.454842,-0.899139,0.809523
23,45,-1.0472,-0.698132,-0.174533,0.174533,-1.03348,-0.686761,-0.138571,0.142222,-1.64565,-0.454842,-0.899046,0.807762
23,45,-1.0472,-0.698132,-0.174533,0.174533,-1.03348,-0.686761,-0.138571,0.142222,-1.64565,-0.454842,-0.899046,0.807762
23,45,-1.0472,-0.698132,-0.174533,0.174533,-1.03348,-0.686761,-0.138571,0.142222,-1.64565,-0.454842,-0.899046,0.807762
23,45,-1.0472,-0.698132,-0.174533,0.174533,-1.03348,-0.686761,-0.138571,0.142222,-1.64565,-0.454842,-0.899046,0.807762
23,45,-1.0472,-0.698132,-0.174533,0.174533,-1.03348,-0.686761,-0.138571,0.142222,-1.64565,-0.454842,-0.899046,0.807762
23,45,-1.0472,-0.698132,-0.174533,0.174533,-1.03348,-0.686761,-0.138571,0.142222,-1.64565,-0.454842,-0.899046,0.807762
23,45,-1.0472,-0.698132,-0.174533,0.174533,-1.03348,-0.686761,-0.138571,0.142222,-1.64565,-0.454842,-0.899046,0.807762
23,45,-1.0472,-0.698132,-0.174533,0.174533,-1.03348,-0.686761,-0.138571,0.142222,-1.64565,-0.454842,-0.899046,0.807762
23,45,-1.0472,-0.698132,-0.174533,0.174533,-1.03348,-0.686761,-0.138571,0.142222,-1.64565,-0.454842,-0.899046,0.807762
23,45,-1.0472,-0.698132,-0.174533,0.174533,-1.03348,-0.686761,-0.138571,0.142222,-1.64565,-0.454842,-0.899046,0.807762
23,45,-1.0472,-0.698132,-0.174533,0.174533,-1.03348,-0.686761,-0.138571,0.142222,-1.64565,-0.454842,-0.899046,0.807762
23,45,-1.0472,-0.698132,-0.174533,0.174533,-1.03348,-0.686761,-0.138571,0.142222,-1.64565,-0.454842,-0.899046,0.807762
23,45,-1.0472,-0.698132,-0.174533,0.174533,-1.03348,-0.686761,-0.138571,0.142222,-1.64565,-0.454842,-0.899046,0.807762
23,45,-1.0472,-0.698132,-0.174533,0.174533,-1.03348,-0.686761,-0.138571,0.142222,-1.64565,-0.454842,-0.899046,0.807762
23,45,-1.0472,-0.698132,-0.174533,0.174533,-1.03348,-0.686761,-0.138571,0.142222,-1.64565,-0.454842,-0.899046,0.807762
23,45,-1.0472,-0.698132,-0.174533,0.174533,-1.03348,-0.686761,-0.138571,0.142222,-1.64565,-0.454842,-0.899046,0.807762
23,45,-1.0472,-0.698132,-0.174533,0.174533,-1.03348,-0.686761,-0.138571,0.142222,-1.64565,-0.454842,-0.899046,0.807762
23,45,-1.0472,-0.698132,-0.174533,0.174533,-1.03348,-0.686761,-0.138571,0.142222,-1.64565,-0.454842,-0.899046,0.807762
23,45,-1.0472,-0.698132,-0.174533,0.174533,-1.03348,-0.686761,-0.138571,0.142222,-1.64565,-0.454842,-0.899046,0.807762
23,45,-1.0472,-0.698132,-0.174533,0.174533,-1.03348,-0.686761,-0.138571,0.142222,-1.64565,-0.454842,-0.899046,0.807762
23,45,-1.0472,-0.698132,-0.174533,0.174533,-1.03348,-0.686761,-0.138571,0.142222,-1.64565,-0.454842,-0.899046,0.807762
23,45,-1.0472,-0.698132,-0.174533,0.174533,-1.03348,-0.686761,-0.138571,0.142222,-1.64565,-0.454842,-0.899046,0.807762
23,45,-1.0472,-0.698132,-0.174533,0.174533,-1.03348,-0.686761,-0.138571,0.142222,-1.64565,-0.454842,-0.899046,0.807762
23,45,-1.0472,-0.698132,-0.174533,0.174533,-1.03348,-0.686761,-0.138571,0.142222,-1.64565,-0.454842,-0.899046,0.807762
23,45,-1.0472,-0.698132,-0.174533,0.174533,-1.03348,-0.686761,-0.138571,0.142222,-1.64565,-0.454842,-0.899046,0.807762
23,45,-1.0472,-0.698132,-0.174533,0.174533,-1.03348,-0.686761,-0.138571,0.142222,-1.64565,-0.454842,-0.899046,0.807762
23,45,-1.0472,-0.698132,-0.174533,0.174533,-1.03348,-0.686761,-0.138571,0.142222,-1.64565,-0.454842,-0.899046,0.807762
23,45,-1.0472,-0.698132,-0.174533,0.174533,-1.03348,-0.686761,-0.138571,0.142222,-1.64565,-0.454842,-0.899046,0.807762
23,45,-1.0472,-0.698132,-0.174533,0.174533,-1.03348,-0.686761,-0.138571,0.142222,-1.64565,-0.454842,-0.899046,0.807762
23,45,-1.0472,-0.698132,-0.174533,0.174533,-1.03348,-0.686761,-0.138571,0.142222,-1.64565,-0.454842,-0.899046,0.807762
23,45,-1.0472,-0.698132,-0.174533,0.174533,-1.03348,-0.686761,-0.138571,0.142222,-1.64565,-0.454842,-0.899046,0.807762
23,45,-1.0472,-0.698132,-0.174533,0.174533,-1.03348,-0.686761,-0.138571,0.142222,-1.64565,-0.454842,-0.899046,0.807762
23,45,-1.0472,-0.698132,-0.174533,0.174533,-1.03348,-0.686761,-0.138571,0.142222,-1.64565,-0.454842,-0.899046,0.807762
23,45,-1.0472,-0.698132,-0.174533,0.174533,-1.03348,-0.686761,-0.138571,0.142222,-1.64565,-0.454842,-0.899046,0.807762
23,45,-1.0472,-0.698132,-0.174533,0.174533,-1.03348,-0.686761,-0.138571,0.142222,-1.64565,-0.454842,-0.899046,0.807762
23,45,-1.0472,-0.698132,-0.174533,0.174533,-1.03348,-0.686761,-0.138571,0.142222,-1.64565,-0.454842,-0.899046,0.807762
23,45,-1.0472,-0.698132,-0.174533,0.174533,-1.03348,-0.686761,-0.138571,0.142222,-1.64565,-0.454842,-0.899046,0.807762
23,45,-1.0472,-0.698132,-0.174533,0.174533,-1.03348,-0.686761,-0.138571,0.142222,-1.64565,-0.454842,-0.899046,0.807762
23,45,-1.0472,-0.698132,-0.174533,0.174533,-1.03348,-0.686761,-0.138571,0.142222,-1.64565,-0.454842,-0.899046,0.807762
23,45,-1.0472,-0.698132,-0.174533,0.174533,-1.03348,-0.686761,-0.138571,0.142222,-1.64565,-0.454842,-0.899046,0.807762
23,45,-1.0472,-0.698132,-0.174533,0.174533,-1.03348,-0.686761,-0.138571,0.142222,-1.64565,-0.454842,-0.899046,0.807762
23,45,-1.0472,-0.698132,-0.174533,0.174533,-1.03348,-0.686761,-0.138571,0.142222,-1.64565,-0.454842,-0.899046,0.807762
23,45,-1.0472,-0.698132,-0.174533,0.174533,-1.03348,-0.686761,-0.138571,0.142222,-1.64565,-0.454842,-0.899046,0.807762
23,45,-1.0472,-0.698132,-0.174533,0.174533,-1.03348,-0.686761,-0.138571,0.142222,-1.64565,-0.454842,-0.899046,0.807762
23,45,-1.0472,-0.698132,-0.174533,0.174533,-1.03348,-0.686761,-0.138571,0.142222,-1.64565,-0.454842,-0.899046,0.807762
23,45,-1.0472,-0.698132,-0.174533,0.174533,-1.03348,-0.686761,-0.138571,0.142222,-1.64565,-0.454842,-0.899046,0.807762
23,45,-1.0472,-0.698132,-0.174533,0.174533,-1.03348,-0.686761,-0.138571,0.142222,-1.64565,-0.454842,-0.899046,0.807762
23,45,-1.0472,-0.698132,-0.174533,0.174533,-1.03348,-0.686761,-0.138571,0.142222,-1.64565,-0.454842,-0.899046,0.807762
23,45,-1.0472,-0.698132,-0.174533,0.174533,-1.03348,-0.686761,-0.138571,0.142222,-1.64565,-0.454842,-0.899046,0.807762
23,45,-1.0472,-0.698132,-0.174533,0.174533,-1.03348,-0.686761,-0.138571,0.142222,-1.64565,-0.454842,-0.899046,0.807762
23,45,-1.0472,-0.698132,-0.174533,0.174533,-1.03348,-0.686761,-0.138571,0.142222,-1.64565,-0.454842,-0.899046,0.807762
23,45,-1.0472,-0.698132,-0.174533,0.174533,-1.03348,-0.686761,-0.138571,0.142222,-1.64565,-0.454842,-0.899046,0.807762
23,45,-1.0472,-0.698132,-0.174533,0.174533,-1.03348,-0.686761,-0.138571,0.142222,-1.64565,-0.454842,-0.899046,0.807762
23,45,-1.0472,-0.698132,-0.174533,0.174533,-1.03348,-0.686761,-0.138571,0.142222,-1.64565,-0.454842,-0.899046,0.807762
23,45,-1.0472,-0.698132,-0.174533,0.174533,-1.03348,-0.686761,-0.138571,0.142222,-1.64565,-0.454842,-0.899046,0.807762
23,45,-1.0472,-0.698132,-0.174533,0.174533,-1.03348,-0.686761,-0.138571,0.142222,-1.64565,-0.454842,-0.899046,0.807762
23,45,-1.0472,-0.698132,-0.174533,0.174533,-1.03348,-0.686761,-0.138571,0.142222,-1.64565,-0.454842,-0.899046,0.807762
23,45,-1.0472,-0.698132,-0.174533,0.174533,-1.03348,-0.686761,-0.138571,0.142222,-1.64565,-0.454842,-0.899046,0.807762
23,45,-1.0472,-0.698132,-0.174533,0.174533,-1.03348,-0.686761,-0.138571,0.142222,-1.64565,-0.454842,-0.899046,0.807762
23,45,-1.0472,-0.698132,-0.174533,0.174533,-1.03348,-0.686761,-0.138571,0.142222,-1.64565,-0.454842,-0.899046,0.807762
23,45,-1.0472,-0.698132,-0.174533,0.174533,-1.03348,-0.686761,-0.138571,0.142222,-1.64565,-0.454842,-0.899046,0.807762
23,45,-1.0472,-0.698132,-0.174533,0.174533,-1.03348,-0.686761,-0.138571,0.142222,-1.64565,-0.454842,-0.899046,0.807762
23,45,-1.0472,-0.698132,-0.174533,0.174533,-1.03348,-0.686761,-0.138571,0.142222,-1.64565,-0.454842,-0.899046,0.807762
23,45,-1.0472,-0.698132,-0.174533,0.174533,-1.03348,-0.686761,-0.138571,0.142222,-1.64565,-0.454842,-0.899046,0.807762
23,45,-1.0472,-0.698132,-0.174533,0.174533,-1.03348,-0.686761,-0.138571,0.142222,-1.64565,-0.454842,-0.899046,0.807762
23,45,-1.0472,-0.698132,-0.174533,0.174533,-1.03348,-0.686761,-0.138571,0.142222,-1.64565,-0.454842,-0.899046,0.807762
23,45,-1.0472,-0.698132,-0.174533,0.174533,-1.03348,-0.686761,-0.138571,0.142222,-1.64565,-0.454842,-0.899046,0.807762
23,45,-1.0472,-0.698132,-0.174533,0.174533,-1.03348,-0.686761,-0.138571,0.142222,-1.64565,-0.454842,-0.899046,0.807762
23,45,-1.0472,-0.698132,-0.174533,0.174533,-1.03348,-0.686761,-0.138571,0.142222,-1.64565,-0.454842,-0.899046,0.807762
23,45,-1.0472,-0.698132,-0.174533,0.174533,-1.03348,-0.686761,-0.138571,0.142222,-1.64565,-0.454842,-0.899046,0.807762
23,45,-1.0472,-0.698132,-0.174533,0.174533,-1.03348,-0.686761,-0.138571,0.142222,-1.64565,-0.454842,-0.899046,0.807762
23,45,-1.0472,-0.698132,-0.174533,0.174533,-1.03348,-0.686761,-0.138571,0.142222,-1.64565,-0.454842,-0.899046,0.807762
23,45,-1.0472,-0.698132,-0.174533,0.174533,-1.03348,-0.686761,-0.138571,0.142222,-1.64565,-0.454842,-0.899046,0.807762
23,45,-1.0472,-0.698132,-0.174533,0.174533,-1.03348,-0.686761,-0.138571,0.142222,-1.64565,-0.454842,-0.899046,0.807762
23,45,-1.0472,-0.698132,-0.174533,0.174533,-1.03348,-0.686761,-0.138571,0.142222,-1.64565,-0.454842,-0.899046,0.807762
23,45,-1.0472,-0.698132,-0.174533,0.174533,-1.03348,-0.686761,-0.138571,0.142222,-1.64565,-0.454842,-0.899046,0.807762
23,45,-1.0472,-0.698132,-0.174533,0.174533,-1.03348,-0.686761,-0.138571,0.142222,-1.64565,-0.454842,-0.899046,0.807762
23,45,-1.0472,-0.698132,-0.174533,0.174533,-1.03348,-0.686761,-0.138571,0.142222,-1.64565,-0.454842,-0.899046,0.807762
23,45,-1.0472,-0.698132,-0.174533,0.174533,-1.03348,-0.686761,-0.138571,0.142222,-1.64565,-0.454842,-0.899046,0.807762
23,45,-1.0472,-0.698132,-0.174533,0.174533,-1.03348,-0.686761,-0.138571,0.142222,-1.64565,-0.454842,-0.899046,0.807762
23,45,-1.0472,-0.698132,-0.174533,0.174533,-1.03348,-0.686761,-0.138571,0.142222,-1.64565,-0.454842,-0.899046,0.807762
23,45,-1.0472,-0.698132,-0.174533,0.174533,-1.03348,-0.686761,-0.138571,0.142222,-1.64565,-0.454842,-0.899046,0.807762
23,45,-1.0472,-0.698132,-0.174533,0.174533,-1.03348,-0.686761,-0.138571,0.142222,-1.64565,-0.454842,-0.899046,0.807762
23,45,-1.0472,-0.698132,-0.174533,0.174533,-1.03348,-0.686761,-0.138571,0.142222,-1.64565,-0.454842,-0.899046,0.807762
23,45,-1.0472,-0.698132,-0.174533,0.174533,-1.03348,-0.686761,-0.138571,0.142222,-1.64565,-0.454842,-0.899046,0.807762
23,45,-1.0472,-0.698132,-0.174533,0.174533,-1.03348,-0.686761,-0.138571,0.142222,-1.64565,-0.454842,-0.899046,0.807762
23,45,-1.0472,-0.698132,-0.174533,0.174533,-1.03348,-0.686761,-0.138571,0.142222,-1.64565,-0.454842,-0.899046,0.807762
23,45,-1.0472,-0.698132,-0.174533,0.174533,-1.03348,-0.686761,-0.138571,0.142222,-1.64565,-0.454842,-0.899046,0.807762
23,45,-1.0472,-0.698132,-0.174533,0.174533,-1.03348,-0.686761,-0.138571,0.142222,-1.64565,-0.454842,-0.899046,0.807762
23,45,-1.0472,-0.698132,-0.174533,0.174533,-1.03348,-0.686761,-0.138571,0.142222,-1.64565,-0.454842,-0.899046,0.807762
23,45,-1.0472,-0.698132,-0.174533,0.174533,-1.03348,-0.686761,-0.138571,0.142222,-1.64565,-0.454842,-0.899046,0.807762
23,45,-1.0472,-0.698132,-0.174533,0.174533,-1.03348,-0.686761,-0.138571,0.142222,-1.64565,-0.454842,-0.899046,0.807762
23,45,-1.0472,-0.698132,-0.174533,0.174533,-1.03348,-0.686761,-0.138571,0.142222,-1.64565,-0.454842,-0.899046,0.807762
23,45,-1.0472,-0.698132,-0.174533,0.174533,-1.03348,-0.686761,-0.138571,0.142222,-1.64565,-0.454842,-0.899046,0.807762
23,45,-1.0472,-0.698132,-0.174533,0.174533,-1.03348,-0.686761,-0.138571,0.142222,-1.64565,-0.454842,-0.899046,0.807762
23,45,-1.0472,-0.698132,-0.174533,0.174533,-1.03348,-0.686761,-0.138571,0.142222,-1.64565,-0.454842,-0.899046,0.807762
23,45,-1.0472,-0.698132,-0.174533,0.174533,-1.03348,-0.686761,-0.138571,0.142222,-1.64565,-0.454842,-0.899046,0.807762
23,45,-1.0472,-0.698132,-0.174533,0.174533,-1.03348,-0.686761,-0.138571,0.142222,-1.64565,-0.454842,-0.899046,0.807762
23,45,-1.0472,-0.698132,-0.174533,0.174533,-1.03348,-0.686761,-0.138571,0.142222,-1.64565,-0.454842,-0.899046,0.807762
23,45,-1.0472,-0.698132,-0.174533,0.174533,-1.03348,-0.686761,-0.138571,0.142222,-1.64565,-0.454842,-0.899046,0.807762
23,45,-1.0472,-0.698132,-0.174533,0.174533,-1.03348,-0.686761,-0.138571,0.142222,-1.64565,-0.454842,-0.899046,0.807762
23,45,-1.0472,-0.698132,-0.174533,0.174533,-1.03348,-0.686761,-0.138571,0.142222,-1.64565,-0.454842,-0.899046,0.807762
23,45,-1.0472,-0.698132,-0.174533,0.174533,-1.03348,-0.686761,-0.138571,0.142222,-1.64565,-0.454842,-0.899046,0.807762
23,45,-1.0472,-0.698132,-0.174533,0.174533,-1.03348,-0.686761,-0.138571,0.142222,-1.64565,-0.454842,-0.899046,0.807762
23,45,-1.0472,-0.698132,-0.174533,0.174533,-1.03348,-0.686761,-0.138571,0.142222,-1.64565,-0.454842,-0.899046,0.807762
23,45,-1.0472,-0.698132,-0.174533,0.174533,-1.03348,-0.686761,-0.138571,0.142222,-1.64565,-0.454842,-0.899046,0.807762
23,45,-1.0472,-0.698132,-0.174533,0.174533,-1.03348,-0.686761,-0.138571,0.142222,-1.64565,-0.454842,-0.899046,0.807762
23,45,-1.0472,-0.698132,-0.174533,0.174533,-1.03348,-0.686761,-0.138571,0.142222,-1.64565,-0.454842,-0.899046,0.807762
23,45,-1.0472,-0.698132,-0.174533,0.174533,-1.03348,-0.686761,-0.138571,0.142222,-1.64565,-0.454842,-0.899046,0.807762
23,45,-1.0472,-0.698132,-0.174533,0.174533,-1.03348,-0.686761,-0.138571,0.142222,-1.64565,-0.454842,-0.899046,0.807762
23,45,-1.0472,-0.698132,-0.174533,0.174533,-1.03348,-0.686761,-0.138571,0.142222,-1.64565,-0.454842,-0.899046,0.807762
23,45,-1.0472,-0.698132,-0.174533,0.174533,-1.03348,-0.686761,-0.138571,0.142222,-1.64565,-0.454842,-0.899046,0.807762
23,45,-1.0472,-0.698132,-0.174533,0.174533,-1.03348,-0.686761,-0.138571,0.142222,-1.64565,-0.454842,-0.899046,0.807762
23,45,-1.0472,-0.698132,-0.174533,0.174533,-1.03348,-0.686761,-0.138571,0.142222,-1.64565,-0.454842,-0.899046,0.807762
23,45,-1.0472,-0.698132,-0.174533,0.174533,-1.03348,-0.686761,-0.138571,0.142222,-1.64565,-0.454842,-0.899046,0.807762
23,45,-1.0472,-0.698132,-0.174533,0.174533,-1.03348,-0.686761,-0.138571,0.142222,-1.64565,-0.454842,-0.899046,0.807762
23,45,-1.0472,-0.698132,-0.174533,0.174533,-1.03348,-0.686761,-0.138571,0.142222,-1.64565,-0.454842,-0.899046,0.807762
23,45,-1.0472,-0.698132,-0.174533,0.174533,-1.03348,-0.686761,-0.138571,0.142222,-1.64565,-0.454842,-0.899046,0.807762
23,45,-1.0472,-0.698132,-0.174533,0.174533,-1.03348,-0.686761,-0.138571,0.142222,-1.64565,-0.454842,-0.899046,0.807762
23,45,-1.0472,-0.698132,-0.174533,0.174533,-1.03348,-0.686761,-0.138571,0.142222,-1.64565,-0.454842,-0.899046,0.807762
23,45,-1.0472,-0.698132,-0.174533,0.174533,-1.03348,-0.686761,-0.138571,0.142222,-1.64565,-0.454842,-0.899046,0.807762
23,45,-1.0472,-0.698132,-0.174533,0.174533,-1.03348,-0.686761,-0.138571,0.142222,-1.64565,-0.454842,-0.899046,0.807762
23,45,-1.0472,-0.698132,-0.174533,0.174533,-1.03348,-0.686761,-0.138571,0.142222,-1.64565,-0.454842,-0.899046,0.807762
23,45,-1.0472,-0.698132,-0.174533,0.174533,-1.03348,-0.686761,-0.138571,0.142222,-1.64565,-0.454842,-0.899046,0.807762
23,45,-1.0472,-0.698132,-0.174533,0.174533,-1.03348,-0.686761,-0.138571,0.142222,-1.64565,-0.454842,-0.899046,0.807762
23,45,-1.0472,-0.698132,-0.174533,0.174533,-1.03348,-0.686761,-0.138571,0.142222,-1.64565,-0.454842,-0.899046,0.807762
23,45,-1.0472,-0.698132,-0.174533,0.174533,-1.03348,-0.686761,-0.138571,0.142222,-1.64565,-0.454842,-0.899046,0.807762
23,45,-1.0472,-0.698132,-0.174533,0.174533,-1.03348,-0.686761,-0.138571,0.142222,-1.64565,-0.454842,-0.899046,0.807762
23,45,-1.0472,-0.698132,-0.174533,0.174533,-1.03348,-0.686761,-0.138571,0.142222,-1.64565,-0.454842,-0.899046,0.807762
23,45,-1.0472,-0.698132,-0.174533,0.174533,-1.03348,-0.686761,-0.138571,0.142222,-1.64565,-0.454842,-0.899046,0.807762
23,45,-1.0472,-0.698132,-0.174533,0.174533,-1.03348,-0.686761,-0.138571,0.142222,-1.64565,-0.454842,-0.899046,0.807762
23,45,-1.0472,-0.698132,-0.174533,0.174533,-1.03348,-0.686761,-0.138571,0.142222,-1.64565,-0.454842,-0.899046,0.807762
23,45,-1.0472,-0.698132,-0.174533,0.174533,-1.03348,-0.686761,-0.138571,0.142222,-1.64565,-0.454842,-0.899046,0.807762
23,45,-1.0472,-0.698132,-0.174533,0.174533,-1.03348,-0.686761,-0.138571,0.142222,-1.64565,-0.454842,-0.899046,0.807762
23,45,-1.0472,-0.698132,-0.174533,0.174533,-1.03348,-0.686761,-0.138575,0.142293,-1.64565,-0.454842,-0.898952,0.806
23,45,-1.0472,-0.698132,-0.174533,0.174533,-1.03348,-0.686761,-0.138575,0.142293,-1.64565,-0.454842,-0.898952,0.806
23,45,-1.0472,-0.698132,-0.174533,0.174533,-1.03348,-0.686761,-0.138575,0.142293,-1.64565,-0.454842,-0.898952,0.806
23,45,-1.0472,-0.698132,-0.174533,0.174533,-1.03348,-0.686761,-0.138575,0.142293,-1.64565,-0.454842,-0.898952,0.806
23,45,-1.0472,-0.698132,-0.174533,0.174533,-1.03348,-0.686761,-0.138575,0.142293,-1.64565,-0.454842,-0.898952,0.806
23,45,-1.0472,-0.698132,-0.174533,0.174533,-1.03348,-0.686761,-0.138575,0.142293,-1.64565,-0.454842,-0.898952,0.806
23,45,-1.0472,-0.698132,-0.174533,0.174533,-1.03348,-0.686761,-0.138575,0.142293,-1.64565,-0.454842,-0.898952,0.806
23,45,-1.0472,-0.698132,-0.174533,0.174533,-1.03348,-0.686761,-0.138575,0.142293,-1.64565,-0.454842,-0.898952,0.806
23,45,-1.0472,-0.698132,-0.174533,0.174533,-1.03348,-0.686761,-0.138575,0.142293,-1.64565,-0.454842,-0.898952,0.806
23,45,-1.0472,-0.698132,-0.174533,0.174533,-1.03348,-0.686761,-0.138575,0.142293,-1.64565,-0.454842,-0.898952,0.806
23,45,-1.0472,-0.698132,-0.174533,0.174533,-1.03348,-0.686761,-0.138575,0.142293,-1.64565,-0.454842,-0.898952,0.806
23,45,-1.0472,-0.698132,-0.174533,0.174533,-1.03348,-0.686761,-0.138575,0.142293,-1.64565,-0.454842,-0.898952,0.806
23,45,-1.0472,-0.698132,-0.174533,0.174533,-1.03348,-0.686761,-0.138575,0.142293,-1.64565,-0.454842,-0.898952,0.806
23,45,-1.0472,-0.698132,-0.174533,0.174533,-1.03348,-0.686761,-0.138575,0.142293,-1.64565,-0.454842,-0.898952,0.806
23,45,-1.0472,-0.698132,-0.174533,0.174533,-1.03348,-0.686761,-0.138575,0.142293,-1.64565,-0.454842,-0.898952,0.806
23,45,-1.0472,-0.698132,-0.174533,0.174533,-1.03348,-0.686761,-0.138575,0.142293,-1.64565,-0.454842,-0.898952,0.806
23,45,-1.0472,-0.698132,-0.174533,0.174533,-1.03348,-0.686761,-0.138575,0.142293,-1.64565,-0.454842,-0.898952,0.806
23,45,-1.0472,-0.698132,-0.174533,0.174533,-1.03348,-0.686761,-0.138575,0.142293,-1.64565,-0.454842,-0.898952,0.806
23,45,-1.0472,-0.698132,-0.174533,0.174533,-1.03348,-0.686761,-0.138575,0.142293,-1.64565,-0.454842,-0.898952,0.806
23,45,-1.0472,-0.698132,-0.174533,0.174533,-1.03348,-0.686761,-0.138575,0.142293,-1.64565,-0.454842,-0.898952,0.806
23,45,-1.0472,-0.698132,-0.174533,0.174533,-1.03348,-0.686761,-0.138575,0.142293,-1.64565,-0.454842,-0.898952,0.806
23,45,-1.0472,-0.698132,-0.174533,0.174533,-1.03348,-0.686761,-0.138575,0.142293,-1.64565,-0.454842,-0.898952,0.806
23,45,-1.0472,-0.698132,-0.174533,0.174533,-1.03348,-0.686761,-0.138575,0.142293,-1.64565,-0.454842,-0.898952,0.806
23,45,-1.0472,-0.698132,-0.174533,0.174533,-1.03348,-0.686761,-0.138575,0.142293,-1.64565,-0.454842,-0.898952,0.806
23,45,-1.0472,-0.698132,-0.174533,0.174533,-1.03348,-0.686761,-0.138575,0.142293,-1.64565,-0.454842,-0.898952,0.806
23,45,-1.0472,-0.698132,-0.174533,0.174533,-1.03348,-0.686761,-0.138575,0.142293,-1.64565,-0.454842,-0.898952,0.806
23,45,-1.0472,-0.698132,-0.174533,0.174533,-1.03348,-0.686761,-0.138575,0.142293,-1.64565,-0.454842,-0.898952,0.806
23,45,-1.0472,-0.698132,-0.174533,0.174533,-1.03348,-0.686761,-0.138575,0.142293,-1.64565,-0.454842,-0.898952,0.806
23,45,-1.0472,-0.698132,-0.174533,0.174533,-1.03348,-0.686761,-0.138575,0.142293,-1.64565,-0.454842,-0.898952,0.806
23,45,-1.0472,-0.698132,-0.174533,0.174533,-1.03348,-0.686761,-0.138575,0.142293,-1.64565,-0.454842,-0.898952,0.806
23,45,-1.0472,-0.698132,-0.174533,0.174533,-1.03348,-0.686761,-0.138575,0.142293,-1.64565,-0.454842,-0.898952,0.806
23,45,-1.0472,-0.698132,-0.174533,0.174533,-1.03348,-0.686761,-0.138575,0.142293,-1.64565,-0.454842,-0.898952,0.806
23,45,-1.0472,-0.698132,-0.174533,0.174533,-1.03348,-0.686761,-0.138575,0.142293,-1.64565,-0.454842,-0.898952,0.806
23,45,-1.0472,-0.698132,-0.174533,0.174533,-1.03348,-0.686761,-0.138575,0.142293,-1.64565,-0.454842,-0.898952,0.806
23,45,-1.0472,-0.698132,-0.174533,0.174533,-1.03348,-0.686761,-0.138575,0.142293,-1.64565,-0.454842,-0.898952,0.806
23,45,-1.0472,-0.698132,-0.174533,0.174533,-1.03348,-0.686761,-0.138575,0.142293,-1.64565,-0.454842,-0.898952,0.806
23,45,-1.0472,-0.698132,-0.174533,0.174533,-1.03348,-0.686761,-0.138575,0.142293,-1.64565,-0.454842,-0.898952,0.806
23,45,-1.0472,-0.698132,-0.174533,0.174533,-1.03348,-0.686761,-0.138575,0.142293,-1.64565,-0.454842,-0.898952,0.806
23,45,-1.0472,-0.698132,-0.174533,0.174533,-1.03348,-0.686761,-0.138575,0.142293,-1.64565,-0.454842,-0.898952,0.806
23,45,-1.0472,-0.698132,-0.174533,0.174533,-1.03348,-0.686761,-0.138575,0.142293,-1.64565,-0.454842,-0.898952,0.806
23,45,-1.0472,-0.698132,-0.174533,0.174533,-1.03348,-0.686761,-0.138575,0.142293,-1.64565,-0.454842,-0.898952,0.806
23,45,-1.0472,-0.698132,-0.174533,0.174533,-1.03348,-0.686761,-0.138575,0.142293,-1.64565,-0.454842,-0.898952,0.806
23,45,-1.0472,-0.698132,-0.174533,0.174533,-1.03348,-0.686761,-0.138575,0.142293,-1.64565,-0.454842,-0.898952,0.806
23,45,-1.0472,-0.698132,-0.174533,0.174533,-1.03348,-0.686761,-0.138575,0.142293,-1.64565,-0.454842,-0.898952,0.806
23,45,-1.0472,-0.698132,-0.174533,0.174533,-1.03348,-0.686761,-0.138575,0.142293,-1.64565,-0.454842,-0.898952,0.806
23,45,-1.0472,-0.698132,-0.174533,0.174533,-1.03348,-0.686761,-0.138575,0.142293,-1.64565,-0.454842,-0.898952,0.806
23,45,-1.0472,-0.698132,-0.174533,0.174533,-1.03348,-0.686761,-0.138575,0.142293,-1.64565,-0.454842,-0.898952,0.806
23,45,-1.0472,-0.698132,-0.174533,0.174533,-1.03348,-0.686761,-0.138575,0.142293,-1.64565,-0.454842,-0.898952,0.806
23,45,-1.0472,-0.698132,-0.174533,0.174533,-1.03348,-0.686761,-0.138575,0.142293,-1.64565,-0.454842,-0.898952,0.806
23,45,-1.0472,-0.698132,-0.174533,0.174533,-1.03348,-0.686761,-0.138575,0.142293,-1.64565,-0.454842,-0.898952,0.806
23,45,-1.0472,-0.698132,-0.174533,0.174533,-1.03348,-0.686761,-0.138575,0.142293,-1.64565,-0.454842,-0.898952,0.806
23,45,-1.0472,-0.698132,-0.174533,0.174533,-1.03348,-0.686761,-0.138575,0.142293,-1.64565,-0.454842,-0.898952,0.806
23,45,-1.0472,-0.698132,-0.174533,0.174533,-1.03348,-0.686761,-0.138575,0.142293,-1.64565,-0.454842,-0.898952,0.806
23,45,-1.0472,-0.698132,-0.174533,0.174533,-1.03348,-0.686761,-0.138575,0.142293,-1.64565,-0.454842,-0.898952,0.806
23,45,-1.0472,-0.698132,-0.174533,0.174533,-1.03348,-0.686761,-0.138575,0.142293,-1.64565,-0.454842,-0.898952,0.806
23,45,-1.0472,-0.698132,-0.174533,0.174533,-1.03348,-0.686761,-0.138575,0.142293,-1.64565,-0.454842,-0.898952,0.806
23,45,-1.0472,-0.698132,-0.174533,0.174533,-1.03348,-0.686761,-0.138575,0.142293,-1.64565,-0.454842,-0.898952,0.806
23,45,-1.0472,-0.698132,-0.174533,0.174533,-1.03348,-0.686761,-0.138575,0.142293,-1.64565,-0.454842,-0.898952,0.806
23,45,-1.0472,-0.698132,-0.174533,0.174533,-1.03348,-0.686761,-0.138575,0.142293,-1.64565,-0.454842,-0.898952,0.806
23,45,-1.0472,-0.698132,-0.174533,0.174533,-1.03348,-0.686761,-0.138575,0.142293,-1.64565,-0.454842,-0.898952,0.806
23,45,-1.0472,-0.698132,-0.174533,0.174533,-1.03348,-0.686761,-0.138575,0.142293,-1.64565,-0.454842,-0.898952,0.806
23,45,-1.0472,-0.698132,-0.174533,0.174533,-1.03348,-0.686761,-0.138575,0.142293,-1.64565,-0.454842,-0.898952,0.806
23,45,-1.0472,-0.698132,-0.174533,0.174533,-1.03348,-0.686761,-0.138575,0.142293,-1.64565,-0.454842,-0.898952,0.806
23,45,-1.0472,-0.698132,-0.174533,0.174533,-1.03348,-0.686761,-0.138575,0.142293,-1.64565,-0.454842,-0.898952,0.806
23,45,-1.0472,-0.698132,-0.174533,0.174533,-1.03348,-0.686761,-0.138575,0.142293,-1.64565,-0.454842,-0.898952,0.806
23,45,-1.0472,-0.698132,-0.174533,0.174533,-1.03348,-0.686761,-0.138575,0.142293,-1.64565,-0.454842,-0.898952,0.806
23,45,-1.0472,-0.698132,-0.174533,0.174533,-1.03348,-0.686761,-0.138575,0.142293,-1.64565,-0.454842,-0.898952,0.806
23,45,-1.0472,-0.698132,-0.174533,0.174533,-1.03348,-0.686761,-0.138575,0.142293,-1.64565,-0.454842,-0.898952,0.806
23,45,-1.0472,-0.698132,-0.174533,0.174533,-1.03348,-0.686761,-0.138575,0.142293,-1.64565,-0.454842,-0.898952,0.806
23,45,-1.0472,-0.698132,-0.174533,0.174533,-1.03348,-0.686761,-0.138575,0.142293,-1.64565,-0.454842,-0.898952,0.806
23,45,-1.0472,-0.698132,-0.174533,0.174533,-1.03348,-0.686761,-0.138575,0.142293,-1.64565,-0.454842,-0.898952,0.806
23,45,-1.0472,-0.698132,-0.174533,0.174533,-1.03348,-0.686761,-0.138575,0.142293,-1.64565,-0.454842,-0.898952,0.806
23,45,-1.0472,-0.698132,-0.174533,0.174533,-1.03348,-0.686761,-0.138575,0.142293,-1.64565,-0.454842,-0.898952,0.806
23,45,-1.0472,-0.698132,-0.174533,0.174533,-1.03348,-0.686761,-0.138575,0.142293,-1.64565,-0.454842,-0.898952,0.806
23,45,-1.0472,-0.698132,-0.174533,0.174533,-1.03348,-0.686761,-0.138575,0.142293,-1.64565,-0.454842,-0.898952,0.806
23,45,-1.0472,-0.698132,-0.174533,0.174533,-1.03348,-0.686761,-0.138575,0.142293,-1.64565,-0.454842,-0.898952,0.806
23,45,-1.0472,-0.698132,-0.174533,0.174533,-1.03348,-0.686761,-0.138575,0.142293,-1.64565,-0.454842,-0.898952,0.806
23,45,-1.0472,-0.698132,-0.174533,0.174533,-1.03348,-0.686761,-0.138575,0.142293,-1.64565,-0.454842,-0.898952,0.806
23,45,-1.0472,-0.698132,-0.174533,0.174533,-1.03348,-0.686761,-0.138575,0.142293,-1.64565,-0.454842,-0.898952,0.806
23,45,-1.0472,-0.698132,-0.174533,0.174533,-1.03348,-0.686761,-0.138575,0.142293,-1.64565,-0.454842,-0.898952,0.806
23,45,-1.0472,-0.698132,-0.174533,0.174533,-1.03348,-0.686761,-0.138575,0.142293,-1.64565,-0.454842,-0.898952,0.806
23,45,-1.0472,-0.698132,-0.174533,0.174533,-1.03348,-0.686761,-0.138575,0.142293,-1.64565,-0.454842,-0.898952,0.806
23,45,-1.0472,-0.698132,-0.174533,0.174533,-1.03348,-0.686761,-0.138575,0.142293,-1.64565,-0.454842,-0.898952,0.806
23,45,-1.0472,-0.698132,-0.174533,0.174533,-1.03348,-0.686761,-0.138575,0.142293,-1.64565,-0.454842,-0.898952,0.806
23,45,-1.0472,-0.698132,-0.174533,0.174533,-1.03348,-0.686761,-0.138575,0.142293,-1.64565,-0.454842,-0.898952,0.806
23,45,-1.0472,-0.698132,-0.174533,0.174533,-1.03348,-0.686761,-0.138575,0.142293,-1.64565,-0.454842,-0.898952,0.806
23,45,-1.0472,-0.698132,-0.174533,0.174533,-1.03348,-0.686761,-0.138575,0.142293,-1.64565,-0.454842,-0.898952,0.806
23,45,-1.0472,-0.698132,-0.174533,0.174533,-1.03348,-0.686761,-0.138575,0.142293,-1.64565,-0.454842,-0.898952,0.806
23,45,-1.0472,-0.698132,-0.174533,0.174533,-1.03348,-0.686761,-0.138575,0.142293,-1.64565,-0.454842,-0.898952,0.806
23,45,-1.0472,-0.698132,-0.174533,0.174533,-1.03348,-0.686761,-0.138575,0.142293,-1.64565,-0.454842,-0.898952,0.806
23,45,-1.0472,-0.698132,-0.174533,0.174533,-1.03348,-0.686761,-0.138575,0.142293,-1.64565,-0.454842,-0.898952,0.806
23,45,-1.0472,-0.698132,-0.174533,0.174533,-1.03348,-0.686761,-0.138575,0.142293,-1.64565,-0.454842,-0.898952,0.806
23,45,-1.0472,-0.698132,-0.174533,0.174533,-1.03348,-0.686761,-0.138575,0.142293,-1.64565,-0.454842,-0.898952,0.806
23,45,-1.0472,-0.698132,-0.174533,0.174533,-1.03348,-0.686761,-0.138575,0.142293,-1.64565,-0.454842,-0.898952,0.806
23,45,-1.0472,-0.698132,-0.174533,0.174533,-1.03348,-0.686761,-0.138575,0.142293,-1.64565,-0.454842,-0.898952,0.806
23,45,-1.0472,-0.698132,-0.174533,0.174533,-1.03348,-0.686761,-0.138575,0.142293,-1.64565,-0.454842,-0.898952,0.806
23,45,-1.0472,-0.698132,-0.174533,0.174533,-1.03348,-0.686761,-0.138575,0.142293,-1.64565,-0.454842,-0.898952,0.806
23,45,-1.0472,-0.698132,-0.174533,0.174533,-1.03348,-0.686761,-0.138575,0.142293,-1.64565,-0.454842,-0.898952,0.806
23,45,-1.0472,-0.698132,-0.174533,0.174533,-1.03348,-0.686761,-0.138575,0.142293,-1.64565,-0.454842,-0.898952,0.806
23,45,-1.0472,-0.698132,-0.174533,0.174533,-1.03348,-0.686761,-0.138575,0.142293,-1.64565,-0.454842,-0.898952,0.806
23,45,-1.0472,-0.698132,-0.174533,0.174533,-1.03348,-0.686761,-0.138575,0.142293,-1.64565,-0.454842,-0.898952,0.806
23,45,-1.0472,-0.698132,-0.174533,0.174533,-1.03348,-0.686761,-0.138575,0.142293,-1.64565,-0.454842,-0.898952,0.806
23,45,-1.0472,-0.698132,-0.174533,0.174533,-1.03348,-0.686761,-0.138575,0.142293,-1.64565,-0.454842,-0.898952,0.806
23,45,-1.0472,-0.698132,-0.174533,0.174533,-1.03348,-0.686761,-0.138575,0.142293,-1.64565,-0.454842,-0.898952,0.806
23,45,-1.0472,-0.698132,-0.174533,0.174533,-1.03348,-0.686761,-0.138575,0.142293,-1.64565,-0.454842,-0.898952,0.806
23,45,-1.0472,-0.698132,-0.174533,0.174533,-1.03348,-0.686761,-0.138575,0.142293,-1.64565,-0.454842,-0.898952,0.806
23,45,-1.0472,-0.698132,-0.174533,0.174533,-1.03348,-0.686761,-0.138575,0.142293,-1.64565,-0.454842,-0.898952,0.806
23,45,-1.0472,-0.698132,-0.174533,0.174533,-1.03348,-0.686761,-0.138575,0.142293,-1.64565,-0.454842,-0.898952,0.806
23,45,-1.0472,-0.698132,-0.174533,0.174533,-1.03348,-0.686761,-0.138575,0.142293,-1.64565,-0.454842,-0.898952,0.806
23,45,-1.0472,-0.698132,-0.174533,0.174533,-1.03348,-0.686761,-0.138575,0.142293,-1.64565,-0.454842,-0.898952,0.806
23,45,-1.0472,-0.698132,-0.174533,0.174533,-1.03348,-0.686761,-0.138575,0.142293,-1.64565,-0.454842,-0.898952,0.806
23,45,-1.0472,-0.698132,-0.174533,0.174533,-1.03348,-0.686761,-0.138575,0.142293,-1.64565,-0.454842,-0.898952,0.806
23,45,-1.0472,-0.698132,-0.174533,0.174533,-1.03348,-0.686761,-0.138575,0.142293,-1.64565,-0.454842,-0.898952,0.806
23,45,-1.0472,-0.698132,-0.174533,0.174533,-1.03348,-0.686761,-0.138575,0.142293,-1.64565,-0.454842,-0.898952,0.806
23,45,-1.0472,-0.698132,-0.174533,0.174533,-1.03348,-0.686761,-0.138575,0.142293,-1.64565,-0.454842,-0.898952,0.806
23,45,-1.0472,-0.698132,-0.174533,0.174533,-1.03348,-0.686761,-0.138575,0.142293,-1.64565,-0.454842,-0.898952,0.806
23,45,-1.0472,-0.698132,-0.174533,0.174533,-1.03348,-0.686761,-0.138575,0.142293,-1.64565,-0.454842,-0.898952,0.806
23,45,-1.0472,-0.698132,-0.174533,0.174533,-1.03348,-0.686761,-0.138575,0.142293,-1.64565,-0.454842,-0.898952,0.806
23,45,-1.0472,-0.698132,-0.174533,0.174533,-1.03348,-0.686761,-0.138575,0.142293,-1.64565,-0.454842,-0.898952,0.806
23,45,-1.0472,-0.698132,-0.174533,0.174533,-1.03348,-0.686761,-0.138575,0.142293,-1.64565,-0.454842,-0.898952,0.806
23,45,-1.0472,-0.698132,-0.174533,0.174533,-1.03348,-0.686761,-0.138575,0.142293,-1.64565,-0.454842,-0.898952,0.806
23,45,-1.0472,-0.698132,-0.174533,0.174533,-1.03348,-0.686761,-0.138575,0.142293,-1.64565,-0.454842,-0.898952,0.806
23,45,-1.0472,-0.698132,-0.174533,0.174533,-1.03348,-0.686761,-0.138575,0.142293,-1.64565,-0.454842,-0.898952,0.806
23,45,-1.0472,-0.698132,-0.174533,0.174533,-1.03348,-0.686761,-0.138575,0.142293,-1.64565,-0.454842,-0.898952,0.806
23,45,-1.0472,-0.698132,-0.174533,0.174533,-1.03348,-0.686761,-0.138575,0.142293,-1.64565,-0.454842,-0.898952,0.806
23,45,-1.0472,-0.698132,-0.174533,0.174533,-1.03348,-0.686761,-0.138575,0.142293,-1.64565,-0.454842,-0.898952,0.806
23,45,-1.0472,-0.698132,-0.174533,0.174533,-1.03348,-0.686761,-0.138575,0.142293,-1.64565,-0.454842,-0.898952,0.806
23,45,-1.0472,-0.698132,-0.174533,0.174533,-1.03348,-0.686761,-0.138575,0.142293,-1.64565,-0.454842,-0.898952,0.806
23,45,-1.0472,-0.698132,-0.174533,0.174533,-1.03348,-0.686761,-0.138575,0.142293,-1.64565,-0.454842,-0.898952,0.806
23,45,-1.0472,-0.698132,-0.174533,0.174533,-1.03348,-0.686761,-0.138575,0.142293,-1.64565,-0.454842,-0.898952,0.806
23,45,-1.0472,-0.698132,-0.174533,0.174533,-1.03348,-0.686761,-0.138575,0.142293,-1.64565,-0.454842,-0.898952,0.806
23,45,-1.0472,-0.698132,-0.174533,0.174533,-1.03348,-0.686761,-0.138575,0.142293,-1.64565,-0.454842,-0.898952,0.806
23,45,-1.0472,-0.698132,-0.174533,0.174533,-1.03348,-0.686761,-0.138575,0.142293,-1.64565,-0.454842,-0.898952,0.806
23,45,-1.0472,-0.698132,-0.174533,0.174533,-1.03348,-0.686761,-0.138575,0.142293,-1.64565,-0.454842,-0.898952,0.806
23,45,-1.0472,-0.698132,-0.174533,0.174533,-1.03348,-0.686761,-0.138575,0.142293,-1.64565,-0.454842,-0.898952,0.806
23,45,-1.0472,-0.698132,-0.174533,0.174533,-1.03348,-0.686761,-0.138575,0.142293,-1.64565,-0.454842,-0.898952,0.806
23,45,-1.0472,-0.698132,-0.174533,0.174533,-1.03348,-0.686761,-0.138575,0.142293,-1.64565,-0.454842,-0.898952,0.806
23,45,-1.0472,-0.698132,-0.174533,0.174533,-1.03348,-0.686761,-0.138575,0.142293,-1.64565,-0.454842,-0.898952,0.806
23,45,-1.0472,-0.698132,-0.174533,0.174533,-1.03348,-0.686761,-0.138575,0.142293,-1.64565,-0.454842,-0.898952,0.806
23,45,-1.0472,-0.698132,-0.174533,0.174533,-1.03348,-0.686761,-0.138575,0.142293,-1.64565,-0.454842,-0.898952,0.806
23,45,-1.0472,-0.698132,-0.174533,0.174533,-1.03348,-0.686761,-0.138575,0.142293,-1.64565,-0.454842,-0.898952,0.806
23,45,-1.0472,-0.698132,-0.174533,0.174533,-1.03348,-0.686761,-0.138575,0.142293,-1.64565,-0.454842,-0.898952,0.806
23,45,-1.0472,-0.698132,-0.174533,0.174533,-1.03348,-0.686761,-0.138575,0.142293,-1.64565,-0.454842,-0.898952,0.806
23,45,-1.0472,-0.698132,-0.174533,0.174533,-1.03348,-0.686761,-0.138575,0.142293,-1.64565,-0.454842,-0.898952,0.806
23,45,-1.0472,-0.698132,-0.174533,0.174533,-1.03348,-0.686761,-0.138575,0.142293,-1.64565,-0.454842,-0.898952,0.806
23,45,-1.0472,-0.698132,-0.174533,0.174533,-1.03348,-0.686761,-0.138575,0.142293,-1.64565,-0.454842,-0.898952,0.806
23,45,-1.0472,-0.698132,-0.174533,0.174533,-1.03348,-0.686761,-0.138575,0.142293,-1.64565,-0.454842,-0.898952,0.806
23,45,-1.0472,-0.698132,-0.174533,0.174533,-1.03348,-0.686761,-0.138575,0.142293,-1.64565,-0.454842,-0.898952,0.806
23,45,-1.0472,-0.698132,-0.174533,0.174533,-1.03348,-0.686761,-0.138575,0.142293,-1.64565,-0.454842,-0.898952,0.806
23,45,-1.0472,-0.698132,-0.174533,0.174533,-1.03348,-0.686761,-0.138575,0.142293,-1.64565,-0.454842,-0.898952,0.806
23,45,-1.0472,-0.698132,-0.174533,0.174533,-1.03348,-0.686761,-0.138575,0.142293,-1.64565,-0.454842,-0.898952,0.806
23,45,-1.0472,-0.698132,-0.174533,0.174533,-1.03348,-0.686761,-0.138575,0.142293,-1.64565,-0.454842,-0.898952,0.806
23,45,-1.0472,-0.698132,-0.174533,0.174533,-1.03348,-0.686761,-0.138575,0.142293,-1.64565,-0.454842,-0.898952,0.806
23,45,-1.0472,-0.698132,-0.174533,0.174533,-1.03348,-0.686761,-0.138575,0.142293,-1.64565,-0.454842,-0.898952,0.806
23,45,-1.0472,-0.698132,-0.174533,0.174533,-1.03348,-0.686761,-0.138575,0.142293,-1.64565,-0.454842,-0.898952,0.806
23,45,-1.0472,-0.698132,-0.174533,0.174533,-1.03348,-0.686761,-0.138575,0.142293,-1.64565,-0.454842,-0.898952,0.806
23,45,-1.0472,-0.698132,-0.174533,0.174533,-1.03348,-0.686761,-0.138575,0.142293,-1.64565,-0.454842,-0.898952,0.806
23,45,-1.0472,-0.698132,-0.174533,0.174533,-1.03348,-0.686761,-0.138575,0.142293,-1.64565,-0.454842,-0.898952,0.806
23,45,-1.0472,-0.698132,-0.174533,0.174533,-1.03348,-0.686761,-0.138575,0.142293,-1.64565,-0.454842,-0.898952,0.806
23,45,-1.0472,-0.698132,-0.174533,0.174533,-1.03348,-0.686761,-0.138575,0.142293,-1.64565,-0.454842,-0.898952,0.806
23,45,-1.0472,-0.698132,-0.174533,0.174533,-1.03348,-0.686761,-0.138575,0.142293,-1.64565,-0.454842,-0.898952,0.806
23,45,-1.0472,-0.698132,-0.174533,0.174533,-1.03348,-0.686761,-0.138575,0.142293,-1.64565,-0.454842,-0.898952,0.806
23,45,-1.0472,-0.698132,-0.174533,0.174533,-1.03348,-0.686761,-0.138575,0.142293,-1.64565,-0.454842,-0.898952,0.806
23,45,-1.0472,-0.698132,-0.174533,0.174533,-1.03348,-0.686761,-0.138575,0.142293,-1.64565,-0.454842,-0.898952,0.806
23,45,-1.0472,-0.698132,-0.174533,0.174533,-1.03348,-0.686761,-0.138575,0.142293,-1.64565,-0.454842,-0.898952,0.806
23,45,-1.0472,-0.698132,-0.174533,0.174533,-1.03348,-0.686761,-0.138575,0.142293,-1.64565,-0.454842,-0.898952,0.806
23,45,-1.0472,-0.698132,-0.174533,0.174533,-1.03348,-0.686761,-0.138575,0.142293,-1.64565,-0.454842,-0.898952,0.806
23,45,-1.0472,-0.698132,-0.174533,0.174533,-1.03348,-0.686761,-0.138575,0.142293,-1.64565,-0.454842,-0.898952,0.806
23,45,-1.0472,-0.698132,-0.174533,0.174533,-1.03348,-0.686761,-0.138575,0.142293,-1.64565,-0.454842,-0.898952,0.806
23,45,-1.0472,-0.698132,-0.174533,0.174533,-1.03348,-0.686761,-0.138575,0.142293,-1.64565,-0.454842,-0.898952,0.806
23,45,-1.0472,-0.698132,-0.174533,0.174533,-1.03348,-0.686761,-0.138575,0.142293,-1.64565,-0.454842,-0.898952,0.806
23,45,-1.0472,-0.698132,-0.174533,0.174533,-1.03348,-0.686761,-0.138575,0.142293,-1.64565,-0.454842,-0.898952,0.806
23,45,-1.0472,-0.698132,-0.174533,0.174533,-1.03348,-0.686761,-0.138575,0.142293,-1.64565,-0.454842,-0.898952,0.806
23,45,-1.0472,-0.698132,-0.174533,0.174533,-1.03348,-0.686761,-0.138575,0.142293,-1.64565,-0.454842,-0.898952,0.806
23,45,-1.0472,-0.698132,-0.174533,0.174533,-1.03348,-0.686761,-0.138575,0.142293,-1.64565,-0.454842,-0.898952,0.806
23,45,-1.0472,-0.698132,-0.174533,0.174533,-1.03348,-0.686761,-0.138575,0.142293,-1.64565,-0.454842,-0.898952,0.806
23,45,-1.0472,-0.698132,-0.174533,0.174533,-1.03348,-0.686761,-0.138575,0.142293,-1.64565,-0.454842,-0.898952,0.806
23,45,-1.0472,-0.698132,-0.174533,0.174533,-1.03348,-0.686761,-0.138575,0.142293,-1.64565,-0.454842,-0.898952,0.806
23,45,-1.0472,-0.698132,-0.174533,0.174533,-1.03348,-0.686761,-0.138575,0.142293,-1.64565,-0.454842,-0.898952,0.806
23,45,-1.0472,-0.698132,-0.174533,0.174533,-1.03348,-0.686761,-0.138575,0.142293,-1.64565,-0.454842,-0.898952,0.806
23,45,-1.0472,-0.698132,-0.174533,0.174533,-1.03348,-0.686761,-0.138575,0.142293,-1.64565,-0.454842,-0.898952,0.806
23,45,-1.0472,-0.698132,-0.174533,0.174533,-1.03348,-0.686761,-0.138575,0.142293,-1.64565,-0.454842,-0.898952,0.806
23,45,-1.0472,-0.698132,-0.174533,0.174533,-1.03348,-0.686761,-0.138575,0.142293,-1.64565,-0.454842,-0.898952,0.806
23,45,-1.0472,-0.698132,-0.174533,0.174533,-1.03348,-0.686761,-0.138575,0.142293,-1.64565,-0.454842,-0.898952,0.806
23,45,-1.0472,-0.698132,-0.174533,0.174533,-1.03348,-0.686761,-0.138575,0.142293,-1.64565,-0.454842,-0.898952,0.806
23,45,-1.0472,-0.698132,-0.174533,0.174533,-1.03348,-0.686761,-0.138575,0.142293,-1.64565,-0.454842,-0.898952,0.806
23,45,-1.0472,-0.698132,-0.174533,0.174533,-1.03348,-0.686761,-0.138575,0.142293,-1.64565,-0.454842,-0.898952,0.806
23,45,-1.0472,-0.698132,-0.174533,0.174533,-1.03348,-0.686761,-0.138575,0.142293,-1.64565,-0.454842,-0.898952,0.806
23,45,-1.0472,-0.698132,-0.174533,0.174533,-1.03348,-0.686761,-0.138575,0.142293,-1.64565,-0.454842,-0.898952,0.806
23,45,-1.0472,-0.698132,-0.174533,0.174533,-1.03348,-0.686761,-0.138575,0.142293,-1.64565,-0.454842,-0.898952,0.806
23,45,-1.0472,-0.698132,-0.174533,0.174533,-1.03348,-0.686761,-0.138575,0.142293,-1.64565,-0.454842,-0.898952,0.806
23,45,-1.0472,-0.698132,-0.174533,0.174533,-1.03348,-0.686761,-0.138575,0.142293,-1.64565,-0.454842,-0.898952,0.806
23,45,-1.0472,-0.698132,-0.174533,0.174533,-1.03348,-0.686761,-0.138575,0.142293,-1.64565,-0.454842,-0.898952,0.806
23,45,-1.0472,-0.698132,-0.174533,0.174533,-1.03348,-0.686761,-0.138575,0.142293,-1.64565,-0.454842,-0.898952,0.806
23,45,-1.0472,-0.698132,-0.174533,0.174533,-1.03348,-0.686761,-0.138575,0.142293,-1.64565,-0.454842,-0.898952,0.806
23,45,-1.0472,-0.698132,-0.174533,0.174533,-1.03348,-0.686761,-0.138575,0.142293,-1.64565,-0.454842,-0.898952,0.806
23,45,-1.0472,-0.698132,-0.174533,0.174533,-1.03348,-0.686761,-0.138575,0.142293,-1.64565,-0.454842,-0.898952,0.806
23,45,-1.0472,-0.698132,-0.174533,0.174533,-1.03348,-0.686761,-0.138575,0.142293,-1.64565,-0.454842,-0.898952,0.806
23,45,-1.0472,-0.698132,-0.174533,0.174533,-1.03348,-0.686761,-0.138575,0.142293,-1.64565,-0.454842,-0.898952,0.806
23,45,-1.0472,-0.698132,-0.174533,0.174533,-1.03348,-0.686761,-0.138575,0.142293,-1.64565,-0.454842,-0.898952,0.806
23,45,-1.0472,-0.698132,-0.174533,0.174533,-1.03348,-0.686761,-0.138575,0.142293,-1.64565,-0.454842,-0.898952,0.806
23,45,-1.0472,-0.698132,-0.174533,0.174533,-1.03348,-0.686761,-0.138575,0.142293,-1.64565,-0.454842,-0.898952,0.806
23,45,-1.0472,-0.698132,-0.174533,0.174533,-1.03348,-0.686761,-0.138575,0.142293,-1.64565,-0.454842,-0.898952,0.806
23,45,-1.0472,-0.698132,-0.174533,0.174533,-1.03348,-0.686761,-0.138575,0.142293,-1.64565,-0.454842,-0.898952,0.806
23,45,-1.0472,-0.698132,-0.174533,0.174533,-1.03348,-0.686761,-0.138575,0.142293,-1.64565,-0.454842,-0.898952,0.806
23,45,-1.0472,-0.698132,-0.174533,0.174533,-1.03348,-0.686761,-0.138575,0.142293,-1.64565,-0.454842,-0.898952,0.806
23,45,-1.0472,-0.698132,-0.174533,0.174533,-1.03348,-0.686761,-0.138575,0.142293,-1.64565,-0.454842,-0.898952,0.806
23,45,-1.0472,-0.698132,-0.174533,0.174533,-1.03348,-0.686761,-0.138575,0.142293,-1.64565,-0.454842,-0.898952,0.806
23,45,-1.0472,-0.698132,-0.174533,0.174533,-1.03348,-0.686761,-0.138575,0.142293,-1.64565,-0.454842,-0.898952,0.806
23,45,-1.0472,-0.698132,-0.174533,0.174533,-1.03348,-0.686761,-0.138575,0.142293,-1.64565,-0.454842,-0.898952,0.806
23,45,-1.0472,-0.698132,-0.174533,0.174533,-1.03348,-0.686761,-0.138575,0.142293,-1.64565,-0.454842,-0.898952,0.806
23,45,-1.0472,-0.698132,-0.174533,0.174533,-1.03348,-0.686761,-0.138575,0.142293,-1.64565,-0.454842,-0.898952,0.806
23,45,-1.0472,-0.698132,-0.174533,0.174533,-1.03348,-0.686761,-0.138575,0.142293,-1.64565,-0.454842,-0.898952,0.806
23,45,-1.0472,-0.698132,-0.174533,0.174533,-1.03348,-0.686761,-0.138575,0.142293,-1.64565,-0.454842,-0.898952,0.806
23,45,-1.0472,-0.698132,-0.174533,0.174533,-1.03348,-0.686761,-0.138575,0.142293,-1.64565,-0.454842,-0.898952,0.806
23,45,-1.0472,-0.698132,-0.174533,0.174533,-1.03348,-0.686761,-0.138575,0.142293,-1.64565,-0.454842,-0.898952,0.806
23,45,-1.0472,-0.698132,-0.174533,0.174533,-1.03348,-0.686761,-0.138575,0.142293,-1.64565,-0.454842,-0.898952,0.806
23,45,-1.0472,-0.698132,-0.174533,0.174533,-1.03348,-0.686761,-0.138575,0.142293,-1.64565,-0.454842,-0.898952,0.806
23,45,-1.0472,-0.698132,-0.174533,0.174533,-1.03348,-0.686761,-0.138575,0.142293,-1.64565,-0.454842,-0.898952,0.806
23,45,-1.0472,-0.698132,-0.174533,0.174533,-1.03348,-0.686761,-0.138575,0.142293,-1.64565,-0.454842,-0.898952,0.806
23,45,-1.0472,-0.698132,-0.174533,0.174533,-1.03348,-0.686761,-0.138575,0.142293,-1.64565,-0.454842,-0.898952,0.806
23,45,-1.0472,-0.698132,-0.174533,0.174533,-1.03348,-0.686761,-0.138575,0.142293,-1.64565,-0.454842,-0.898952,0.806
23,45,-1.0472,-0.698132,-0.174533,0.174533,-1.03348,-0.686761,-0.138575,0.142293,-1.64565,-0.454842,-0.898952,0.806
23,45,-1.0472,-0.698132,-0.174533,0.174533,-1.03348,-0.686761,-0.138575,0.142293,-1.64565,-0.454842,-0.898952,0.806
23,45,-1.0472,-0.698132,-0.174533,0.174533,-1.03348,-0.686761,-0.138575,0.142293,-1.64565,-0.454842,-0.898952,0.806
23,45,-1.0472,-0.698132,-0.174533,0.174533,-1.03348,-0.686761,-0.138575,0.142293,-1.64565,-0.454842,-0.898952,0.806
23,45,-1.0472,-0.698132,-0.174533,0.174533,-1.03348,-0.686761,-0.138575,0.142293,-1.64565,-0.454842,-0.898952,0.806
23,45,-1.0472,-0.698132,-0.174533,0.174533,-1.03348,-0.686761,-0.138575,0.142293,-1.64565,-0.454842,-0.898952,0.806
23,45,-1.0472,-0.698132,-0.174533,0.174533,-1.03348,-0.686761,-0.138575,0.142293,-1.64565,-0.454842,-0.898952,0.806
23,45,-1.0472,-0.698132,-0.174533,0.174533,-1.03348,-0.686761,-0.138575,0.142293,-1.64565,-0.454842,-0.898952,0.806
23,45,-1.0472,-0.698132,-0.174533,0.174533,-1.03348,-0.686761,-0.138575,0.142293,-1.64565,-0.454842,-0.898952,0.806
23,45,-1.0472,-0.698132,-0.174533,0.174533,-1.03348,-0.686761,-0.138575,0.142293,-1.64565,-0.454842,-0.898952,0.806
23,45,-1.0472,-0.698132,-0.174533,0.174533,-1.03348,-0.686761,-0.138575,0.142293,-1.64565,-0.454842,-0.898952,0.806
23,45,-1.0472,-0.698132,-0.174533,0.174533,-1.03348,-0.686761,-0.138575,0.142293,-1.64565,-0.454842,-0.898952,0.806
23,45,-1.0472,-0.698132,-0.174533,0.174533,-1.03348,-0.686761,-0.138575,0.142293,-1.64565,-0.454842,-0.898952,0.806
23,45,-1.0472,-0.698132,-0.174533,0.174533,-1.03348,-0.686761,-0.138575,0.142293,-1.64565,-0.454842,-0.898952,0.806
23,45,-1.0472,-0.698132,-0.174533,0.174533,-1.03348,-0.686761,-0.138575,0.142293,-1.64565,-0.454842,-0.898952,0.806
23,45,-1.0472,-0.698132,-0.174533,0.174533,-1.03348,-0.686761,-0.138575,0.142293,-1.64565,-0.454842,-0.898952,0.806
23,45,-1.0472,-0.698132,-0.174533,0.174533,-1.03348,-0.686761,-0.138575,0.142293,-1.64565,-0.454842,-0.898952,0.806
23,45,-1.0472,-0.698132,-0.174533,0.174533,-1.03348,-0.686761,-0.138575,0.142293,-1.64565,-0.454842,-0.898952,0.806
23,45,-1.0472,-0.698132,-0.174533,0.174533,-1.03348,-0.686761,-0.138575,0.142293,-1.64565,-0.454842,-0.898952,0.806
23,45,-1.0472,-0.698132,-0.174533,0.174533,-1.03348,-0.686761,-0.138575,0.142293,-1.64565,-0.454842,-0.898952,0.806
23,45,-1.0472,-0.698132,-0.174533,0.174533,-1.03348,-0.686761,-0.138575,0.142293,-1.64565,-0.454842,-0.898952,0.806
23,45,-1.0472,-0.698132,-0.174533,0.174533,-1.03348,-0.686761,-0.138575,0.142293,-1.64565,-0.454842,-0.898952,0.806
23,45,-1.0472,-0.698132,-0.174533,0.174533,-1.03348,-0.686761,-0.138575,0.142293,-1.64565,-0.454842,-0.898952,0.806
23,45,-1.0472,-0.698132,-0.174533,0.174533,-1.03348,-0.686761,-0.138575,0.142293,-1.64565,-0.454842,-0.898952,0.806
23,45,-1.0472,-0.698132,-0.174533,0.174533,-1.03348,-0.686761,-0.138575,0.142293,-1.64565,-0.454842,-0.898952,0.806
23,45,-1.0472,-0.698132,-0.174533,0.174533,-1.03348,-0.686761,-0.138575,0.142293,-1.64565,-0.454842,-0.898952,0.806
23,45,-1.0472,-0.698132,-0.174533,0.174533,-1.03348,-0.686761,-0.138575,0.142293,-1.64565,-0.454842,-0.898952,0.806
23,45,-1.0472,-0.698132,-0.174533,0.174533,-1.03348,-0.686761,-0.138579,0.142363,-1.64565,-0.454842,-0.898858,0.804238
23,45,-1.0472,-0.698132,-0.174533,0.174533,-1.03348,-0.686761,-0.138579,0.142363,-1.64565,-0.454842,-0.898858,0.804238
23,45,-1.0472,-0.698132,-0.174533,0.174533,-1.03348,-0.686761,-0.138579,0.142363,-1.64565,-0.454842,-0.898858,0.804238
23,45,-1.0472,-0.698132,-0.174533,0.174533,-1.03348,-0.686761,-0.138579,0.142363,-1.64565,-0.454842,-0.898858,0.804238
23,45,-1.0472,-0.698132,-0.174533,0.174533,-1.03348,-0.686761,-0.138579,0.142363,-1.64565,-0.454842,-0.898858,0.804238
23,45,-1.0472,-0.698132,-0.174533,0.174533,-1.03348,-0.686761,-0.138579,0.142363,-1.64565,-0.454842,-0.898858,0.804238
23,45,-1.0472,-0.698132,-0.174533,0.174533,-1.03348,-0.686761,-0.138579,0.142363,-1.64565,-0.454842,-0.898858,0.804238
23,45,-1.0472,-0.698132,-0.174533,0.174533,-1.03348,-0.686761,-0.138579,0.142363,-1.64565,-0.454842,-0.898858,0.804238
23,45,-1.0472,-0.698132,-0.174533,0.174533,-1.03348,-0.686761,-0.138579,0.142363,-1.64565,-0.454842,-0.898858,0.804238
23,45,-1.0472,-0.698132,-0.174533,0.174533,-1.03348,-0.686761,-0.138579,0.142363,-1.64565,-0.454842,-0.898858,0.804238
23,45,-1.0472,-0.698132,-0.174533,0.174533,-1.03348,-0.686761,-0.138579,0.142363,-1.64565,-0.454842,-0.898858,0.804238
23,45,-1.0472,-0.698132,-0.174533,0.174533,-1.03348,-0.686761,-0.138579,0.142363,-1.64565,-0.454842,-0.898858,0.804238
23,45,-1.0472,-0.698132,-0.174533,0.174533,-1.03348,-0.686761,-0.138579,0.142363,-1.64565,-0.454842,-0.898858,0.804238
23,45,-1.0472,-0.698132,-0.174533,0.174533,-1.03348,-0.686761,-0.138579,0.142363,-1.64565,-0.454842,-0.898858,0.804238
23,45,-1.0472,-0.698132,-0.174533,0.174533,-1.03348,-0.686761,-0.138579,0.142363,-1.64565,-0.454842,-0.898858,0.804238
23,45,-1.0472,-0.698132,-0.174533,0.174533,-1.03348,-0.686761,-0.138579,0.142363,-1.64565,-0.454842,-0.898858,0.804238
23,45,-1.0472,-0.698132,-0.174533,0.174533,-1.03348,-0.686761,-0.138579,0.142363,-1.64565,-0.454842,-0.898858,0.804238
23,45,-1.0472,-0.698132,-0.174533,0.174533,-1.03348,-0.686761,-0.138579,0.142363,-1.64565,-0.454842,-0.898858,0.804238
23,45,-1.0472,-0.698132,-0.174533,0.174533,-1.03348,-0.686761,-0.138579,0.142363,-1.64565,-0.454842,-0.898858,0.804238
23,45,-1.0472,-0.698132,-0.174533,0.174533,-1.03348,-0.686761,-0.138579,0.142363,-1.64565,-0.454842,-0.898858,0.804238
23,45,-1.0472,-0.698132,-0.174533,0.174533,-1.03348,-0.686761,-0.138579,0.142363,-1.64565,-0.454842,-0.898858,0.804238
23,45,-1.0472,-0.698132,-0.174533,0.174533,-1.03348,-0.686761,-0.138579,0.142363,-1.64565,-0.454842,-0.898858,0.804238
23,45,-1.0472,-0.698132,-0.174533,0.174533,-1.03348,-0.686761,-0.138579,0.142363,-1.64565,-0.454842,-0.898858,0.804238
23,45,-1.0472,-0.698132,-0.174533,0.174533,-1.03348,-0.686761,-0.138579,0.142363,-1.64565,-0.454842,-0.898858,0.804238
23,45,-1.0472,-0.698132,-0.174533,0.174533,-1.03348,-0.686761,-0.138579,0.142363,-1.64565,-0.454842,-0.898858,0.804238
23,45,-1.0472,-0.698132,-0.174533,0.174533,-1.03348,-0.686761,-0.138579,0.142363,-1.64565,-0.454842,-0.898858,0.804238
23,45,-1.0472,-0.698132,-0.174533,0.174533,-1.03348,-0.686761,-0.138579,0.142363,-1.64565,-0.454842,-0.898858,0.804238
23,45,-1.0472,-0.698132,-0.174533,0.174533,-1.03348,-0.686761,-0.138579,0.142363,-1.64565,-0.454842,-0.898858,0.804238
23,45,-1.0472,-0.698132,-0.174533,0.174533,-1.03348,-0.686761,-0.138579,0.142363,-1.64565,-0.454842,-0.898858,0.804238
23,45,-1.0472,-0.698132,-0.174533,0.174533,-1.03348,-0.686761,-0.138579,0.142363,-1.64565,-0.454842,-0.898858,0.804238
23,45,-1.0472,-0.698132,-0.174533,0.174533,-1.03348,-0.686761,-0.138579,0.142363,-1.64565,-0.454842,-0.898858,0.804238
23,45,-1.0472,-0.698132,-0.174533,0.174533,-1.03348,-0.686761,-0.138579,0.142363,-1.64565,-0.454842,-0.898858,0.804238
23,45,-1.0472,-0.698132,-0.174533,0.174533,-1.03348,-0.686761,-0.138579,0.142363,-1.64565,-0.454842,-0.898858,0.804238
23,45,-1.0472,-0.698132,-0.174533,0.174533,-1.03348,-0.686761,-0.138579,0.142363,-1.64565,-0.454842,-0.898858,0.804238
23,45,-1.0472,-0.698132,-0.174533,0.174533,-1.03348,-0.686761,-0.138579,0.142363,-1.64565,-0.454842,-0.898858,0.804238
23,45,-1.0472,-0.698132,-0.174533,0.174533,-1.03348,-0.686761,-0.138579,0.142363,-1.64565,-0.454842,-0.898858,0.804238
23,45,-1.0472,-0.698132,-0.174533,0.174533,-1.03348,-0.686761,-0.138579,0.142363,-1.64565,-0.454842,-0.898858,0.804238
23,45,-1.0472,-0.698132,-0.174533,0.174533,-1.03348,-0.686761,-0.138579,0.142363,-1.64565,-0.454842,-0.898858,0.804238
23,45,-1.0472,-0.698132,-0.174533,0.174533,-1.03348,-0.686761,-0.138579,0.142363,-1.64565,-0.454842,-0.898858,0.804238
23,45,-1.0472,-0.698132,-0.174533,0.174533,-1.03348,-0.686761,-0.138579,0.142363,-1.64565,-0.454842,-0.898858,0.804238
23,45,-1.0472,-0.698132,-0.174533,0.174533,-1.03348,-0.686761,-0.138579,0.142363,-1.64565,-0.454842,-0.898858,0.804238
23,45,-1.0472,-0.698132,-0.174533,0.174533,-1.03348,-0.686761,-0.138579,0.142363,-1.64565,-0.454842,-0.898858,0.804238
23,45,-1.0472,-0.698132,-0.174533,0.174533,-1.03348,-0.686761,-0.138579,0.142363,-1.64565,-0.454842,-0.898858,0.804238
23,45,-1.0472,-0.698132,-0.174533,0.174533,-1.03348,-0.686761,-0.138579,0.142363,-1.64565,-0.454842,-0.898858,0.804238
23,45,-1.0472,-0.698132,-0.174533,0.174533,-1.03348,-0.686761,-0.138579,0.142363,-1.64565,-0.454842,-0.898858,0.804238
23,45,-1.0472,-0.698132,-0.174533,0.174533,-1.03348,-0.686761,-0.138579,0.142363,-1.64565,-0.454842,-0.898858,0.804238
23,45,-1.0472,-0.698132,-0.174533,0.174533,-1.03348,-0.686761,-0.138579,0.142363,-1.64565,-0.454842,-0.898858,0.804238
23,45,-1.0472,-0.698132,-0.174533,0.174533,-1.03348,-0.686761,-0.138579,0.142363,-1.64565,-0.454842,-0.898858,0.804238
23,45,-1.0472,-0.698132,-0.174533,0.174533,-1.03348,-0.686761,-0.138579,0.142363,-1.64565,-0.454842,-0.898858,0.804238
23,45,-1.0472,-0.698132,-0.174533,0.174533,-1.03348,-0.686761,-0.138579,0.142363,-1.64565,-0.454842,-0.898858,0.804238
23,45,-1.0472,-0.698132,-0.174533,0.174533,-1.03348,-0.686761,-0.138579,0.142363,-1.64565,-0.454842,-0.898858,0.804238
23,45,-1.0472,-0.698132,-0.174533,0.174533,-1.03348,-0.686761,-0.138579,0.142363,-1.64565,-0.454842,-0.898858,0.804238
23,45,-1.0472,-0.698132,-0.174533,0.174533,-1.03348,-0.686761,-0.138579,0.142363,-1.64565,-0.454842,-0.898858,0.804238
23,45,-1.0472,-0.698132,-0.174533,0.174533,-1.03348,-0.686761,-0.138579,0.142363,-1.64565,-0.454842,-0.898858,0.804238
23,45,-1.0472,-0.698132,-0.174533,0.174533,-1.03348,-0.686761,-0.138579,0.142363,-1.64565,-0.454842,-0.898858,0.804238
23,45,-1.0472,-0.698132,-0.174533,0.174533,-1.03348,-0.686761,-0.138579,0.142363,-1.64565,-0.454842,-0.898858,0.804238
23,45,-1.0472,-0.698132,-0.174533,0.174533,-1.03348,-0.686761,-0.138579,0.142363,-1.64565,-0.454842,-0.898858,0.804238
23,45,-1.0472,-0.698132,-0.174533,0.174533,-1.03348,-0.686761,-0.138579,0.142363,-1.64565,-0.454842,-0.898858,0.804238
23,45,-1.0472,-0.698132,-0.174533,0.174533,-1.03348,-0.686761,-0.138579,0.142363,-1.64565,-0.454842,-0.898858,0.804238
23,45,-1.0472,-0.698132,-0.174533,0.174533,-1.03348,-0.686761,-0.138579,0.142363,-1.64565,-0.454842,-0.898858,0.804238
23,45,-1.0472,-0.698132,-0.174533,0.174533,-1.03348,-0.686761,-0.138579,0.142363,-1.64565,-0.454842,-0.898858,0.804238
23,45,-1.0472,-0.698132,-0.174533,0.174533,-1.03348,-0.686761,-0.138579,0.142363,-1.64565,-0.454842,-0.898858,0.804238
23,45,-1.0472,-0.698132,-0.174533,0.174533,-1.03348,-0.686761,-0.138579,0.142363,-1.64565,-0.454842,-0.898858,0.804238
23,45,-1.0472,-0.698132,-0.174533,0.174533,-1.03348,-0.686761,-0.138579,0.142363,-1.64565,-0.454842,-0.898858,0.804238
23,45,-1.0472,-0.698132,-0.174533,0.174533,-1.03348,-0.686761,-0.138579,0.142363,-1.64565,-0.454842,-0.898858,0.804238
23,45,-1.0472,-0.698132,-0.174533,0.174533,-1.03348,-0.686761,-0.138579,0.142363,-1.64565,-0.454842,-0.898858,0.804238
23,45,-1.0472,-0.698132,-0.174533,0.174533,-1.03348,-0.686761,-0.138579,0.142363,-1.64565,-0.454842,-0.898858,0.804238
23,45,-1.0472,-0.698132,-0.174533,0.174533,-1.03348,-0.686761,-0.138579,0.142363,-1.64565,-0.454842,-0.898858,0.804238
23,45,-1.0472,-0.698132,-0.174533,0.174533,-1.03348,-0.686761,-0.138579,0.142363,-1.64565,-0.454842,-0.898858,0.804238
23,45,-1.0472,-0.698132,-0.174533,0.174533,-1.03348,-0.686761,-0.138579,0.142363,-1.64565,-0.454842,-0.898858,0.804238
23,45,-1.0472,-0.698132,-0.174533,0.174533,-1.03348,-0.686761,-0.138579,0.142363,-1.64565,-0.454842,-0.898858,0.804238
23,45,-1.0472,-0.698132,-0.174533,0.174533,-1.03348,-0.686761,-0.138579,0.142363,-1.64565,-0.454842,-0.898858,0.804238
23,45,-1.0472,-0.698132,-0.174533,0.174533,-1.03348,-0.686761,-0.138579,0.142363,-1.64565,-0.454842,-0.898858,0.804238
23,45,-1.0472,-0.698132,-0.174533,0.174533,-1.03348,-0.686761,-0.138579,0.142363,-1.64565,-0.454842,-0.898858,0.804238
23,45,-1.0472,-0.698132,-0.174533,0.174533,-1.03348,-0.686761,-0.138579,0.142363,-1.64565,-0.454842,-0.898858,0.804238
23,45,-1.0472,-0.698132,-0.174533,0.174533,-1.03348,-0.686761,-0.138579,0.142363,-1.64565,-0.454842,-0.898858,0.804238
23,45,-1.0472,-0.698132,-0.174533,0.174533,-1.03348,-0.686761,-0.138579,0.142363,-1.64565,-0.454842,-0.898858,0.804238
23,45,-1.0472,-0.698132,-0.174533,0.174533,-1.03348,-0.686761,-0.138579,0.142363,-1.64565,-0.454842,-0.898858,0.804238
23,45,-1.0472,-0.698132,-0.174533,0.174533,-1.03348,-0.686761,-0.138579,0.142363,-1.64565,-0.454842,-0.898858,0.804238
23,45,-1.0472,-0.698132,-0.174533,0.174533,-1.03348,-0.686761,-0.138579,0.142363,-1.64565,-0.454842,-0.898858,0.804238
23,45,-1.0472,-0.698132,-0.174533,0.174533,-1.03348,-0.686761,-0.138579,0.142363,-1.64565,-0.454842,-0.898858,0.804238
23,45,-1.0472,-0.698132,-0.174533,0.174533,-1.03348,-0.686761,-0.138579,0.142363,-1.64565,-0.454842,-0.898858,0.804238
23,45,-1.0472,-0.698132,-0.174533,0.174533,-1.03348,-0.686761,-0.138579,0.142363,-1.64565,-0.454842,-0.898858,0.804238
23,45,-1.0472,-0.698132,-0.174533,0.174533,-1.03348,-0.686761,-0.138579,0.142363,-1.64565,-0.454842,-0.898858,0.804238
23,45,-1.0472,-0.698132,-0.174533,0.174533,-1.03348,-0.686761,-0.138579,0.142363,-1.64565,-0.454842,-0.898858,0.804238
23,45,-1.0472,-0.698132,-0.174533,0.174533,-1.03348,-0.686761,-0.138579,0.142363,-1.64565,-0.454842,-0.898858,0.804238
23,45,-1.0472,-0.698132,-0.174533,0.174533,-1.03348,-0.686761,-0.138579,0.142363,-1.64565,-0.454842,-0.898858,0.804238
23,45,-1.0472,-0.698132,-0.174533,0.174533,-1.03348,-0.686761,-0.138579,0.142363,-1.64565,-0.454842,-0.898858,0.804238
23,45,-1.0472,-0.698132,-0.174533,0.174533,-1.03348,-0.686761,-0.138579,0.142363,-1.64565,-0.454842,-0.898858,0.804238
23,45,-1.0472,-0.698132,-0.174533,0.174533,-1.03348,-0.686761,-0.138579,0.142363,-1.64565,-0.454842,-0.898858,0.804238
23,45,-1.0472,-0.698132,-0.174533,0.174533,-1.03348,-0.686761,-0.138579,0.142363,-1.64565,-0.454842,-0.898858,0.804238
23,45,-1.0472,-0.698132,-0.174533,0.174533,-1.03348,-0.686761,-0.138579,0.142363,-1.64565,-0.454842,-0.898858,0.804238
23,45,-1.0472,-0.698132,-0.174533,0.174533,-1.03348,-0.686761,-0.138579,0.142363,-1.64565,-0.454842,-0.898858,0.804238
23,45,-1.0472,-0.698132,-0.174533,0.174533,-1.03348,-0.686761,-0.138579,0.142363,-1.64565,-0.454842,-0.898858,0.804238
23,45,-1.0472,-0.698132,-0.174533,0.174533,-1.03348,-0.686761,-0.138579,0.142363,-1.64565,-0.454842,-0.898858,0.804238
23,45,-1.0472,-0.698132,-0.174533,0.174533,-1.03348,-0.686761,-0.138579,0.142363,-1.64565,-0.454842,-0.898858,0.804238
23,45,-1.0472,-0.698132,-0.174533,0.174533,-1.03348,-0.686761,-0.138579,0.142363,-1.64565,-0.454842,-0.898858,0.804238
23,45,-1.0472,-0.698132,-0.174533,0.174533,-1.03348,-0.686761,-0.138579,0.142363,-1.64565,-0.454842,-0.898858,0.804238
23,45,-1.0472,-0.698132,-0.174533,0.174533,-1.03348,-0.686761,-0.138579,0.142363,-1.64565,-0.454842,-0.898858,0.804238
23,45,-1.0472,-0.698132,-0.174533,0.174533,-1.03348,-0.686761,-0.138579,0.142363,-1.64565,-0.454842,-0.898858,0.804238
23,45,-1.0472,-0.698132,-0.174533,0.174533,-1.03348,-0.686761,-0.138579,0.142363,-1.64565,-0.454842,-0.898858,0.804238
23,45,-1.0472,-0.698132,-0.174533,0.174533,-1.03348,-0.686761,-0.138579,0.142363,-1.64565,-0.454842,-0.898858,0.804238
23,45,-1.0472,-0.698132,-0.174533,0.174533,-1.03348,-0.686761,-0.138579,0.142363,-1.64565,-0.454842,-0.898858,0.804238
23,45,-1.0472,-0.698132,-0.174533,0.174533,-1.03348,-0.686761,-0.138579,0.142363,-1.64565,-0.454842,-0.898858,0.804238
23,45,-1.0472,-0.698132,-0.174533,0.174533,-1.03348,-0.686761,-0.138579,0.142363,-1.64565,-0.454842,-0.898858,0.804238
23,45,-1.0472,-0.698132,-0.174533,0.174533,-1.03348,-0.686761,-0.138579,0.142363,-1.64565,-0.454842,-0.898858,0.804238
23,45,-1.0472,-0.698132,-0.174533,0.174533,-1.03348,-0.686761,-0.138579,0.142363,-1.64565,-0.454842,-0.898858,0.804238
23,45,-1.0472,-0.698132,-0.174533,0.174533,-1.03348,-0.686761,-0.138579,0.142363,-1.64565,-0.454842,-0.898858,0.804238
23,45,-1.0472,-0.698132,-0.174533,0.174533,-1.03348,-0.686761,-0.138579,0.142363,-1.64565,-0.454842,-0.898858,0.804238
23,45,-1.0472,-0.698132,-0.174533,0.174533,-1.03348,-0.686761,-0.138579,0.142363,-1.64565,-0.454842,-0.898858,0.804238
23,45,-1.0472,-0.698132,-0.174533,0.174533,-1.03348,-0.686761,-0.138579,0.142363,-1.64565,-0.454842,-0.898858,0.804238
23,45,-1.0472,-0.698132,-0.174533,0.174533,-1.03348,-0.686761,-0.138579,0.142363,-1.64565,-0.454842,-0.898858,0.804238
23,45,-1.0472,-0.698132,-0.174533,0.174533,-1.03348,-0.686761,-0.138579,0.142363,-1.64565,-0.454842,-0.898858,0.804238
23,45,-1.0472,-0.698132,-0.174533,0.174533,-1.03348,-0.686761,-0.138579,0.142363,-1.64565,-0.454842,-0.898858,0.804238
23,45,-1.0472,-0.698132,-0.174533,0.174533,-1.03348,-0.686761,-0.138579,0.142363,-1.64565,-0.454842,-0.898858,0.804238
23,45,-1.0472,-0.698132,-0.174533,0.174533,-1.03348,-0.686761,-0.138579,0.142363,-1.64565,-0.454842,-0.898858,0.804238
23,45,-1.0472,-0.698132,-0.174533,0.174533,-1.03348,-0.686761,-0.138579,0.142363,-1.64565,-0.454842,-0.898858,0.804238
23,45,-1.0472,-0.698132,-0.174533,0.174533,-1.03348,-0.686761,-0.138579,0.142363,-1.64565,-0.454842,-0.898858,0.804238
23,45,-1.0472,-0.698132,-0.174533,0.174533,-1.03348,-0.686761,-0.138579,0.142363,-1.64565,-0.454842,-0.898858,0.804238
23,45,-1.0472,-0.698132,-0.174533,0.174533,-1.03348,-0.686761,-0.138579,0.142363,-1.64565,-0.454842,-0.898858,0.804238
23,45,-1.0472,-0.698132,-0.174533,0.174533,-1.03348,-0.686761,-0.138579,0.142363,-1.64565,-0.454842,-0.898858,0.804238
23,45,-1.0472,-0.698132,-0.174533,0.174533,-1.03348,-0.686761,-0.138579,0.142363,-1.64565,-0.454842,-0.898858,0.804238
23,45,-1.0472,-0.698132,-0.174533,0.174533,-1.03348,-0.686761,-0.138579,0.142363,-1.64565,-0.454842,-0.898858,0.804238
23,45,-1.0472,-0.698132,-0.174533,0.174533,-1.03348,-0.686761,-0.138579,0.142363,-1.64565,-0.454842,-0.898858,0.804238
23,45,-1.0472,-0.698132,-0.174533,0.174533,-1.03348,-0.686761,-0.138579,0.142363,-1.64565,-0.454842,-0.898858,0.804238
23,45,-1.0472,-0.698132,-0.174533,0.174533,-1.03348,-0.686761,-0.138579,0.142363,-1.64565,-0.454842,-0.898858,0.804238
23,45,-1.0472,-0.698132,-0.174533,0.174533,-1.03348,-0.686761,-0.138579,0.142363,-1.64565,-0.454842,-0.898858,0.804238
23,45,-1.0472,-0.698132,-0.174533,0.174533,-1.03348,-0.686761,-0.138579,0.142363,-1.64565,-0.454842,-0.898858,0.804238
23,45,-1.0472,-0.698132,-0.174533,0.174533,-1.03348,-0.686761,-0.138579,0.142363,-1.64565,-0.454842,-0.898858,0.804238
23,45,-1.0472,-0.698132,-0.174533,0.174533,-1.03348,-0.686761,-0.138579,0.142363,-1.64565,-0.454842,-0.898858,0.804238
23,45,-1.0472,-0.698132,-0.174533,0.174533,-1.03348,-0.686761,-0.138579,0.142363,-1.64565,-0.454842,-0.898858,0.804238
23,45,-1.0472,-0.698132,-0.174533,0.174533,-1.03348,-0.686761,-0.138579,0.142363,-1.64565,-0.454842,-0.898858,0.804238
23,45,-1.0472,-0.698132,-0.174533,0.174533,-1.03348,-0.686761,-0.138579,0.142363,-1.64565,-0.454842,-0.898858,0.804238
23,45,-1.0472,-0.698132,-0.174533,0.174533,-1.03348,-0.686761,-0.138579,0.142363,-1.64565,-0.454842,-0.898858,0.804238
23,45,-1.0472,-0.698132,-0.174533,0.174533,-1.03348,-0.686761,-0.138579,0.142363,-1.64565,-0.454842,-0.898858,0.804238
23,45,-1.0472,-0.698132,-0.174533,0.174533,-1.03348,-0.686761,-0.138579,0.142363,-1.64565,-0.454842,-0.898858,0.804238
23,45,-1.0472,-0.698132,-0.174533,0.174533,-1.03348,-0.686761,-0.138579,0.142363,-1.64565,-0.454842,-0.898858,0.804238
23,45,-1.0472,-0.698132,-0.174533,0.174533,-1.03348,-0.686761,-0.138579,0.142363,-1.64565,-0.454842,-0.898858,0.804238
23,45,-1.0472,-0.698132,-0.174533,0.174533,-1.03348,-0.686761,-0.138579,0.142363,-1.64565,-0.454842,-0.898858,0.804238
23,45,-1.0472,-0.698132,-0.174533,0.174533,-1.03348,-0.686761,-0.138579,0.142363,-1.64565,-0.454842,-0.898858,0.804238
23,45,-1.0472,-0.698132,-0.174533,0.174533,-1.03348,-0.686761,-0.138579,0.142363,-1.64565,-0.454842,-0.898858,0.804238
23,45,-1.0472,-0.698132,-0.174533,0.174533,-1.03348,-0.686761,-0.138579,0.142363,-1.64565,-0.454842,-0.898858,0.804238
23,45,-1.0472,-0.698132,-0.174533,0.174533,-1.03348,-0.686761,-0.138579,0.142363,-1.64565,-0.454842,-0.898858,0.804238
23,45,-1.0472,-0.698132,-0.174533,0.174533,-1.03348,-0.686761,-0.138579,0.142363,-1.64565,-0.454842,-0.898858,0.804238
23,45,-1.0472,-0.698132,-0.174533,0.174533,-1.03348,-0.686761,-0.138579,0.142363,-1.64565,-0.454842,-0.898858,0.804238
23,45,-1.0472,-0.698132,-0.174533,0.174533,-1.03348,-0.686761,-0.138579,0.142363,-1.64565,-0.454842,-0.898858,0.804238
23,45,-1.0472,-0.698132,-0.174533,0.174533,-1.03348,-0.686761,-0.138579,0.142363,-1.64565,-0.454842,-0.898858,0.804238
23,45,-1.0472,-0.698132,-0.174533,0.174533,-1.03348,-0.686761,-0.138579,0.142363,-1.64565,-0.454842,-0.898858,0.804238
23,45,-1.0472,-0.698132,-0.174533,0.174533,-1.03348,-0.686761,-0.138579,0.142363,-1.64565,-0.454842,-0.898858,0.804238
23,45,-1.0472,-0.698132,-0.174533,0.174533,-1.03348,-0.686761,-0.138579,0.142363,-1.64565,-0.454842,-0.898858,0.804238
23,45,-1.0472,-0.698132,-0.174533,0.174533,-1.03348,-0.686761,-0.138579,0.142363,-1.64565,-0.454842,-0.898858,0.804238
23,45,-1.0472,-0.698132,-0.174533,0.174533,-1.03348,-0.686761,-0.138579,0.142363,-1.64565,-0.454842,-0.898858,0.804238
23,45,-1.0472,-0.698132,-0.174533,0.174533,-1.03348,-0.686761,-0.138579,0.142363,-1.64565,-0.454842,-0.898858,0.804238
23,45,-1.0472,-0.698132,-0.174533,0.174533,-1.03348,-0.686761,-0.138579,0.142363,-1.64565,-0.454842,-0.898858,0.804238
23,45,-1.0472,-0.698132,-0.174533,0.174533,-1.03348,-0.686761,-0.138579,0.142363,-1.64565,-0.454842,-0.898858,0.804238
23,45,-1.0472,-0.698132,-0.174533,0.174533,-1.03348,-0.686761,-0.138579,0.142363,-1.64565,-0.454842,-0.898858,0.804238
23,45,-1.0472,-0.698132,-0.174533,0.174533,-1.03348,-0.686761,-0.138579,0.142363,-1.64565,-0.454842,-0.898858,0.804238
23,45,-1.0472,-0.698132,-0.174533,0.174533,-1.03348,-0.686761,-0.138579,0.142363,-1.64565,-0.454842,-0.898858,0.804238
23,45,-1.0472,-0.698132,-0.174533,0.174533,-1.03348,-0.686761,-0.138579,0.142363,-1.64565,-0.454842,-0.898858,0.804238
23,45,-1.0472,-0.698132,-0.174533,0.174533,-1.03348,-0.686761,-0.138579,0.142363,-1.64565,-0.454842,-0.898858,0.804238
23,45,-1.0472,-0.698132,-0.174533,0.174533,-1.03348,-0.686761,-0.138579,0.142363,-1.64565,-0.454842,-0.898858,0.804238
23,45,-1.0472,-0.698132,-0.174533,0.174533,-1.03348,-0.686761,-0.138579,0.142363,-1.64565,-0.454842,-0.898858,0.804238
23,45,-1.0472,-0.698132,-0.174533,0.174533,-1.03348,-0.686761,-0.138579,0.142363,-1.64565,-0.454842,-0.898858,0.804238
23,45,-1.0472,-0.698132,-0.174533,0.174533,-1.03348,-0.686761,-0.138579,0.142363,-1.64565,-0.454842,-0.898858,0.804238
23,45,-1.0472,-0.698132,-0.174533,0.174533,-1.03348,-0.686761,-0.138579,0.142363,-1.64565,-0.454842,-0.898858,0.804238
23,45,-1.0472,-0.698132,-0.174533,0.174533,-1.03348,-0.686761,-0.138579,0.142363,-1.64565,-0.454842,-0.898858,0.804238
23,45,-1.0472,-0.698132,-0.174533,0.174533,-1.03348,-0.686761,-0.138579,0.142363,-1.64565,-0.454842,-0.898858,0.804238
23,45,-1.0472,-0.698132,-0.174533,0.174533,-1.03348,-0.686761,-0.138579,0.142363,-1.64565,-0.454842,-0.898858,0.804238
23,45,-1.0472,-0.698132,-0.174533,0.174533,-1.03348,-0.686761,-0.138579,0.142363,-1.64565,-0.454842,-0.898858,0.804238
23,45,-1.0472,-0.698132,-0.174533,0.174533,-1.03348,-0.686761,-0.138579,0.142363,-1.64565,-0.454842,-0.898858,0.804238
23,45,-1.0472,-0.698132,-0.174533,0.174533,-1.03348,-0.686761,-0.138579,0.142363,-1.64565,-0.454842,-0.898858,0.804238
23,45,-1.0472,-0.698132,-0.174533,0.174533,-1.03348,-0.686761,-0.138579,0.142363,-1.64565,-0.454842,-0.898858,0.804238
23,45,-1.0472,-0.698132,-0.174533,0.174533,-1.03348,-0.686761,-0.138579,0.142363,-1.64565,-0.454842,-0.898858,0.804238
23,45,-1.0472,-0.698132,-0.174533,0.174533,-1.03348,-0.686761,-0.138579,0.142363,-1.64565,-0.454842,-0.898858,0.804238
23,45,-1.0472,-0.698132,-0.174533,0.174533,-1.03348,-0.686761,-0.138579,0.142363,-1.64565,-0.454842,-0.898858,0.804238
23,45,-1.0472,-0.698132,-0.174533,0.174533,-1.03348,-0.686761,-0.138579,0.142363,-1.64565,-0.454842,-0.898858,0.804238
23,45,-1.0472,-0.698132,-0.174533,0.174533,-1.03348,-0.686761,-0.138579,0.142363,-1.64565,-0.454842,-0.898858,0.804238
23,45,-1.0472,-0.698132,-0.174533,0.174533,-1.03348,-0.686761,-0.138579,0.142363,-1.64565,-0.454842,-0.898858,0.804238
23,45,-1.0472,-0.698132,-0.174533,0.174533,-1.03348,-0.686761,-0.138579,0.142363,-1.64565,-0.454842,-0.898858,0.804238
23,45,-1.0472,-0.698132,-0.174533,0.174533,-1.03348,-0.686761,-0.138579,0.142363,-1.64565,-0.454842,-0.898858,0.804238
23,45,-1.0472,-0.698132,-0.174533,0.174533,-1.03348,-0.686761,-0.138579,0.142363,-1.64565,-0.454842,-0.898858,0.804238
23,45,-1.0472,-0.698132,-0.174533,0.174533,-1.03348,-0.686761,-0.138579,0.142363,-1.64565,-0.454842,-0.898858,0.804238
23,45,-1.0472,-0.698132,-0.174533,0.174533,-1.03348,-0.686761,-0.138579,0.142363,-1.64565,-0.454842,-0.898858,0.804238
23,45,-1.0472,-0.698132,-0.174533,0.174533,-1.03348,-0.686761,-0.138579,0.142363,-1.64565,-0.454842,-0.898858,0.804238
23,45,-1.0472,-0.698132,-0.174533,0.174533,-1.03348,-0.686761,-0.138579,0.142363,-1.64565,-0.454842,-0.898858,0.804238
23,45,-1.0472,-0.698132,-0.174533,0.174533,-1.03348,-0.686761,-0.138579,0.142363,-1.64565,-0.454842,-0.898858,0.804238
23,45,-1.0472,-0.698132,-0.174533,0.174533,-1.03348,-0.686761,-0.138579,0.142363,-1.64565,-0.454842,-0.898858,0.804238
23,45,-1.0472,-0.698132,-0.174533,0.174533,-1.03348,-0.686761,-0.138579,0.142363,-1.64565,-0.454842,-0.898858,0.804238
23,45,-1.0472,-0.698132,-0.174533,0.174533,-1.03348,-0.686761,-0.138579,0.142363,-1.64565,-0.454842,-0.898858,0.804238
23,45,-1.0472,-0.698132,-0.174533,0.174533,-1.03348,-0.686761,-0.138579,0.142363,-1.64565,-0.454842,-0.898858,0.804238
23,45,-1.0472,-0.698132,-0.174533,0.174533,-1.03348,-0.686761,-0.138579,0.142363,-1.64565,-0.454842,-0.898858,0.804238
23,45,-1.0472,-0.698132,-0.174533,0.174533,-1.03348,-0.686761,-0.138579,0.142363,-1.64565,-0.454842,-0.898858,0.804238
23,45,-1.0472,-0.698132,-0.174533,0.174533,-1.03348,-0.686761,-0.138579,0.142363,-1.64565,-0.454842,-0.898858,0.804238
23,45,-1.0472,-0.698132,-0.174533,0.174533,-1.03348,-0.686761,-0.138579,0.142363,-1.64565,-0.454842,-0.898858,0.804238
23,45,-1.0472,-0.698132,-0.174533,0.174533,-1.03348,-0.686761,-0.138579,0.142363,-1.64565,-0.454842,-0.898858,0.804238
23,45,-1.0472,-0.698132,-0.174533,0.174533,-1.03348,-0.686761,-0.138579,0.142363,-1.64565,-0.454842,-0.898858,0.804238
23,45,-1.0472,-0.698132,-0.174533,0.174533,-1.03348,-0.686761,-0.138579,0.142363,-1.64565,-0.454842,-0.898858,0.804238
23,45,-1.0472,-0.698132,-0.174533,0.174533,-1.03348,-0.686761,-0.138579,0.142363,-1.64565,-0.454842,-0.898858,0.804238
23,45,-1.0472,-0.698132,-0.174533,0.174533,-1.03348,-0.686761,-0.138579,0.142363,-1.64565,-0.454842,-0.898858,0.804238
23,45,-1.0472,-0.698132,-0.174533,0.174533,-1.03348,-0.686761,-0.138579,0.142363,-1.64565,-0.454842,-0.898858,0.804238
23,45,-1.0472,-0.698132,-0.174533,0.174533,-1.03348,-0.686761,-0.138579,0.142363,-1.64565,-0.454842,-0.898858,0.804238
23,45,-1.0472,-0.698132,-0.174533,0.174533,-1.03348,-0.686761,-0.138579,0.142363,-1.64565,-0.454842,-0.898858,0.804238
23,45,-1.0472,-0.698132,-0.174533,0.174533,-1.03348,-0.686761,-0.138579,0.142363,-1.64565,-0.454842,-0.898858,0.804238
23,45,-1.0472,-0.698132,-0.174533,0.174533,-1.03348,-0.686761,-0.138579,0.142363,-1.64565,-0.454842,-0.898858,0.804238
23,45,-1.0472,-0.698132,-0.174533,0.174533,-1.03348,-0.686761,-0.138579,0.142363,-1.64565,-0.454842,-0.898858,0.804238
23,45,-1.0472,-0.698132,-0.174533,0.174533,-1.03348,-0.686761,-0.138579,0.142363,-1.64565,-0.454842,-0.898858,0.804238
23,45,-1.0472,-0.698132,-0.174533,0.174533,-1.03348,-0.686761,-0.138579,0.142363,-1.64565,-0.454842,-0.898858,0.804238
23,45,-1.0472,-0.698132,-0.174533,0.174533,-1.03348,-0.686761,-0.138579,0.142363,-1.64565,-0.454842,-0.898858,0.804238
23,45,-1.0472,-0.698132,-0.174533,0.174533,-1.03348,-0.686761,-0.138579,0.142363,-1.64565,-0.454842,-0.898858,0.804238
23,45,-1.0472,-0.698132,-0.174533,0.174533,-1.03348,-0.686761,-0.138579,0.142363,-1.64565,-0.454842,-0.898858,0.804238
23,45,-1.0472,-0.698132,-0.174533,0.174533,-1.03348,-0.686761,-0.138579,0.142363,-1.64565,-0.454842,-0.898858,0.804238
23,45,-1.0472,-0.698132,-0.174533,0.174533,-1.03348,-0.686761,-0.138579,0.142363,-1.64565,-0.454842,-0.898858,0.804238
23,45,-1.0472,-0.698132,-0.174533,0.174533,-1.03348,-0.686761,-0.138579,0.142363,-1.64565,-0.454842,-0.898858,0.804238
23,45,-1.0472,-0.698132,-0.174533,0.174533,-1.03348,-0.686761,-0.138579,0.142363,-1.64565,-0.454842,-0.898858,0.804238
23,45,-1.0472,-0.698132,-0.174533,0.174533,-1.03348,-0.686761,-0.138579,0.142363,-1.64565,-0.454842,-0.898858,0.804238
23,45,-1.0472,-0.698132,-0.174533,0.174533,-1.03348,-0.686761,-0.138579,0.142363,-1.64565,-0.454842,-0.898858,0.804238
23,45,-1.0472,-0.698132,-0.174533,0.174533,-1.03348,-0.686761,-0.138579,0.142363,-1.64565,-0.454842,-0.898858,0.804238
23,45,-1.0472,-0.698132,-0.174533,0.174533,-1.03348,-0.686761,-0.138579,0.142363,-1.64565,-0.454842,-0.898858,0.804238
23,45,-1.0472,-0.698132,-0.174533,0.174533,-1.03348,-0.686761,-0.138579,0.142363,-1.64565,-0.454842,-0.898858,0.804238
23,45,-1.0472,-0.698132,-0.174533,0.174533,-1.03348,-0.686761,-0.138579,0.142363,-1.64565,-0.454842,-0.898858,0.804238
23,45,-1.0472,-0.698132,-0.174533,0.174533,-1.03348,-0.686761,-0.138579,0.142363,-1.64565,-0.454842,-0.898858,0.804238
23,45,-1.0472,-0.698132,-0.174533,0.174533,-1.03348,-0.686761,-0.138579,0.142363,-1.64565,-0.454842,-0.898858,0.804238
23,45,-1.0472,-0.698132,-0.174533,0.174533,-1.03348,-0.686761,-0.138579,0.142363,-1.64565,-0.454842,-0.898858,0.804238
23,45,-1.0472,-0.698132,-0.174533,0.174533,-1.03348,-0.686761,-0.138579,0.142363,-1.64565,-0.454842,-0.898858,0.804238
23,45,-1.0472,-0.698132,-0.174533,0.174533,-1.03348,-0.686761,-0.138579,0.142363,-1.64565,-0.454842,-0.898858,0.804238
23,45,-1.0472,-0.698132,-0.174533,0.174533,-1.03348,-0.686761,-0.138579,0.142363,-1.64565,-0.454842,-0.898858,0.804238
23,45,-1.0472,-0.698132,-0.174533,0.174533,-1.03348,-0.686761,-0.138579,0.142363,-1.64565,-0.454842,-0.898858,0.804238
23,45,-1.0472,-0.698132,-0.174533,0.174533,-1.03348,-0.686761,-0.138579,0.142363,-1.64565,-0.454842,-0.898858,0.804238
23,45,-1.0472,-0.698132,-0.174533,0.174533,-1.03348,-0.686761,-0.138579,0.142363,-1.64565,-0.454842,-0.898858,0.804238
23,45,-1.0472,-0.698132,-0.174533,0.174533,-1.03348,-0.686761,-0.138579,0.142363,-1.64565,-0.454842,-0.898858,0.804238
23,45,-1.0472,-0.698132,-0.174533,0.174533,-1.03348,-0.686761,-0.138579,0.142363,-1.64565,-0.454842,-0.898858,0.804238
23,45,-1.0472,-0.698132,-0.174533,0.174533,-1.03348,-0.686761,-0.138579,0.142363,-1.64565,-0.454842,-0.898858,0.804238
23,45,-1.0472,-0.698132,-0.174533,0.174533,-1.03348,-0.686761,-0.138579,0.142363,-1.64565,-0.454842,-0.898858,0.804238
23,45,-1.0472,-0.698132,-0.174533,0.174533,-1.03348,-0.686761,-0.138579,0.142363,-1.64565,-0.454842,-0.898858,0.804238
23,45,-1.0472,-0.698132,-0.174533,0.174533,-1.03348,-0.686761,-0.138579,0.142363,-1.64565,-0.454842,-0.898858,0.804238
23,45,-1.0472,-0.698132,-0.174533,0.174533,-1.03348,-0.686761,-0.138579,0.142363,-1.64565,-0.454842,-0.898858,0.804238
23,45,-1.0472,-0.698132,-0.174533,0.174533,-1.03348,-0.686761,-0.138579,0.142363,-1.64565,-0.454842,-0.898858,0.804238
23,45,-1.0472,-0.698132,-0.174533,0.174533,-1.03348,-0.686761,-0.138579,0.142363,-1.64565,-0.454842,-0.898858,0.804238
23,45,-1.0472,-0.698132,-0.174533,0.174533,-1.03348,-0.686761,-0.138579,0.142363,-1.64565,-0.454842,-0.898858,0.804238
23,45,-1.0472,-0.698132,-0.174533,0.174533,-1.03348,-0.686761,-0.138579,0.142363,-1.64565,-0.454842,-0.898858,0.804238
23,45,-1.0472,-0.698132,-0.174533,0.174533,-1.03348,-0.686761,-0.138579,0.142363,-1.64565,-0.454842,-0.898858,0.804238
23,45,-1.0472,-0.698132,-0.174533,0.174533,-1.03348,-0.686761,-0.138579,0.142363,-1.64565,-0.454842,-0.898858,0.804238
23,45,-1.0472,-0.698132,-0.174533,0.174533,-1.03348,-0.686761,-0.138579,0.142363,-1.64565,-0.454842,-0.898858,0.804238
23,45,-1.0472,-0.698132,-0.174533,0.174533,-1.03348,-0.686761,-0.138579,0.142363,-1.64565,-0.454842,-0.898858,0.804238
23,45,-1.0472,-0.698132,-0.174533,0.174533,-1.03348,-0.686761,-0.138579,0.142363,-1.64565,-0.454842,-0.898858,0.804238
23,45,-1.0472,-0.698132,-0.174533,0.174533,-1.03348,-0.686761,-0.138579,0.142363,-1.64565,-0.454842,-0.898858,0.804238
23,45,-1.0472,-0.698132,-0.174533,0.174533,-1.03348,-0.686761,-0.138579,0.142363,-1.64565,-0.454842,-0.898858,0.804238
23,45,-1.0472,-0.698132,-0.174533,0.174533,-1.03348,-0.686761,-0.138579,0.142363,-1.64565,-0.454842,-0.898858,0.804238
23,45,-1.0472,-0.698132,-0.174533,0.174533,-1.03348,-0.686761,-0.138579,0.142363,-1.64565,-0.454842,-0.898858,0.804238
23,45,-1.0472,-0.698132,-0.174533,0.174533,-1.03348,-0.686761,-0.138579,0.142363,-1.64565,-0.454842,-0.898858,0.804238
23,45,-1.0472,-0.698132,-0.174533,0.174533,-1.03348,-0.686761,-0.138579,0.142363,-1.64565,-0.454842,-0.898858,0.804238
23,45,-1.0472,-0.698132,-0.174533,0.174533,-1.03348,-0.686761,-0.138579,0.142363,-1.64565,-0.454842,-0.898858,0.804238
23,45,-1.0472,-0.698132,-0.174533,0.174533,-1.03348,-0.686761,-0.138579,0.142363,-1.64565,-0.454842,-0.898858,0.804238
23,45,-1.0472,-0.698132,-0.174533,0.174533,-1.03348,-0.686761,-0.138579,0.142363,-1.64565,-0.454842,-0.898858,0.804238
23,45,-1.0472,-0.698132,-0.174533,0.174533,-1.03348,-0.686761,-0.138579,0.142363,-1.64565,-0.454842,-0.898858,0.804238
23,45,-1.0472,-0.698132,-0.174533,0.174533,-1.03348,-0.686761,-0.138579,0.142363,-1.64565,-0.454842,-0.898858,0.804238
23,45,-1.0472,-0.698132,-0.174533,0.174533,-1.03348,-0.686761,-0.138579,0.142363,-1.64565,-0.454842,-0.898858,0.804238
23,45,-1.0472,-0.698132,-0.174533,0.174533,-1.03348,-0.686761,-0.138579,0.142363,-1.64565,-0.454842,-0.898858,0.804238
23,45,-1.0472,-0.698132,-0.174533,0.174533,-1.03348,-0.686761,-0.138579,0.142363,-1.64565,-0.454842,-0.898858,0.804238
23,45,-1.0472,-0.698132,-0.174533,0.174533,-1.03348,-0.686761,-0.138579,0.142363,-1.64565,-0.454842,-0.898858,0.804238
23,45,-1.0472,-0.698132,-0.174533,0.174533,-1.03348,-0.686761,-0.138579,0.142363,-1.64565,-0.454842,-0.898858,0.804238
23,45,-1.0472,-0.698132,-0.174533,0.174533,-1.03348,-0.686761,-0.138579,0.142363,-1.64565,-0.454842,-0.898858,0.804238
23,45,-1.0472,-0.698132,-0.174533,0.174533,-1.03348,-0.686761,-0.138579,0.142363,-1.64565,-0.454842,-0.898858,0.804238
23,45,-1.0472,-0.698132,-0.174533,0.174533,-1.03348,-0.686761,-0.138579,0.142363,-1.64565,-0.454842,-0.898858,0.804238
23,45,-1.0472,-0.698132,-0.174533,0.174533,-1.03348,-0.686761,-0.138579,0.142363,-1.64565,-0.454842,-0.898858,0.804238
23,45,-1.0472,-0.698132,-0.174533,0.174533,-1.03348,-0.686761,-0.138579,0.142363,-1.64565,-0.454842,-0.898858,0.804238
23,45,-1.0472,-0.698132,-0.174533,0.174533,-1.03348,-0.686761,-0.138579,0.142363,-1.64565,-0.454842,-0.898858,0.804238
23,45,-1.0472,-0.698132,-0.174533,0.174533,-1.03348,-0.686761,-0.138579,0.142363,-1.64565,-0.454842,-0.898858,0.804238
23,45,-1.0472,-0.698132,-0.174533,0.174533,-1.03348,-0.686761,-0.138579,0.142363,-1.64565,-0.454842,-0.898858,0.804238
23,45,-1.0472,-0.698132,-0.174533,0.174533,-1.03348,-0.686761,-0.138579,0.142363,-1.64565,-0.454842,-0.898858,0.804238
23,45,-1.0472,-0.698132,-0.174533,0.174533,-1.03348,-0.686761,-0.138579,0.142363,-1.64565,-0.454842,-0.898858,0.804238
23,45,-1.0472,-0.698132,-0.174533,0.174533,-1.03348,-0.686761,-0.138579,0.142363,-1.64565,-0.454842,-0.898858,0.804238
23,45,-1.0472,-0.698132,-0.174533,0.174533,-1.03348,-0.686761,-0.138579,0.142363,-1.64565,-0.454842,-0.898858,0.804238
23,45,-1.0472,-0.698132,-0.174533,0.174533,-1.03348,-0.686761,-0.138579,0.142363,-1.64565,-0.454842,-0.898858,0.804238
23,45,-1.0472,-0.698132,-0.174533,0.174533,-1.03348,-0.686761,-0.138579,0.142363,-1.64565,-0.454842,-0.898858,0.804238
23,45,-1.0472,-0.698132,-0.174533,0.174533,-1.03348,-0.686761,-0.138579,0.142363,-1.64565,-0.454842,-0.898858,0.804238
23,45,-1.0472,-0.698132,-0.174533,0.174533,-1.03348,-0.686761,-0.138579,0.142363,-1.64565,-0.454842,-0.898858,0.804238
23,45,-1.0472,-0.698132,-0.174533,0.174533,-1.03348,-0.686761,-0.138579,0.142363,-1.64565,-0.454842,-0.898858,0.804238
23,45,-1.0472,-0.698132,-0.174533,0.174533,-1.03348,-0.686761,-0.138579,0.142363,-1.64565,-0.454842,-0.898858,0.804238
23,45,-1.0472,-0.698132,-0.174533,0.174533,-1.03348,-0.686761,-0.138579,0.142363,-1.64565,-0.454842,-0.898858,0.804238
23,45,-1.0472,-0.698132,-0.174533,0.174533,-1.03348,-0.686761,-0.138579,0.142363,-1.64565,-0.454842,-0.898858,0.804238
23,45,-1.0472,-0.698132,-0.174533,0.174533,-1.03348,-0.686761,-0.138579,0.142363,-1.64565,-0.454842,-0.898858,0.804238
23,45,-1.0472,-0.698132,-0.174533,0.174533,-1.03348,-0.686761,-0.138579,0.142363,-1.64565,-0.454842,-0.898858,0.804238
23,45,-1.0472,-0.698132,-0.174533,0.174533,-1.03348,-0.686761,-0.138579,0.142363,-1.64565,-0.454842,-0.898858,0.804238
23,45,-1.0472,-0.698132,-0.174533,0.174533,-1.03348,-0.686761,-0.138579,0.142363,-1.64565,-0.454842,-0.898858,0.804238
23,45,-1.0472,-0.698132,-0.174533,0.174533,-1.03348,-0.686761,-0.138579,0.142363,-1.64565,-0.454842,-0.898858,0.804238
23,45,-1.0472,-0.698132,-0.174533,0.174533,-1.03348,-0.686761,-0.138579,0.142363,-1.64565,-0.454842,-0.898858,0.804238
23,45,-1.0472,-0.698132,-0.174533,0.174533,-1.03348,-0.686761,-0.138579,0.142363,-1.64565,-0.454842,-0.898858,0.804238
23,45,-1.0472,-0.698132,-0.174533,0.174533,-1.03348,-0.686761,-0.138579,0.142363,-1.64565,-0.454842,-0.898858,0.804238
23,45,-1.0472,-0.698132,-0.174533,0.174533,-1.03348,-0.686761,-0.138579,0.142363,-1.64565,-0.454842,-0.898858,0.804238
23,45,-1.0472,-0.698132,-0.174533,0.174533,-1.03348,-0.686761,-0.138579,0.142363,-1.64565,-0.454842,-0.898858,0.804238
23,45,-1.0472,-0.698132,-0.174533,0.174533,-1.03348,-0.686761,-0.138579,0.142363,-1.64565,-0.454842,-0.898858,0.804238
23,45,-1.0472,-0.698132,-0.174533,0.174533,-1.03348,-0.686761,-0.138579,0.142363,-1.64565,-0.454842,-0.898858,0.804238
23,45,-1.0472,-0.698132,-0.174533,0.174533,-1.03348,-0.686761,-0.138579,0.142363,-1.64565,-0.454842,-0.898858,0.804238
23,45,-1.0472,-0.698132,-0.174533,0.174533,-1.03348,-0.686761,-0.138579,0.142363,-1.64565,-0.454842,-0.898858,0.804238
23,45,-1.0472,-0.698132,-0.174533,0.174533,-1.03348,-0.686761,-0.138579,0.142363,-1.64565,-0.454842,-0.898858,0.804238
23,45,-1.0472,-0.698132,-0.174533,0.174533,-1.03348,-0.686761,-0.138579,0.142363,-1.64565,-0.454842,-0.898858,0.804238
23,45,-1.0472,-0.698132,-0.174533,0.174533,-1.03348,-0.686761,-0.138579,0.142363,-1.64565,-0.454842,-0.898858,0.804238
23,45,-1.0472,-0.698132,-0.174533,0.174533,-1.03348,-0.686761,-0.138579,0.142363,-1.64565,-0.454842,-0.898858,0.804238
23,45,-1.0472,-0.698132,-0.174533,0.174533,-1.03348,-0.686761,-0.138579,0.142363,-1.64565,-0.454842,-0.898858,0.804238
23,45,-1.0472,-0.698132,-0.174533,0.174533,-1.03348,-0.686761,-0.138579,0.142363,-1.64565,-0.454842,-0.898858,0.804238
23,45,-1.0472,-0.698132,-0.174533,0.174533,-1.03348,-0.686761,-0.138579,0.142363,-1.64565,-0.454842,-0.898858,0.804238
23,45,-1.0472,-0.698132,-0.174533,0.174533,-1.03348,-0.686761,-0.138579,0.142363,-1.64565,-0.454842,-0.898858,0.804238
23,45,-1.0472,-0.698132,-0.174533,0.174533,-1.03348,-0.686761,-0.138579,0.142363,-1.64565,-0.454842,-0.898858,0.804238
23,45,-1.0472,-0.698132,-0.174533,0.174533,-1.03348,-0.686761,-0.138579,0.142363,-1.64565,-0.454842,-0.898858,0.804238
23,45,-1.0472,-0.698132,-0.174533,0.174533,-1.03348,-0.686761,-0.138579,0.142363,-1.64565,-0.454842,-0.898858,0.804238
23,45,-1.0472,-0.698132,-0.174533,0.174533,-1.03348,-0.686761,-0.138579,0.142363,-1.64565,-0.454842,-0.898858,0.804238
23,45,-1.0472,-0.698132,-0.174533,0.174533,-1.03348,-0.686761,-0.138579,0.142363,-1.64565,-0.454842,-0.898858,0.804238
23,45,-1.0472,-0.698132,-0.174533,0.174533,-1.03348,-0.686761,-0.138579,0.142363,-1.64565,-0.454842,-0.898858,0.804238
23,45,-1.0472,-0.698132,-0.174533,0.174533,-1.03348,-0.686761,-0.138579,0.142363,-1.64565,-0.454842,-0.898858,0.804238
23,45,-1.0472,-0.698132,-0.174533,0.174533,-1.03348,-0.686761,-0.138579,0.142363,-1.64565,-0.454842,-0.898858,0.804238
23,45,-1.0472,-0.698132,-0.174533,0.174533,-1.03348,-0.686761,-0.138579,0.142363,-1.64565,-0.454842,-0.898858,0.804238
23,45,-1.0472,-0.698132,-0.174533,0.174533,-1.03348,-0.686761,-0.138579,0.142363,-1.64565,-0.454842,-0.898858,0.804238
23,45,-1.0472,-0.698132,-0.174533,0.174533,-1.03348,-0.686761,-0.138579,0.142363,-1.64565,-0.454842,-0.898858,0.804238
23,45,-1.0472,-0.698132,-0.174533,0.174533,-1.03348,-0.686761,-0.138579,0.142363,-1.64565,-0.454842,-0.898858,0.804238
23,45,-1.0472,-0.698132,-0.174533,0.174533,-1.03348,-0.686761,-0.138579,0.142363,-1.64565,-0.454842,-0.898858,0.804238
23,45,-1.0472,-0.698132,-0.174533,0.174533,-1.03348,-0.686761,-0.138579,0.142363,-1.64565,-0.454842,-0.898858,0.804238
23,45,-1.0472,-0.698132,-0.174533,0.174533,-1.03348,-0.686761,-0.138579,0.142363,-1.64565,-0.454842,-0.898858,0.804238
23,45,-1.0472,-0.698132,-0.174533,0.174533,-1.03348,-0.686761,-0.138579,0.142363,-1.64565,-0.454842,-0.898858,0.804238
23,45,-1.0472,-0.698132,-0.174533,0.174533,-1.03348,-0.686761,-0.138579,0.142363,-1.64565,-0.454842,-0.898858,0.804238
23,45,-1.0472,-0.698132,-0.174533,0.174533,-1.03348,-0.686761,-0.138579,0.142363,-1.64565,-0.454842,-0.898858,0.804238
23,45,-1.0472,-0.698132,-0.174533,0.174533,-1.03348,-0.686761,-0.138579,0.142363,-1.64565,-0.454842,-0.898858,0.804238
23,45,-1.0472,-0.698132,-0.174533,0.174533,-1.03348,-0.686761,-0.138579,0.142363,-1.64565,-0.454842,-0.898858,0.804238
23,45,-1.0472,-0.698132,-0.174533,0.174533,-1.03348,-0.686761,-0.138579,0.142363,-1.64565,-0.454842,-0.898858,0.804238
23,45,-1.0472,-0.698132,-0.174533,0.174533,-1.03348,-0.686761,-0.138579,0.142363,-1.64565,-0.454842,-0.898858,0.804238
23,45,-1.0472,-0.698132,-0.174533,0.174533,-1.03348,-0.686761,-0.138579,0.142363,-1.64565,-0.454842,-0.898858,0.804238
23,45,-1.0472,-0.698132,-0.174533,0.174533,-1.03348,-0.686761,-0.138579,0.142363,-1.64565,-0.454842,-0.898858,0.804238
23,45,-1.0472,-0.698132,-0.174533,0.174533,-1.03348,-0.686761,-0.138579,0.142363,-1.64565,-0.454842,-0.898858,0.804238
23,45,-1.0472,-0.698132,-0.174533,0.174533,-1.03348,-0.686761,-0.138579,0.142363,-1.64565,-0.454842,-0.898858,0.804238
23,45,-1.0472,-0.698132,-0.174533,0.174533,-1.03348,-0.686761,-0.138579,0.142363,-1.64565,-0.454842,-0.898858,0.804238
23,45,-1.0472,-0.698132,-0.174533,0.174533,-1.03348,-0.686761,-0.138579,0.142363,-1.64565,-0.454842,-0.898858,0.804238
23,45,-1.0472,-0.698132,-0.174533,0.174533,-1.03348,-0.686761,-0.138579,0.142363,-1.64565,-0.454842,-0.898858,0.804238
23,45,-1.0472,-0.698132,-0.174533,0.174533,-1.03348,-0.686761,-0.138579,0.142363,-1.64565,-0.454842,-0.898858,0.804238
23,45,-1.0472,-0.698132,-0.174533,0.174533,-1.03348,-0.686761,-0.138579,0.142363,-1.64565,-0.454842,-0.898858,0.804238
23,45,-1.0472,-0.698132,-0.174533,0.174533,-1.03348,-0.686761,-0.138579,0.142363,-1.64565,-0.454842,-0.898858,0.804238
23,45,-1.0472,-0.698132,-0.174533,0.174533,-1.03348,-0.686761,-0.138579,0.142363,-1.64565,-0.454842,-0.898858,0.804238
23,45,-1.0472,-0.698132,-0.174533,0.174533,-1.03348,-0.686761,-0.138579,0.142363,-1.64565,-0.454842,-0.898858,0.804238
23,45,-1.0472,-0.698132,-0.174533,0.174533,-1.03348,-0.686761,-0.138579,0.142363,-1.64565,-0.454842,-0.898858,0.804238
23,45,-1.0472,-0.698132,-0.174533,0.174533,-1.03348,-0.686761,-0.138579,0.142363,-1.64565,-0.454842,-0.898858,0.804238
23,45,-1.0472,-0.698132,-0.174533,0.174533,-1.03348,-0.686761,-0.138579,0.142363,-1.64565,-0.454842,-0.898858,0.804238
23,45,-1.0472,-0.698132,-0.174533,0.174533,-1.03348,-0.686761,-0.138579,0.142363,-1.64565,-0.454842,-0.898858,0.804238
23,45,-1.0472,-0.698132,-0.174533,0.174533,-1.03348,-0.686761,-0.138579,0.142363,-1.64565,-0.454842,-0.898858,0.804238
23,45,-1.0472,-0.698132,-0.174533,0.174533,-1.03348,-0.686761,-0.138579,0.142363,-1.64565,-0.454842,-0.898858,0.804238
23,45,-1.0472,-0.698132,-0.174533,0.174533,-1.03348,-0.686761,-0.138579,0.142363,-1.64565,-0.454842,-0.898858,0.804238
23,45,-1.0472,-0.698132,-0.174533,0.174533,-1.03348,-0.686761,-0.138579,0.142363,-1.64565,-0.454842,-0.898858,0.804238
23,45,-1.0472,-0.698132,-0.174533,0.174533,-1.03348,-0.686761,-0.138579,0.142363,-1.64565,-0.454842,-0.898858,0.804238
23,45,-1.0472,-0.698132,-0.174533,0.174533,-1.03348,-0.686761,-0.138579,0.142363,-1.64565,-0.454842,-0.898858,0.804238
23,45,-1.0472,-0.698132,-0.174533,0.174533,-1.03348,-0.686761,-0.138579,0.142363,-1.64565,-0.454842,-0.898858,0.804238
23,45,-1.0472,-0.698132,-0.174533,0.174533,-1.03348,-0.686761,-0.138579,0.142363,-1.64565,-0.454842,-0.898858,0.804238
23,45,-1.0472,-0.698132,-0.174533,0.174533,-1.03348,-0.686761,-0.138579,0.142363,-1.64565,-0.454842,-0.898858,0.804238
23,45,-1.0472,-0.698132,-0.174533,0.174533,-1.03348,-0.686761,-0.138579,0.142363,-1.64565,-0.454842,-0.898858,0.804238
23,45,-1.0472,-0.698132,-0.174533,0.174533,-1.03348,-0.686761,-0.138579,0.142363,-1.64565,-0.454842,-0.898858,0.804238
23,45,-1.0472,-0.698132,-0.174533,0.174533,-1.03348,-0.686761,-0.138579,0.142363,-1.64565,-0.454842,-0.898858,0.804238
23,45,-1.0472,-0.698132,-0.174533,0.174533,-1.03348,-0.686761,-0.138579,0.142363,-1.64565,-0.454842,-0.898858,0.804238
23,45,-1.0472,-0.698132,-0.174533,0.174533,-1.03348,-0.686761,-0.138579,0.142363,-1.64565,-0.454842,-0.898858,0.804238
23,45,-1.0472,-0.698132,-0.174533,0.174533,-1.03348,-0.686761,-0.138579,0.142363,-1.64565,-0.454842,-0.898858,0.804238
23,45,-1.0472,-0.698132,-0.174533,0.174533,-1.03348,-0.686761,-0.138579,0.142363,-1.64565,-0.454842,-0.898858,0.804238
23,45,-1.0472,-0.698132,-0.174533,0.174533,-1.03348,-0.686761,-0.138579,0.142363,-1.64565,-0.454842,-0.898858,0.804238
23,45,-1.0472,-0.698132,-0.174533,0.174533,-1.03348,-0.686761,-0.138579,0.142363,-1.64565,-0.454842,-0.898858,0.804238
23,45,-1.0472,-0.698132,-0.174533,0.174533,-1.03348,-0.686761,-0.138579,0.142363,-1.64565,-0.454842,-0.898858,0.804238
23,45,-1.0472,-0.698132,-0.174533,0.174533,-1.03348,-0.686761,-0.138579,0.142363,-1.64565,-0.454842,-0.898858,0.804238
23,45,-1.0472,-0.698132,-0.174533,0.174533,-1.03348,-0.686761,-0.138579,0.142363,-1.64565,-0.454842,-0.898858,0.804238
23,45,-1.0472,-0.698132,-0.174533,0.174533,-1.03348,-0.686761,-0.138579,0.142363,-1.64565,-0.454842,-0.898858,0.804238
23,45,-1.0472,-0.698132,-0.174533,0.174533,-1.03348,-0.686761,-0.138579,0.142363,-1.64565,-0.454842,-0.898858,0.804238
23,45,-1.0472,-0.698132,-0.174533,0.174533,-1.03348,-0.686761,-0.138579,0.142363,-1.64565,-0.454842,-0.898858,0.804238
23,45,-1.0472,-0.698132,-0.174533,0.174533,-1.03348,-0.686761,-0.138582,0.142434,-1.64565,-0.454842,-0.898765,0.802475
23,45,-1.0472,-0.698132,-0.174533,0.174533,-1.03348,-0.686761,-0.138582,0.142434,-1.64565,-0.454842,-0.898765,0.802475
23,45,-1.0472,-0.698132,-0.174533,0.174533,-1.03348,-0.686761,-0.138582,0.142434,-1.64565,-0.454842,-0.898765,0.802475
23,45,-1.0472,-0.698132,-0.174533,0.174533,-1.03348,-0.686761,-0.138582,0.142434,-1.64565,-0.454842,-0.898765,0.802475
23,45,-1.0472,-0.698132,-0.174533,0.174533,-1.03348,-0.686761,-0.138582,0.142434,-1.64565,-0.454842,-0.898765,0.802475
23,45,-1.0472,-0.698132,-0.174533,0.174533,-1.03348,-0.686761,-0.138582,0.142434,-1.64565,-0.454842,-0.898765,0.802475
23,45,-1.0472,-0.698132,-0.174533,0.174533,-1.03348,-0.686761,-0.138582,0.142434,-1.64565,-0.454842,-0.898765,0.802475
23,45,-1.0472,-0.698132,-0.174533,0.174533,-1.03348,-0.686761,-0.138582,0.142434,-1.64565,-0.454842,-0.898765,0.802475
23,45,-1.0472,-0.698132,-0.174533,0.174533,-1.03348,-0.686761,-0.138582,0.142434,-1.64565,-0.454842,-0.898765,0.802475
23,45,-1.0472,-0.698132,-0.174533,0.174533,-1.03348,-0.686761,-0.138582,0.142434,-1.64565,-0.454842,-0.898765,0.802475
23,45,-1.0472,-0.698132,-0.174533,0.174533,-1.03348,-0.686761,-0.138582,0.142434,-1.64565,-0.454842,-0.898765,0.802475
23,45,-1.0472,-0.698132,-0.174533,0.174533,-1.03348,-0.686761,-0.138582,0.142434,-1.64565,-0.454842,-0.898765,0.802475
23,45,-1.0472,-0.698132,-0.174533,0.174533,-1.03348,-0.686761,-0.138582,0.142434,-1.64565,-0.454842,-0.898765,0.802475
23,45,-1.0472,-0.698132,-0.174533,0.174533,-1.03348,-0.686761,-0.138582,0.142434,-1.64565,-0.454842,-0.898765,0.802475
23,45,-1.0472,-0.698132,-0.174533,0.174533,-1.03348,-0.686761,-0.138582,0.142434,-1.64565,-0.454842,-0.898765,0.802475
23,45,-1.0472,-0.698132,-0.174533,0.174533,-1.03348,-0.686761,-0.138582,0.142434,-1.64565,-0.454842,-0.898765,0.802475
23,45,-1.0472,-0.698132,-0.174533,0.174533,-1.03348,-0.686761,-0.138582,0.142434,-1.64565,-0.454842,-0.898765,0.802475
23,45,-1.0472,-0.698132,-0.174533,0.174533,-1.03348,-0.686761,-0.138582,0.142434,-1.64565,-0.454842,-0.898765,0.802475
23,45,-1.0472,-0.698132,-0.174533,0.174533,-1.03348,-0.686761,-0.138582,0.142434,-1.64565,-0.454842,-0.898765,0.802475
23,45,-1.0472,-0.698132,-0.174533,0.174533,-1.03348,-0.686761,-0.138582,0.142434,-1.64565,-0.454842,-0.898765,0.802475
23,45,-1.0472,-0.698132,-0.174533,0.174533,-1.03348,-0.686761,-0.138582,0.142434,-1.64565,-0.454842,-0.898765,0.802475
23,45,-1.0472,-0.698132,-0.174533,0.174533,-1.03348,-0.686761,-0.138582,0.142434,-1.64565,-0.454842,-0.898765,0.802475
23,45,-1.0472,-0.698132,-0.174533,0.174533,-1.03348,-0.686761,-0.138582,0.142434,-1.64565,-0.454842,-0.898765,0.802475
23,45,-1.0472,-0.698132,-0.174533,0.174533,-1.03348,-0.686761,-0.138582,0.142434,-1.64565,-0.454842,-0.898765,0.802475
23,45,-1.0472,-0.698132,-0.174533,0.174533,-1.03348,-0.686761,-0.138582,0.142434,-1.64565,-0.454842,-0.898765,0.802475
23,45,-1.0472,-0.698132,-0.174533,0.174533,-1.03348,-0.686761,-0.138582,0.142434,-1.64565,-0.454842,-0.898765,0.802475
23,45,-1.0472,-0.698132,-0.174533,0.174533,-1.03348,-0.686761,-0.138582,0.142434,-1.64565,-0.454842,-0.898765,0.802475
23,45,-1.0472,-0.698132,-0.174533,0.174533,-1.03348,-0.686761,-0.138582,0.142434,-1.64565,-0.454842,-0.898765,0.802475
23,45,-1.0472,-0.698132,-0.174533,0.174533,-1.03348,-0.686761,-0.138582,0.142434,-1.64565,-0.454842,-0.898765,0.802475
23,45,-1.0472,-0.698132,-0.174533,0.174533,-1.03348,-0.686761,-0.138582,0.142434,-1.64565,-0.454842,-0.898765,0.802475
23,45,-1.0472,-0.698132,-0.174533,0.174533,-1.03348,-0.686761,-0.138582,0.142434,-1.64565,-0.454842,-0.898765,0.802475
23,45,-1.0472,-0.698132,-0.174533,0.174533,-1.03348,-0.686761,-0.138582,0.142434,-1.64565,-0.454842,-0.898765,0.802475
23,45,-1.0472,-0.698132,-0.174533,0.174533,-1.03348,-0.686761,-0.138582,0.142434,-1.64565,-0.454842,-0.898765,0.802475
23,45,-1.0472,-0.698132,-0.174533,0.174533,-1.03348,-0.686761,-0.138582,0.142434,-1.64565,-0.454842,-0.898765,0.802475
23,45,-1.0472,-0.698132,-0.174533,0.174533,-1.03348,-0.686761,-0.138582,0.142434,-1.64565,-0.454842,-0.898765,0.802475
23,45,-1.0472,-0.698132,-0.174533,0.174533,-1.03348,-0.686761,-0.138582,0.142434,-1.64565,-0.454842,-0.898765,0.802475
23,45,-1.0472,-0.698132,-0.174533,0.174533,-1.03348,-0.686761,-0.138582,0.142434,-1.64565,-0.454842,-0.898765,0.802475
23,45,-1.0472,-0.698132,-0.174533,0.174533,-1.03348,-0.686761,-0.138582,0.142434,-1.64565,-0.454842,-0.898765,0.802475
23,45,-1.0472,-0.698132,-0.174533,0.174533,-1.03348,-0.686761,-0.138582,0.142434,-1.64565,-0.454842,-0.898765,0.802475
23,45,-1.0472,-0.698132,-0.174533,0.174533,-1.03348,-0.686761,-0.138582,0.142434,-1.64565,-0.454842,-0.898765,0.802475
23,45,-1.0472,-0.698132,-0.174533,0.174533,-1.03348,-0.686761,-0.138582,0.142434,-1.64565,-0.454842,-0.898765,0.802475
23,45,-1.0472,-0.698132,-0.174533,0.174533,-1.03348,-0.686761,-0.138582,0.142434,-1.64565,-0.454842,-0.898765,0.802475
23,45,-1.0472,-0.698132,-0.174533,0.174533,-1.03348,-0.686761,-0.138582,0.142434,-1.64565,-0.454842,-0.898765,0.802475
23,45,-1.0472,-0.698132,-0.174533,0.174533,-1.03348,-0.686761,-0.138582,0.142434,-1.64565,-0.454842,-0.898765,0.802475
23,45,-1.0472,-0.698132,-0.174533,0.174533,-1.03348,-0.686761,-0.138582,0.142434,-1.64565,-0.454842,-0.898765,0.802475
23,45,-1.0472,-0.698132,-0.174533,0.174533,-1.03348,-0.686761,-0.138582,0.142434,-1.64565,-0.454842,-0.898765,0.802475
23,45,-1.0472,-0.698132,-0.174533,0.174533,-1.03348,-0.686761,-0.138582,0.142434,-1.64565,-0.454842,-0.898765,0.802475
23,45,-1.0472,-0.698132,-0.174533,0.174533,-1.03348,-0.686761,-0.138582,0.142434,-1.64565,-0.454842,-0.898765,0.802475
23,45,-1.0472,-0.698132,-0.174533,0.174533,-1.03348,-0.686761,-0.138582,0.142434,-1.64565,-0.454842,-0.898765,0.802475
23,45,-1.0472,-0.698132,-0.174533,0.174533,-1.03348,-0.686761,-0.138582,0.142434,-1.64565,-0.454842,-0.898765,0.802475
23,45,-1.0472,-0.698132,-0.174533,0.174533,-1.03348,-0.686761,-0.138582,0.142434,-1.64565,-0.454842,-0.898765,0.802475
23,45,-1.0472,-0.698132,-0.174533,0.174533,-1.03348,-0.686761,-0.138582,0.142434,-1.64565,-0.454842,-0.898765,0.802475
23,45,-1.0472,-0.698132,-0.174533,0.174533,-1.03348,-0.686761,-0.138582,0.142434,-1.64565,-0.454842,-0.898765,0.802475
23,45,-1.0472,-0.698132,-0.174533,0.174533,-1.03348,-0.686761,-0.138582,0.142434,-1.64565,-0.454842,-0.898765,0.802475
23,45,-1.0472,-0.698132,-0.174533,0.174533,-1.03348,-0.686761,-0.138582,0.142434,-1.64565,-0.454842,-0.898765,0.802475
23,45,-1.0472,-0.698132,-0.174533,0.174533,-1.03348,-0.686761,-0.138582,0.142434,-1.64565,-0.454842,-0.898765,0.802475
23,45,-1.0472,-0.698132,-0.174533,0.174533,-1.03348,-0.686761,-0.138582,0.142434,-1.64565,-0.454842,-0.898765,0.802475
23,45,-1.0472,-0.698132,-0.174533,0.174533,-1.03348,-0.686761,-0.138582,0.142434,-1.64565,-0.454842,-0.898765,0.802475
23,45,-1.0472,-0.698132,-0.174533,0.174533,-1.03348,-0.686761,-0.138582,0.142434,-1.64565,-0.454842,-0.898765,0.802475
23,45,-1.0472,-0.698132,-0.174533,0.174533,-1.03348,-0.686761,-0.138582,0.142434,-1.64565,-0.454842,-0.898765,0.802475
23,45,-1.0472,-0.698132,-0.174533,0.174533,-1.03348,-0.686761,-0.138582,0.142434,-1.64565,-0.454842,-0.898765,0.802475
23,45,-1.0472,-0.698132,-0.174533,0.174533,-1.03348,-0.686761,-0.138582,0.142434,-1.64565,-0.454842,-0.898765,0.802475
23,45,-1.0472,-0.698132,-0.174533,0.174533,-1.03348,-0.686761,-0.138582,0.142434,-1.64565,-0.454842,-0.898765,0.802475
23,45,-1.0472,-0.698132,-0.174533,0.174533,-1.03348,-0.686761,-0.138582,0.142434,-1.64565,-0.454842,-0.898765,0.802475
23,45,-1.0472,-0.698132,-0.174533,0.174533,-1.03348,-0.686761,-0.138582,0.142434,-1.64565,-0.454842,-0.898765,0.802475
23,45,-1.0472,-0.698132,-0.174533,0.174533,-1.03348,-0.686761,-0.138582,0.142434,-1.64565,-0.454842,-0.898765,0.802475
23,45,-1.0472,-0.698132,-0.174533,0.174533,-1.03348,-0.686761,-0.138582,0.142434,-1.64565,-0.454842,-0.898765,0.802475
23,45,-1.0472,-0.698132,-0.174533,0.174533,-1.03348,-0.686761,-0.138582,0.142434,-1.64565,-0.454842,-0.898765,0.802475
23,45,-1.0472,-0.698132,-0.174533,0.174533,-1.03348,-0.686761,-0.138582,0.142434,-1.64565,-0.454842,-0.898765,0.802475
23,45,-1.0472,-0.698132,-0.174533,0.174533,-1.03348,-0.686761,-0.138582,0.142434,-1.64565,-0.454842,-0.898765,0.802475
23,45,-1.0472,-0.698132,-0.174533,0.174533,-1.03348,-0.686761,-0.138582,0.142434,-1.64565,-0.454842,-0.898765,0.802475
23,45,-1.0472,-0.698132,-0.174533,0.174533,-1.03348,-0.686761,-0.138582,0.142434,-1.64565,-0.454842,-0.898765,0.802475
23,45,-1.0472,-0.698132,-0.174533,0.174533,-1.03348,-0.686761,-0.138582,0.142434,-1.64565,-0.454842,-0.898765,0.802475
23,45,-1.0472,-0.698132,-0.174533,0.174533,-1.03348,-0.686761,-0.138582,0.142434,-1.64565,-0.454842,-0.898765,0.802475
23,45,-1.0472,-0.698132,-0.174533,0.174533,-1.03348,-0.686761,-0.138582,0.142434,-1.64565,-0.454842,-0.898765,0.802475
23,45,-1.0472,-0.698132,-0.174533,0.174533,-1.03348,-0.686761,-0.138582,0.142434,-1.64565,-0.454842,-0.898765,0.802475
23,45,-1.0472,-0.698132,-0.174533,0.174533,-1.03348,-0.686761,-0.138582,0.142434,-1.64565,-0.454842,-0.898765,0.802475
23,45,-1.0472,-0.698132,-0.174533,0.174533,-1.03348,-0.686761,-0.138582,0.142434,-1.64565,-0.454842,-0.898765,0.802475
23,45,-1.0472,-0.698132,-0.174533,0.174533,-1.03348,-0.686761,-0.138582,0.142434,-1.64565,-0.454842,-0.898765,0.802475
23,45,-1.0472,-0.698132,-0.174533,0.174533,-1.03348,-0.686761,-0.138582,0.142434,-1.64565,-0.454842,-0.898765,0.802475
23,45,-1.0472,-0.698132,-0.174533,0.174533,-1.03348,-0.686761,-0.138582,0.142434,-1.64565,-0.454842,-0.898765,0.802475
23,45,-1.0472,-0.698132,-0.174533,0.174533,-1.03348,-0.686761,-0.138582,0.142434,-1.64565,-0.454842,-0.898765,0.802475
23,45,-1.0472,-0.698132,-0.174533,0.174533,-1.03348,-0.686761,-0.138582,0.142434,-1.64565,-0.454842,-0.898765,0.802475
23,45,-1.0472,-0.698132,-0.174533,0.174533,-1.03348,-0.686761,-0.138582,0.142434,-1.64565,-0.454842,-0.898765,0.802475
23,45,-1.0472,-0.698132,-0.174533,0.174533,-1.03348,-0.686761,-0.138582,0.142434,-1.64565,-0.454842,-0.898765,0.802475
23,45,-1.0472,-0.698132,-0.174533,0.174533,-1.03348,-0.686761,-0.138582,0.142434,-1.64565,-0.454842,-0.898765,0.802475
23,45,-1.0472,-0.698132,-0.174533,0.174533,-1.03348,-0.686761,-0.138582,0.142434,-1.64565,-0.454842,-0.898765,0.802475
23,45,-1.0472,-0.698132,-0.174533,0.174533,-1.03348,-0.686761,-0.138582,0.142434,-1.64565,-0.454842,-0.898765,0.802475
23,45,-1.0472,-0.698132,-0.174533,0.174533,-1.03348,-0.686761,-0.138582,0.142434,-1.64565,-0.454842,-0.898765,0.802475
23,45,-1.0472,-0.698132,-0.174533,0.174533,-1.03348,-0.686761,-0.138582,0.142434,-1.64565,-0.454842,-0.898765,0.802475
23,45,-1.0472,-0.698132,-0.174533,0.174533,-1.03348,-0.686761,-0.138582,0.142434,-1.64565,-0.454842,-0.898765,0.802475
23,45,-1.0472,-0.698132,-0.174533,0.174533,-1.03348,-0.686761,-0.138582,0.142434,-1.64565,-0.454842,-0.898765,0.802475
23,45,-1.0472,-0.698132,-0.174533,0.174533,-1.03348,-0.686761,-0.138582,0.142434,-1.64565,-0.454842,-0.898765,0.802475
23,45,-1.0472,-0.698132,-0.174533,0.174533,-1.03348,-0.686761,-0.138582,0.142434,-1.64565,-0.454842,-0.898765,0.802475
23,45,-1.0472,-0.698132,-0.174533,0.174533,-1.03348,-0.686761,-0.138582,0.142434,-1.64565,-0.454842,-0.898765,0.802475
23,45,-1.0472,-0.698132,-0.174533,0.174533,-1.03348,-0.686761,-0.138582,0.142434,-1.64565,-0.454842,-0.898765,0.802475
23,45,-1.0472,-0.698132,-0.174533,0.174533,-1.03348,-0.686761,-0.138582,0.142434,-1.64565,-0.454842,-0.898765,0.802475
23,45,-1.0472,-0.698132,-0.174533,0.174533,-1.03348,-0.686761,-0.138582,0.142434,-1.64565,-0.454842,-0.898765,0.802475
23,45,-1.0472,-0.698132,-0.174533,0.174533,-1.03348,-0.686761,-0.138582,0.142434,-1.64565,-0.454842,-0.898765,0.802475
23,45,-1.0472,-0.698132,-0.174533,0.174533,-1.03348,-0.686761,-0.138582,0.142434,-1.64565,-0.454842,-0.898765,0.802475
23,45,-1.0472,-0.698132,-0.174533,0.174533,-1.03348,-0.686761,-0.138582,0.142434,-1.64565,-0.454842,-0.898765,0.802475
23,45,-1.0472,-0.698132,-0.174533,0.174533,-1.03348,-0.686761,-0.138582,0.142434,-1.64565,-0.454842,-0.898765,0.802475
23,45,-1.0472,-0.698132,-0.174533,0.174533,-1.03348,-0.686761,-0.138582,0.142434,-1.64565,-0.454842,-0.898765,0.802475
23,45,-1.0472,-0.698132,-0.174533,0.174533,-1.03348,-0.686761,-0.138582,0.142434,-1.64565,-0.454842,-0.898765,0.802475
