stim_pw [us],stim_amp [mA],com_elbow_fe [rad],com_forearm_ps [rad],com_wrist_fe [rad],com_wrist_ru [rad],act_elbow_fe [rad],act_forearm_ps [rad],act_wrist_fe [rad],act_wrist_ru [rad],elbow_fe_trq [Nm],forearm_ps_trq [Nm],wrist_fe_trq [Nm],wrist_ru_trq [Nm]
28,60,-1.0472,-0.698132,0.174533,-0.174533,-1.04587,-0.691438,0.165207,-0.191689,-0.26589,-0.374845,0.279942,0.514815
28,60,-1.0472,-0.698132,0.174533,-0.174533,-1.04587,-0.691438,0.165149,-0.191719,-0.26589,-0.374845,0.281626,0.515693
28,60,-1.0472,-0.698132,0.174533,-0.174533,-1.04587,-0.691438,0.165149,-0.191719,-0.26589,-0.374845,0.281626,0.515693
28,60,-1.0472,-0.698132,0.174533,-0.174533,-1.04587,-0.691438,0.165149,-0.191719,-0.26589,-0.374845,0.281626,0.515693
28,60,-1.0472,-0.698132,0.174533,-0.174533,-1.04587,-0.691438,0.165149,-0.191719,-0.26589,-0.374845,0.281626,0.515693
28,60,-1.0472,-0.698132,0.174533,-0.174533,-1.04587,-0.691438,0.165149,-0.191719,-0.26589,-0.374845,0.281626,0.515693
28,60,-1.0472,-0.698132,0.174533,-0.174533,-1.04587,-0.691438,0.165149,-0.191719,-0.26589,-0.374845,0.281626,0.515693
28,60,-1.0472,-0.698132,0.174533,-0.174533,-1.04587,-0.691438,0.165149,-0.191719,-0.26589,-0.374845,0.281626,0.515693
28,60,-1.0472,-0.698132,0.174533,-0.174533,-1.04587,-0.691438,0.165149,-0.191719,-0.26589,-0.374845,0.281626,0.515693
28,60,-1.0472,-0.698132,0.174533,-0.174533,-1.04587,-0.691438,0.165149,-0.191719,-0.26589,-0.374845,0.281626,0.515693
28,60,-1.0472,-0.698132,0.174533,-0.174533,-1.04587,-0.691438,0.165149,-0.191719,-0.26589,-0.374845,0.281626,0.515693
28,60,-1.0472,-0.698132,0.174533,-0.174533,-1.04587,-0.691438,0.165149,-0.191719,-0.26589,-0.374845,0.281626,0.515693
28,60,-1.0472,-0.698132,0.174533,-0.174533,-1.04587,-0.691438,0.165149,-0.191719,-0.26589,-0.374845,0.281626,0.515693
28,60,-1.0472,-0.698132,0.174533,-0.174533,-1.04587,-0.691438,0.165149,-0.191719,-0.26589,-0.374845,0.281626,0.515693
28,60,-1.0472,-0.698132,0.174533,-0.174533,-1.04587,-0.691438,0.165149,-0.191719,-0.26589,-0.374845,0.281626,0.515693
28,60,-1.0472,-0.698132,0.174533,-0.174533,-1.04587,-0.691438,0.165149,-0.191719,-0.26589,-0.374845,0.281626,0.515693
28,60,-1.0472,-0.698132,0.174533,-0.174533,-1.04587,-0.691438,0.165149,-0.191719,-0.26589,-0.374845,0.281626,0.515693
28,60,-1.0472,-0.698132,0.174533,-0.174533,-1.04587,-0.691438,0.165149,-0.191719,-0.26589,-0.374845,0.281626,0.515693
28,60,-1.0472,-0.698132,0.174533,-0.174533,-1.04587,-0.691438,0.165149,-0.191719,-0.26589,-0.374845,0.281626,0.515693
28,60,-1.0472,-0.698132,0.174533,-0.174533,-1.04587,-0.691438,0.165091,-0.191749,-0.26589,-0.374845,0.283349,0.516592
28,60,-1.0472,-0.698132,0.174533,-0.174533,-1.04587,-0.691438,0.165091,-0.191749,-0.26589,-0.374845,0.283349,0.516592
28,60,-1.0472,-0.698132,0.174533,-0.174533,-1.04587,-0.691438,0.165091,-0.191749,-0.26589,-0.374845,0.283349,0.516592
28,60,-1.0472,-0.698132,0.174533,-0.174533,-1.04587,-0.691438,0.165091,-0.191749,-0.26589,-0.374845,0.283349,0.516592
28,60,-1.0472,-0.698132,0.174533,-0.174533,-1.04587,-0.691438,0.165091,-0.191749,-0.26589,-0.374845,0.283349,0.516592
28,60,-1.0472,-0.698132,0.174533,-0.174533,-1.04587,-0.691438,0.165091,-0.191749,-0.26589,-0.374845,0.283349,0.516592
28,60,-1.0472,-0.698132,0.174533,-0.174533,-1.04587,-0.691438,0.165091,-0.191749,-0.26589,-0.374845,0.283349,0.516592
28,60,-1.0472,-0.698132,0.174533,-0.174533,-1.04587,-0.691438,0.165091,-0.191749,-0.26589,-0.374845,0.283349,0.516592
28,60,-1.0472,-0.698132,0.174533,-0.174533,-1.04587,-0.691438,0.165091,-0.191749,-0.26589,-0.374845,0.283349,0.516592
28,60,-1.0472,-0.698132,0.174533,-0.174533,-1.04587,-0.691438,0.165091,-0.191749,-0.26589,-0.374845,0.283349,0.516592
28,60,-1.0472,-0.698132,0.174533,-0.174533,-1.04587,-0.691438,0.165091,-0.191749,-0.26589,-0.374845,0.283349,0.516592
28,60,-1.0472,-0.698132,0.174533,-0.174533,-1.04587,-0.691438,0.165091,-0.191749,-0.26589,-0.374845,0.283349,0.516592
28,60,-1.0472,-0.698132,0.174533,-0.174533,-1.04587,-0.691438,0.165091,-0.191749,-0.26589,-0.374845,0.283349,0.516592
28,60,-1.0472,-0.698132,0.174533,-0.174533,-1.04587,-0.691438,0.165091,-0.191749,-0.26589,-0.374845,0.283349,0.516592
28,60,-1.0472,-0.698132,0.174533,-0.174533,-1.04587,-0.691438,0.165091,-0.191749,-0.26589,-0.374845,0.283349,0.516592
28,60,-1.0472,-0.698132,0.174533,-0.174533,-1.04587,-0.691438,0.165091,-0.191749,-0.26589,-0.374845,0.283349,0.516592
28,60,-1.0472,-0.698132,0.174533,-0.174533,-1.04587,-0.691438,0.165091,-0.191749,-0.26589,-0.374845,0.283349,0.516592
28,60,-1.0472,-0.698132,0.174533,-0.174533,-1.04587,-0.691438,0.165091,-0.191749,-0.26589,-0.374845,0.283349,0.516592
28,60,-1.0472,-0.698132,0.174533,-0.174533,-1.04587,-0.691438,0.165091,-0.191749,-0.26589,-0.374845,0.283349,0.516592
28,60,-1.0472,-0.698132,0.174533,-0.174533,-1.04587,-0.691438,0.165091,-0.191749,-0.26589,-0.374845,0.283349,0.516592
28,60,-1.0472,-0.698132,0.174533,-0.174533,-1.04587,-0.691438,0.165091,-0.191749,-0.26589,-0.374845,0.283349,0.516592
28,60,-1.0472,-0.698132,0.174533,-0.174533,-1.04587,-0.691438,0.165091,-0.191749,-0.26589,-0.374845,0.283349,0.516592
28,60,-1.0472,-0.698132,0.174533,-0.174533,-1.04587,-0.691438,0.165091,-0.191749,-0.26589,-0.374845,0.283349,0.516592
28,60,-1.0472,-0.698132,0.174533,-0.174533,-1.04587,-0.691438,0.165091,-0.191749,-0.26589,-0.374845,0.283349,0.516592
28,60,-1.0472,-0.698132,0.174533,-0.174533,-1.04587,-0.691438,0.165091,-0.191749,-0.26589,-0.374845,0.283349,0.516592
28,60,-1.0472,-0.698132,0.174533,-0.174533,-1.04587,-0.691438,0.165091,-0.191749,-0.26589,-0.374845,0.283349,0.516592
28,60,-1.0472,-0.698132,0.174533,-0.174533,-1.04587,-0.691438,0.165091,-0.191749,-0.26589,-0.374845,0.283349,0.516592
28,60,-1.0472,-0.698132,0.174533,-0.174533,-1.04587,-0.691438,0.165091,-0.191749,-0.26589,-0.374845,0.283349,0.516592
28,60,-1.0472,-0.698132,0.174533,-0.174533,-1.04587,-0.691438,0.165091,-0.191749,-0.26589,-0.374845,0.283349,0.516592
28,60,-1.0472,-0.698132,0.174533,-0.174533,-1.04587,-0.691438,0.165091,-0.191749,-0.26589,-0.374845,0.283349,0.516592
28,60,-1.0472,-0.698132,0.174533,-0.174533,-1.04587,-0.691438,0.165091,-0.191749,-0.26589,-0.374845,0.283349,0.516592
28,60,-1.0472,-0.698132,0.174533,-0.174533,-1.04587,-0.691438,0.165091,-0.191749,-0.26589,-0.374845,0.28335,0.516591
28,60,-1.0472,-0.698132,0.174533,-0.174533,-1.04587,-0.691438,0.165091,-0.191749,-0.26589,-0.374845,0.28335,0.516591
28,60,-1.0472,-0.698132,0.174533,-0.174533,-1.04587,-0.691438,0.165091,-0.191749,-0.26589,-0.374845,0.283351,0.516591
28,60,-1.0472,-0.698132,0.174533,-0.174533,-1.04587,-0.691438,0.165091,-0.191749,-0.26589,-0.374845,0.283352,0.51659
28,60,-1.0472,-0.698132,0.174533,-0.174533,-1.04587,-0.691438,0.165091,-0.191749,-0.26589,-0.374845,0.283352,0.51659
28,60,-1.0472,-0.698132,0.174533,-0.174533,-1.04587,-0.691438,0.165091,-0.191749,-0.26589,-0.374845,0.283353,0.51659
28,60,-1.0472,-0.698132,0.174533,-0.174533,-1.04587,-0.691438,0.165091,-0.191749,-0.26589,-0.374845,0.283354,0.51659
28,60,-1.0472,-0.698132,0.174533,-0.174533,-1.04587,-0.691438,0.165091,-0.191749,-0.26589,-0.374845,0.283354,0.51659
28,60,-1.0472,-0.698132,0.174533,-0.174533,-1.04587,-0.691438,0.165091,-0.191749,-0.26589,-0.374845,0.283355,0.516589
28,60,-1.0472,-0.698132,0.174533,-0.174533,-1.04587,-0.691438,0.165091,-0.191749,-0.26589,-0.374845,0.283355,0.516589
28,60,-1.0472,-0.698132,0.174533,-0.174533,-1.04587,-0.691438,0.165091,-0.191749,-0.26589,-0.374845,0.283356,0.516589
28,60,-1.0472,-0.698132,0.174533,-0.174533,-1.04587,-0.691438,0.165091,-0.191749,-0.26589,-0.374845,0.283356,0.516589
28,60,-1.0472,-0.698132,0.174533,-0.174533,-1.04587,-0.691438,0.165091,-0.191749,-0.26589,-0.374845,0.283357,0.516588
28,60,-1.0472,-0.698132,0.174533,-0.174533,-1.04587,-0.691438,0.165164,-0.191778,-0.26589,-0.374845,0.281186,0.517458
28,60,-1.0472,-0.698132,0.174533,-0.174533,-1.04587,-0.691438,0.165164,-0.191778,-0.26589,-0.374845,0.281186,0.517458
28,60,-1.0472,-0.698132,0.174533,-0.174533,-1.04587,-0.691438,0.165164,-0.191778,-0.26589,-0.374845,0.281186,0.517458
28,60,-1.0472,-0.698132,0.174533,-0.174533,-1.04587,-0.691438,0.165164,-0.191778,-0.26589,-0.374845,0.281186,0.517458
28,60,-1.0472,-0.698132,0.174533,-0.174533,-1.04587,-0.691438,0.165164,-0.191778,-0.26589,-0.374845,0.281186,0.517458
28,60,-1.0472,-0.698132,0.174533,-0.174533,-1.04587,-0.691438,0.165164,-0.191778,-0.26589,-0.374845,0.281186,0.517458
28,60,-1.0472,-0.698132,0.174533,-0.174533,-1.04587,-0.691438,0.165164,-0.191778,-0.26589,-0.374845,0.281186,0.517458
28,60,-1.0472,-0.698132,0.174533,-0.174533,-1.04587,-0.691438,0.165164,-0.191778,-0.26589,-0.374845,0.281186,0.517458
28,60,-1.0472,-0.698132,0.174533,-0.174533,-1.04587,-0.691438,0.165164,-0.191778,-0.26589,-0.374845,0.281186,0.517458
28,60,-1.0472,-0.698132,0.174533,-0.174533,-1.04587,-0.691438,0.165164,-0.191778,-0.26589,-0.374845,0.281186,0.517458
28,60,-1.0472,-0.698132,0.174533,-0.174533,-1.04587,-0.691438,0.165164,-0.191778,-0.26589,-0.374845,0.281186,0.517458
28,60,-1.0472,-0.698132,0.174533,-0.174533,-1.04587,-0.691438,0.165164,-0.191778,-0.26589,-0.374845,0.281186,0.517458
28,60,-1.0472,-0.698132,0.174533,-0.174533,-1.04587,-0.691438,0.165164,-0.191778,-0.26589,-0.374845,0.281186,0.517458
28,60,-1.0472,-0.698132,0.174533,-0.174533,-1.04587,-0.691438,0.165164,-0.191778,-0.26589,-0.374845,0.281186,0.517458
28,60,-1.0472,-0.698132,0.174533,-0.174533,-1.04587,-0.691438,0.165164,-0.191778,-0.26589,-0.374845,0.281186,0.517458
28,60,-1.0472,-0.698132,0.174533,-0.174533,-1.04587,-0.691438,0.165164,-0.191778,-0.26589,-0.374845,0.281186,0.517458
28,60,-1.0472,-0.698132,0.174533,-0.174533,-1.04587,-0.691438,0.165164,-0.191778,-0.26589,-0.374845,0.281186,0.517458
28,60,-1.0472,-0.698132,0.174533,-0.174533,-1.04587,-0.691438,0.165164,-0.191778,-0.26589,-0.374845,0.281186,0.517458
28,60,-1.0472,-0.698132,0.174533,-0.174533,-1.04587,-0.691438,0.165164,-0.191778,-0.26589,-0.374845,0.281186,0.517458
28,60,-1.0472,-0.698132,0.174533,-0.174533,-1.04587,-0.691438,0.165164,-0.191778,-0.26589,-0.374845,0.281186,0.517458
28,60,-1.0472,-0.698132,0.174533,-0.174533,-1.04587,-0.691438,0.165164,-0.191778,-0.26589,-0.374845,0.281186,0.517458
28,60,-1.0472,-0.698132,0.174533,-0.174533,-1.04587,-0.691438,0.165164,-0.191778,-0.26589,-0.374845,0.281186,0.517458
28,60,-1.0472,-0.698132,0.174533,-0.174533,-1.04587,-0.691438,0.165164,-0.191778,-0.26589,-0.374845,0.281186,0.517458
28,60,-1.0472,-0.698132,0.174533,-0.174533,-1.04587,-0.691438,0.165164,-0.191778,-0.26589,-0.374845,0.281186,0.517458
28,60,-1.0472,-0.698132,0.174533,-0.174533,-1.04587,-0.691438,0.165164,-0.191778,-0.26589,-0.374845,0.281186,0.517458
28,60,-1.0472,-0.698132,0.174533,-0.174533,-1.04587,-0.691438,0.165164,-0.191778,-0.26589,-0.374845,0.281186,0.517458
28,60,-1.0472,-0.698132,0.174533,-0.174533,-1.04587,-0.691438,0.165236,-0.191807,-0.26589,-0.374845,0.279016,0.518328
28,60,-1.0472,-0.698132,0.174533,-0.174533,-1.04587,-0.691438,0.165236,-0.191807,-0.26589,-0.374845,0.279016,0.518328
28,60,-1.0472,-0.698132,0.174533,-0.174533,-1.04587,-0.691438,0.165236,-0.191807,-0.26589,-0.374845,0.279016,0.518328
28,60,-1.0472,-0.698132,0.174533,-0.174533,-1.04587,-0.691438,0.165236,-0.191807,-0.26589,-0.374845,0.279016,0.518328
28,60,-1.0472,-0.698132,0.174533,-0.174533,-1.04587,-0.691438,0.165236,-0.191807,-0.26589,-0.374845,0.279016,0.518328
28,60,-1.0472,-0.698132,0.174533,-0.174533,-1.04587,-0.691438,0.165236,-0.191807,-0.26589,-0.374845,0.279016,0.518328
28,60,-1.0472,-0.698132,0.174533,-0.174533,-1.04587,-0.691438,0.165236,-0.191807,-0.26589,-0.374845,0.279016,0.518328
28,60,-1.0472,-0.698132,0.174533,-0.174533,-1.04587,-0.691438,0.165236,-0.191807,-0.26589,-0.374845,0.279016,0.518328
28,60,-1.0472,-0.698132,0.174533,-0.174533,-1.04587,-0.691438,0.165236,-0.191807,-0.26589,-0.374845,0.279016,0.518328
28,60,-1.0472,-0.698132,0.174533,-0.174533,-1.04587,-0.691438,0.165236,-0.191807,-0.26589,-0.374845,0.279016,0.518328
28,60,-1.0472,-0.698132,0.174533,-0.174533,-1.04587,-0.691438,0.165236,-0.191807,-0.26589,-0.374845,0.279016,0.518328
28,60,-1.0472,-0.698132,0.174533,-0.174533,-1.04587,-0.691438,0.165236,-0.191807,-0.26589,-0.374845,0.279016,0.518328
28,60,-1.0472,-0.698132,0.174533,-0.174533,-1.04587,-0.691438,0.165236,-0.191807,-0.26589,-0.374845,0.279016,0.518328
28,60,-1.0472,-0.698132,0.174533,-0.174533,-1.04587,-0.691438,0.165236,-0.191807,-0.26589,-0.374845,0.279016,0.518328
28,60,-1.0472,-0.698132,0.174533,-0.174533,-1.04587,-0.691438,0.165236,-0.191807,-0.26589,-0.374845,0.279016,0.518328
28,60,-1.0472,-0.698132,0.174533,-0.174533,-1.04587,-0.691438,0.165236,-0.191807,-0.26589,-0.374845,0.279016,0.518328
28,60,-1.0472,-0.698132,0.174533,-0.174533,-1.04587,-0.691438,0.165236,-0.191807,-0.26589,-0.374845,0.279016,0.518328
28,60,-1.0472,-0.698132,0.174533,-0.174533,-1.04587,-0.691438,0.165236,-0.191807,-0.26589,-0.374845,0.279016,0.518328
28,60,-1.0472,-0.698132,0.174533,-0.174533,-1.04587,-0.691438,0.165236,-0.191807,-0.26589,-0.374845,0.279016,0.518328
28,60,-1.0472,-0.698132,0.174533,-0.174533,-1.04587,-0.691438,0.165236,-0.191807,-0.26589,-0.374845,0.279016,0.518328
28,60,-1.0472,-0.698132,0.174533,-0.174533,-1.04587,-0.691438,0.165236,-0.191807,-0.26589,-0.374845,0.279016,0.518328
28,60,-1.0472,-0.698132,0.174533,-0.174533,-1.04587,-0.691438,0.165236,-0.191807,-0.26589,-0.374845,0.279016,0.518328
28,60,-1.0472,-0.698132,0.174533,-0.174533,-1.04587,-0.691438,0.165236,-0.191807,-0.26589,-0.374845,0.279016,0.518328
28,60,-1.0472,-0.698132,0.174533,-0.174533,-1.04587,-0.691438,0.165236,-0.191807,-0.26589,-0.374845,0.279016,0.518328
28,60,-1.0472,-0.698132,0.174533,-0.174533,-1.04587,-0.691438,0.165236,-0.191807,-0.26589,-0.374845,0.279016,0.518328
28,60,-1.0472,-0.698132,0.174533,-0.174533,-1.04587,-0.691438,0.165236,-0.191807,-0.26589,-0.374845,0.279016,0.518328
28,60,-1.0472,-0.698132,0.174533,-0.174533,-1.04587,-0.691438,0.165236,-0.191807,-0.26589,-0.374845,0.279016,0.518328
28,60,-1.0472,-0.698132,0.174533,-0.174533,-1.04587,-0.691438,0.165236,-0.191807,-0.26589,-0.374845,0.279016,0.518328
28,60,-1.0472,-0.698132,0.174533,-0.174533,-1.04587,-0.691438,0.165236,-0.191807,-0.26589,-0.374845,0.279016,0.518328
28,60,-1.0472,-0.698132,0.174533,-0.174533,-1.04587,-0.691438,0.165236,-0.191807,-0.26589,-0.374845,0.279016,0.518328
28,60,-1.0472,-0.698132,0.174533,-0.174533,-1.04587,-0.691438,0.165236,-0.191807,-0.26589,-0.374845,0.279016,0.518328
28,60,-1.0472,-0.698132,0.174533,-0.174533,-1.04587,-0.691438,0.165236,-0.191807,-0.26589,-0.374845,0.279016,0.518328
28,60,-1.0472,-0.698132,0.174533,-0.174533,-1.04587,-0.691438,0.165236,-0.191807,-0.26589,-0.374845,0.279016,0.518328
28,60,-1.0472,-0.698132,0.174533,-0.174533,-1.04587,-0.691438,0.165236,-0.191807,-0.26589,-0.374845,0.279016,0.518328
28,60,-1.0472,-0.698132,0.174533,-0.174533,-1.04587,-0.691438,0.165236,-0.191807,-0.26589,-0.374845,0.279016,0.518328
28,60,-1.0472,-0.698132,0.174533,-0.174533,-1.04587,-0.691438,0.165236,-0.191807,-0.26589,-0.374845,0.279016,0.518328
28,60,-1.0472,-0.698132,0.174533,-0.174533,-1.04587,-0.691438,0.165236,-0.191807,-0.26589,-0.374845,0.279016,0.518328
28,60,-1.0472,-0.698132,0.174533,-0.174533,-1.04587,-0.691438,0.165236,-0.191807,-0.26589,-0.374845,0.279016,0.518328
28,60,-1.0472,-0.698132,0.174533,-0.174533,-1.04587,-0.691438,0.165236,-0.191807,-0.26589,-0.374845,0.279016,0.518328
28,60,-1.0472,-0.698132,0.174533,-0.174533,-1.04587,-0.691438,0.165236,-0.191807,-0.26589,-0.374845,0.279016,0.518328
28,60,-1.0472,-0.698132,0.174533,-0.174533,-1.04587,-0.691438,0.165236,-0.191807,-0.26589,-0.374845,0.279016,0.518328
28,60,-1.0472,-0.698132,0.174533,-0.174533,-1.04587,-0.691438,0.165236,-0.191807,-0.26589,-0.374845,0.279016,0.518328
28,60,-1.0472,-0.698132,0.174533,-0.174533,-1.04587,-0.691438,0.165236,-0.191807,-0.26589,-0.374845,0.279016,0.518328
28,60,-1.0472,-0.698132,0.174533,-0.174533,-1.04587,-0.691438,0.165236,-0.191807,-0.26589,-0.374845,0.279016,0.518328
28,60,-1.0472,-0.698132,0.174533,-0.174533,-1.04587,-0.691438,0.165236,-0.191807,-0.26589,-0.374845,0.279016,0.518328
28,60,-1.0472,-0.698132,0.174533,-0.174533,-1.04587,-0.691438,0.165236,-0.191807,-0.26589,-0.374845,0.279016,0.518328
28,60,-1.0472,-0.698132,0.174533,-0.174533,-1.04587,-0.691438,0.165236,-0.191807,-0.26589,-0.374845,0.279016,0.518328
28,60,-1.0472,-0.698132,0.174533,-0.174533,-1.04587,-0.691438,0.165236,-0.191807,-0.26589,-0.374845,0.279016,0.518328
28,60,-1.0472,-0.698132,0.174533,-0.174533,-1.04587,-0.691438,0.165236,-0.191807,-0.26589,-0.374845,0.279016,0.518328
28,60,-1.0472,-0.698132,0.174533,-0.174533,-1.04587,-0.691438,0.165236,-0.191807,-0.26589,-0.374845,0.279016,0.518328
28,60,-1.0472,-0.698132,0.174533,-0.174533,-1.04587,-0.691438,0.165236,-0.191807,-0.26589,-0.374845,0.279016,0.518328
28,60,-1.0472,-0.698132,0.174533,-0.174533,-1.04587,-0.691438,0.165236,-0.191807,-0.26589,-0.374845,0.279016,0.518328
28,60,-1.0472,-0.698132,0.174533,-0.174533,-1.04587,-0.691438,0.165236,-0.191807,-0.26589,-0.374845,0.279016,0.518328
28,60,-1.0472,-0.698132,0.174533,-0.174533,-1.04587,-0.691438,0.165236,-0.191807,-0.26589,-0.374845,0.279016,0.518328
28,60,-1.0472,-0.698132,0.174533,-0.174533,-1.04587,-0.691438,0.165236,-0.191807,-0.26589,-0.374845,0.279016,0.518328
28,60,-1.0472,-0.698132,0.174533,-0.174533,-1.04587,-0.691438,0.165236,-0.191807,-0.26589,-0.374845,0.279016,0.518328
28,60,-1.0472,-0.698132,0.174533,-0.174533,-1.04587,-0.691438,0.165236,-0.191807,-0.26589,-0.374845,0.279016,0.518328
28,60,-1.0472,-0.698132,0.174533,-0.174533,-1.04587,-0.691438,0.165236,-0.191807,-0.26589,-0.374845,0.279016,0.518328
28,60,-1.0472,-0.698132,0.174533,-0.174533,-1.04587,-0.691438,0.165236,-0.191807,-0.26589,-0.374845,0.279016,0.518328
28,60,-1.0472,-0.698132,0.174533,-0.174533,-1.04587,-0.691438,0.165236,-0.191807,-0.26589,-0.374845,0.279016,0.518328
28,60,-1.0472,-0.698132,0.174533,-0.174533,-1.04587,-0.691438,0.165236,-0.191807,-0.26589,-0.374845,0.279016,0.518328
28,60,-1.0472,-0.698132,0.174533,-0.174533,-1.04587,-0.691438,0.165236,-0.191807,-0.26589,-0.374845,0.279016,0.518328
28,60,-1.0472,-0.698132,0.174533,-0.174533,-1.04587,-0.691438,0.165236,-0.191807,-0.26589,-0.374845,0.279016,0.518328
28,60,-1.0472,-0.698132,0.174533,-0.174533,-1.04587,-0.691438,0.165236,-0.191807,-0.26589,-0.374845,0.279016,0.518328
28,60,-1.0472,-0.698132,0.174533,-0.174533,-1.04587,-0.691438,0.165236,-0.191807,-0.26589,-0.374845,0.279016,0.518328
28,60,-1.0472,-0.698132,0.174533,-0.174533,-1.04587,-0.691438,0.165236,-0.191807,-0.26589,-0.374845,0.279016,0.518328
28,60,-1.0472,-0.698132,0.174533,-0.174533,-1.04587,-0.691438,0.165236,-0.191807,-0.26589,-0.374845,0.279016,0.518328
28,60,-1.0472,-0.698132,0.174533,-0.174533,-1.04587,-0.691438,0.165236,-0.191807,-0.26589,-0.374845,0.279016,0.518328
28,60,-1.0472,-0.698132,0.174533,-0.174533,-1.04587,-0.691438,0.165236,-0.191807,-0.26589,-0.374845,0.279016,0.518328
28,60,-1.0472,-0.698132,0.174533,-0.174533,-1.04587,-0.691438,0.165236,-0.191807,-0.26589,-0.374845,0.279016,0.518328
28,60,-1.0472,-0.698132,0.174533,-0.174533,-1.04587,-0.691438,0.165236,-0.191807,-0.26589,-0.374845,0.279016,0.518328
28,60,-1.0472,-0.698132,0.174533,-0.174533,-1.04587,-0.691438,0.165236,-0.191807,-0.26589,-0.374845,0.279016,0.518328
28,60,-1.0472,-0.698132,0.174533,-0.174533,-1.04587,-0.691438,0.165236,-0.191807,-0.26589,-0.374845,0.279016,0.518328
28,60,-1.0472,-0.698132,0.174533,-0.174533,-1.04587,-0.691438,0.165236,-0.191807,-0.26589,-0.374845,0.279016,0.518328
28,60,-1.0472,-0.698132,0.174533,-0.174533,-1.04587,-0.691438,0.165236,-0.191807,-0.26589,-0.374845,0.279016,0.518328
28,60,-1.0472,-0.698132,0.174533,-0.174533,-1.04587,-0.691438,0.165236,-0.191807,-0.26589,-0.374845,0.279016,0.518328
28,60,-1.0472,-0.698132,0.174533,-0.174533,-1.04587,-0.691438,0.165236,-0.191807,-0.26589,-0.374845,0.279016,0.518328
28,60,-1.0472,-0.698132,0.174533,-0.174533,-1.04587,-0.691438,0.165236,-0.191807,-0.26589,-0.374845,0.279016,0.518328
28,60,-1.0472,-0.698132,0.174533,-0.174533,-1.04587,-0.691438,0.165236,-0.191807,-0.26589,-0.374845,0.279016,0.518328
28,60,-1.0472,-0.698132,0.174533,-0.174533,-1.04587,-0.691438,0.165236,-0.191807,-0.26589,-0.374845,0.279016,0.518328
28,60,-1.0472,-0.698132,0.174533,-0.174533,-1.04587,-0.691438,0.165236,-0.191807,-0.26589,-0.374845,0.279016,0.518328
28,60,-1.0472,-0.698132,0.174533,-0.174533,-1.04587,-0.691438,0.165236,-0.191807,-0.26589,-0.374845,0.279016,0.518328
28,60,-1.0472,-0.698132,0.174533,-0.174533,-1.04587,-0.691438,0.165236,-0.191807,-0.26589,-0.374845,0.279016,0.518328
28,60,-1.0472,-0.698132,0.174533,-0.174533,-1.04587,-0.691438,0.165236,-0.191807,-0.26589,-0.374845,0.279016,0.518328
28,60,-1.0472,-0.698132,0.174533,-0.174533,-1.04587,-0.691438,0.165236,-0.191807,-0.26589,-0.374845,0.279016,0.518328
28,60,-1.0472,-0.698132,0.174533,-0.174533,-1.04587,-0.691438,0.165236,-0.191807,-0.26589,-0.374845,0.279016,0.518328
28,60,-1.0472,-0.698132,0.174533,-0.174533,-1.04587,-0.691438,0.165236,-0.191807,-0.26589,-0.374845,0.279016,0.518328
28,60,-1.0472,-0.698132,0.174533,-0.174533,-1.04587,-0.691438,0.165236,-0.191807,-0.26589,-0.374845,0.279016,0.518328
28,60,-1.0472,-0.698132,0.174533,-0.174533,-1.04587,-0.691438,0.165236,-0.191807,-0.26589,-0.374845,0.279016,0.518328
28,60,-1.0472,-0.698132,0.174533,-0.174533,-1.04587,-0.691438,0.165236,-0.191807,-0.26589,-0.374845,0.279016,0.518328
28,60,-1.0472,-0.698132,0.174533,-0.174533,-1.04587,-0.691438,0.165236,-0.191807,-0.26589,-0.374845,0.279016,0.518328
28,60,-1.0472,-0.698132,0.174533,-0.174533,-1.04587,-0.691438,0.165236,-0.191807,-0.26589,-0.374845,0.279016,0.518328
28,60,-1.0472,-0.698132,0.174533,-0.174533,-1.04587,-0.691438,0.165236,-0.191807,-0.26589,-0.374845,0.279016,0.518328
28,60,-1.0472,-0.698132,0.174533,-0.174533,-1.04587,-0.691438,0.165236,-0.191807,-0.26589,-0.374845,0.279016,0.518328
28,60,-1.0472,-0.698132,0.174533,-0.174533,-1.04587,-0.691438,0.165236,-0.191807,-0.26589,-0.374845,0.279016,0.518328
28,60,-1.0472,-0.698132,0.174533,-0.174533,-1.04587,-0.691438,0.165236,-0.191807,-0.26589,-0.374845,0.279016,0.518328
28,60,-1.0472,-0.698132,0.174533,-0.174533,-1.04587,-0.691438,0.165236,-0.191807,-0.26589,-0.374845,0.279016,0.518328
28,60,-1.0472,-0.698132,0.174533,-0.174533,-1.04587,-0.691438,0.165236,-0.191807,-0.26589,-0.374845,0.279016,0.518328
28,60,-1.0472,-0.698132,0.174533,-0.174533,-1.04587,-0.691438,0.165236,-0.191807,-0.26589,-0.374845,0.279016,0.518328
28,60,-1.0472,-0.698132,0.174533,-0.174533,-1.04587,-0.691438,0.165236,-0.191807,-0.26589,-0.374845,0.279016,0.518328
28,60,-1.0472,-0.698132,0.174533,-0.174533,-1.04587,-0.691438,0.165236,-0.191807,-0.26589,-0.374845,0.279016,0.518328
28,60,-1.0472,-0.698132,0.174533,-0.174533,-1.04587,-0.691438,0.165236,-0.191807,-0.26589,-0.374845,0.279016,0.518328
28,60,-1.0472,-0.698132,0.174533,-0.174533,-1.04587,-0.691438,0.165236,-0.191807,-0.26589,-0.374845,0.279016,0.518328
28,60,-1.0472,-0.698132,0.174533,-0.174533,-1.04587,-0.691438,0.165236,-0.191807,-0.26589,-0.374845,0.279016,0.518328
28,60,-1.0472,-0.698132,0.174533,-0.174533,-1.04587,-0.691438,0.165236,-0.191807,-0.26589,-0.374845,0.279016,0.518328
28,60,-1.0472,-0.698132,0.174533,-0.174533,-1.04587,-0.691438,0.165236,-0.191807,-0.26589,-0.374845,0.279016,0.518328
28,60,-1.0472,-0.698132,0.174533,-0.174533,-1.04587,-0.691438,0.165236,-0.191807,-0.26589,-0.374845,0.279016,0.518328
28,60,-1.0472,-0.698132,0.174533,-0.174533,-1.04587,-0.691438,0.165236,-0.191807,-0.26589,-0.374845,0.279016,0.518328
28,60,-1.0472,-0.698132,0.174533,-0.174533,-1.04587,-0.691438,0.165236,-0.191807,-0.26589,-0.374845,0.279016,0.518328
28,60,-1.0472,-0.698132,0.174533,-0.174533,-1.04587,-0.691438,0.165236,-0.191807,-0.26589,-0.374845,0.279016,0.518328
28,60,-1.0472,-0.698132,0.174533,-0.174533,-1.04587,-0.691438,0.165236,-0.191807,-0.26589,-0.374845,0.279016,0.518328
28,60,-1.0472,-0.698132,0.174533,-0.174533,-1.04587,-0.691438,0.165236,-0.191807,-0.26589,-0.374845,0.279016,0.518328
28,60,-1.0472,-0.698132,0.174533,-0.174533,-1.04587,-0.691438,0.165236,-0.191807,-0.26589,-0.374845,0.279017,0.518328
28,60,-1.0472,-0.698132,0.174533,-0.174533,-1.04587,-0.691438,0.165236,-0.191807,-0.26589,-0.374845,0.279017,0.518328
28,60,-1.0472,-0.698132,0.174533,-0.174533,-1.04587,-0.691438,0.165236,-0.191807,-0.26589,-0.374845,0.279017,0.518328
28,60,-1.0472,-0.698132,0.174533,-0.174533,-1.04587,-0.691438,0.165236,-0.191807,-0.26589,-0.374845,0.279017,0.518328
28,60,-1.0472,-0.698132,0.174533,-0.174533,-1.04587,-0.691438,0.165236,-0.191807,-0.26589,-0.374845,0.279018,0.518328
28,60,-1.0472,-0.698132,0.174533,-0.174533,-1.04587,-0.691438,0.165236,-0.191807,-0.26589,-0.374845,0.279018,0.518328
28,60,-1.0472,-0.698132,0.174533,-0.174533,-1.04587,-0.691438,0.165236,-0.191807,-0.26589,-0.374845,0.279018,0.518327
28,60,-1.0472,-0.698132,0.174533,-0.174533,-1.04587,-0.691438,0.165236,-0.191807,-0.26589,-0.374845,0.279018,0.518327
28,60,-1.0472,-0.698132,0.174533,-0.174533,-1.04587,-0.691438,0.165236,-0.191807,-0.26589,-0.374845,0.279019,0.518327
28,60,-1.0472,-0.698132,0.174533,-0.174533,-1.04587,-0.691438,0.165236,-0.191807,-0.26589,-0.374845,0.279019,0.518327
28,60,-1.0472,-0.698132,0.174533,-0.174533,-1.04587,-0.691438,0.165236,-0.191807,-0.26589,-0.374845,0.279019,0.518327
28,60,-1.0472,-0.698132,0.174533,-0.174533,-1.04587,-0.691438,0.165236,-0.191807,-0.26589,-0.374845,0.279019,0.518327
28,60,-1.0472,-0.698132,0.174533,-0.174533,-1.04587,-0.691438,0.165236,-0.191807,-0.26589,-0.374845,0.27902,0.518327
28,60,-1.0472,-0.698132,0.174533,-0.174533,-1.04587,-0.691438,0.165236,-0.191807,-0.26589,-0.374845,0.27902,0.518327
28,60,-1.0472,-0.698132,0.174533,-0.174533,-1.04587,-0.691438,0.165236,-0.191807,-0.26589,-0.374845,0.27902,0.518327
28,60,-1.0472,-0.698132,0.174533,-0.174533,-1.04587,-0.691438,0.165236,-0.191807,-0.26589,-0.374845,0.27902,0.518327
28,60,-1.0472,-0.698132,0.174533,-0.174533,-1.04587,-0.691438,0.165236,-0.191807,-0.26589,-0.374845,0.279021,0.518327
28,60,-1.0472,-0.698132,0.174533,-0.174533,-1.04587,-0.691438,0.165236,-0.191807,-0.26589,-0.374845,0.279021,0.518326
28,60,-1.0472,-0.698132,0.174533,-0.174533,-1.04587,-0.691438,0.165236,-0.191807,-0.26589,-0.374845,0.279021,0.518326
28,60,-1.0472,-0.698132,0.174533,-0.174533,-1.04587,-0.691438,0.165236,-0.191807,-0.26589,-0.374845,0.279021,0.518326
28,60,-1.0472,-0.698132,0.174533,-0.174533,-1.04587,-0.691438,0.165236,-0.191807,-0.26589,-0.374845,0.279021,0.518326
28,60,-1.0472,-0.698132,0.174533,-0.174533,-1.04587,-0.691438,0.165236,-0.191807,-0.26589,-0.374845,0.279022,0.518326
28,60,-1.0472,-0.698132,0.174533,-0.174533,-1.04587,-0.691438,0.165236,-0.191807,-0.26589,-0.374845,0.279022,0.518326
28,60,-1.0472,-0.698132,0.174533,-0.174533,-1.04587,-0.691438,0.165236,-0.191807,-0.26589,-0.374845,0.279022,0.518326
28,60,-1.0472,-0.698132,0.174533,-0.174533,-1.04587,-0.691438,0.165236,-0.191807,-0.26589,-0.374845,0.279022,0.518326
28,60,-1.0472,-0.698132,0.174533,-0.174533,-1.04587,-0.691438,0.165236,-0.191807,-0.26589,-0.374845,0.279022,0.518326
28,60,-1.0472,-0.698132,0.174533,-0.174533,-1.04587,-0.691438,0.165236,-0.191807,-0.26589,-0.374845,0.279023,0.518326
28,60,-1.0472,-0.698132,0.174533,-0.174533,-1.04587,-0.691438,0.165236,-0.191807,-0.26589,-0.374845,0.279023,0.518326
28,60,-1.0472,-0.698132,0.174533,-0.174533,-1.04587,-0.691438,0.165236,-0.191807,-0.26589,-0.374845,0.278868,0.518245
28,60,-1.0472,-0.698132,0.174533,-0.174533,-1.04587,-0.691438,0.165236,-0.191807,-0.26589,-0.374845,0.278868,0.518245
28,60,-1.0472,-0.698132,0.174533,-0.174533,-1.04587,-0.691438,0.165236,-0.191807,-0.26589,-0.374845,0.278868,0.518244
28,60,-1.0472,-0.698132,0.174533,-0.174533,-1.04587,-0.691438,0.165236,-0.191807,-0.26589,-0.374845,0.278868,0.518244
28,60,-1.0472,-0.698132,0.174533,-0.174533,-1.04587,-0.691438,0.165236,-0.191807,-0.26589,-0.374845,0.278868,0.518244
28,60,-1.0472,-0.698132,0.174533,-0.174533,-1.04587,-0.691438,0.165236,-0.191807,-0.26589,-0.374845,0.278869,0.518244
28,60,-1.0472,-0.698132,0.174533,-0.174533,-1.04587,-0.691438,0.165236,-0.191807,-0.26589,-0.374845,0.278869,0.518244
28,60,-1.0472,-0.698132,0.174533,-0.174533,-1.04587,-0.691438,0.165236,-0.191807,-0.26589,-0.374845,0.278869,0.518244
28,60,-1.0472,-0.698132,0.174533,-0.174533,-1.04587,-0.691438,0.165236,-0.191807,-0.26589,-0.374845,0.278869,0.518244
28,60,-1.0472,-0.698132,0.174533,-0.174533,-1.04587,-0.691438,0.165236,-0.191807,-0.26589,-0.374845,0.278869,0.518244
28,60,-1.0472,-0.698132,0.174533,-0.174533,-1.04587,-0.691438,0.165236,-0.191807,-0.26589,-0.374845,0.278869,0.518244
28,60,-1.0472,-0.698132,0.174533,-0.174533,-1.04587,-0.691438,0.165236,-0.191807,-0.26589,-0.374845,0.278869,0.518244
28,60,-1.0472,-0.698132,0.174533,-0.174533,-1.04587,-0.691438,0.165236,-0.191807,-0.26589,-0.374845,0.27887,0.518244
28,60,-1.0472,-0.698132,0.174533,-0.174533,-1.04587,-0.691438,0.165236,-0.191807,-0.26589,-0.374845,0.27887,0.518244
28,60,-1.0472,-0.698132,0.174533,-0.174533,-1.04587,-0.691438,0.165236,-0.191807,-0.26589,-0.374845,0.27887,0.518244
28,60,-1.0472,-0.698132,0.174533,-0.174533,-1.04587,-0.691438,0.165236,-0.191807,-0.26589,-0.374845,0.27887,0.518244
28,60,-1.0472,-0.698132,0.174533,-0.174533,-1.04587,-0.691438,0.165236,-0.191807,-0.26589,-0.374845,0.27887,0.518244
28,60,-1.0472,-0.698132,0.174533,-0.174533,-1.04587,-0.691438,0.165236,-0.191807,-0.26589,-0.374845,0.27887,0.518244
28,60,-1.0472,-0.698132,0.174533,-0.174533,-1.04587,-0.691438,0.165236,-0.191807,-0.26589,-0.374845,0.278871,0.518243
28,60,-1.0472,-0.698132,0.174533,-0.174533,-1.04587,-0.691438,0.165236,-0.191807,-0.26589,-0.374845,0.278871,0.518243
28,60,-1.0472,-0.698132,0.174533,-0.174533,-1.04587,-0.691438,0.165236,-0.191807,-0.26589,-0.374845,0.278871,0.518243
28,60,-1.0472,-0.698132,0.174533,-0.174533,-1.04587,-0.691438,0.165236,-0.191807,-0.26589,-0.374845,0.278871,0.518243
28,60,-1.0472,-0.698132,0.174533,-0.174533,-1.04587,-0.691438,0.165236,-0.191807,-0.26589,-0.374845,0.278871,0.518243
28,60,-1.0472,-0.698132,0.174533,-0.174533,-1.04587,-0.691438,0.165236,-0.191807,-0.26589,-0.374845,0.278871,0.518243
28,60,-1.0472,-0.698132,0.174533,-0.174533,-1.04587,-0.691438,0.165236,-0.191807,-0.26589,-0.374845,0.278871,0.518243
28,60,-1.0472,-0.698132,0.174533,-0.174533,-1.04587,-0.691438,0.165236,-0.191807,-0.26589,-0.374845,0.278871,0.518243
28,60,-1.0472,-0.698132,0.174533,-0.174533,-1.04587,-0.691438,0.165236,-0.191807,-0.26589,-0.374845,0.278872,0.518243
28,60,-1.0472,-0.698132,0.174533,-0.174533,-1.04587,-0.691438,0.165236,-0.191807,-0.26589,-0.374845,0.278872,0.518243
28,60,-1.0472,-0.698132,0.174533,-0.174533,-1.04587,-0.691438,0.165236,-0.191807,-0.26589,-0.374845,0.278872,0.518243
28,60,-1.0472,-0.698132,0.174533,-0.174533,-1.04587,-0.691438,0.165236,-0.191807,-0.26589,-0.374845,0.278872,0.518243
28,60,-1.0472,-0.698132,0.174533,-0.174533,-1.04587,-0.691438,0.165236,-0.191807,-0.26589,-0.374845,0.278872,0.518243
28,60,-1.0472,-0.698132,0.174533,-0.174533,-1.04587,-0.691438,0.165236,-0.191807,-0.26589,-0.374845,0.278872,0.518243
28,60,-1.0472,-0.698132,0.174533,-0.174533,-1.04587,-0.691438,0.165236,-0.191807,-0.26589,-0.374845,0.278872,0.518243
28,60,-1.0472,-0.698132,0.174533,-0.174533,-1.04587,-0.691438,0.165236,-0.191807,-0.26589,-0.374845,0.278872,0.518243
28,60,-1.0472,-0.698132,0.174533,-0.174533,-1.04587,-0.691438,0.165236,-0.191807,-0.26589,-0.374845,0.278873,0.518243
28,60,-1.0472,-0.698132,0.174533,-0.174533,-1.04587,-0.691438,0.165236,-0.191807,-0.26589,-0.374845,0.278873,0.518243
28,60,-1.0472,-0.698132,0.174533,-0.174533,-1.04587,-0.691438,0.165236,-0.191807,-0.26589,-0.374845,0.278873,0.518243
28,60,-1.0472,-0.698132,0.174533,-0.174533,-1.04587,-0.691438,0.165236,-0.191807,-0.26589,-0.374845,0.278873,0.518243
28,60,-1.0472,-0.698132,0.174533,-0.174533,-1.04587,-0.691438,0.165236,-0.191807,-0.26589,-0.374845,0.278873,0.518242
28,60,-1.0472,-0.698132,0.174533,-0.174533,-1.04587,-0.691438,0.165236,-0.191807,-0.26589,-0.374845,0.278873,0.518242
28,60,-1.0472,-0.698132,0.174533,-0.174533,-1.04587,-0.691438,0.165236,-0.191807,-0.26589,-0.374845,0.278873,0.518242
28,60,-1.0472,-0.698132,0.174533,-0.174533,-1.04587,-0.691438,0.165236,-0.191807,-0.26589,-0.374845,0.278873,0.518242
28,60,-1.0472,-0.698132,0.174533,-0.174533,-1.04587,-0.691438,0.165236,-0.191807,-0.26589,-0.374845,0.278873,0.518242
28,60,-1.0472,-0.698132,0.174533,-0.174533,-1.04587,-0.691438,0.165236,-0.191807,-0.26589,-0.374845,0.278874,0.518242
28,60,-1.0472,-0.698132,0.174533,-0.174533,-1.04587,-0.691438,0.165236,-0.191807,-0.26589,-0.374845,0.278874,0.518242
28,60,-1.0472,-0.698132,0.174533,-0.174533,-1.04587,-0.691438,0.165236,-0.191807,-0.26589,-0.374845,0.278874,0.518242
28,60,-1.0472,-0.698132,0.174533,-0.174533,-1.04587,-0.691438,0.165236,-0.191807,-0.26589,-0.374845,0.278874,0.518242
28,60,-1.0472,-0.698132,0.174533,-0.174533,-1.04587,-0.691438,0.165236,-0.191807,-0.26589,-0.374845,0.278874,0.518242
28,60,-1.0472,-0.698132,0.174533,-0.174533,-1.04587,-0.691438,0.165236,-0.191807,-0.26589,-0.374845,0.278874,0.518242
28,60,-1.0472,-0.698132,0.174533,-0.174533,-1.04587,-0.691438,0.165236,-0.191807,-0.26589,-0.374845,0.278874,0.518242
28,60,-1.0472,-0.698132,0.174533,-0.174533,-1.04587,-0.691438,0.165236,-0.191807,-0.26589,-0.374845,0.278874,0.518242
28,60,-1.0472,-0.698132,0.174533,-0.174533,-1.04587,-0.691438,0.165236,-0.191807,-0.26589,-0.374845,0.278874,0.518242
28,60,-1.0472,-0.698132,0.174533,-0.174533,-1.04587,-0.691438,0.165236,-0.191807,-0.26589,-0.374845,0.278874,0.518242
28,60,-1.0472,-0.698132,0.174533,-0.174533,-1.04587,-0.691438,0.165236,-0.191807,-0.26589,-0.374845,0.278875,0.518242
28,60,-1.0472,-0.698132,0.174533,-0.174533,-1.04587,-0.691438,0.165236,-0.191807,-0.26589,-0.374845,0.278875,0.518242
28,60,-1.0472,-0.698132,0.174533,-0.174533,-1.04587,-0.691438,0.165236,-0.191807,-0.26589,-0.374845,0.278875,0.518242
28,60,-1.0472,-0.698132,0.174533,-0.174533,-1.04587,-0.691438,0.165236,-0.191807,-0.26589,-0.374845,0.278875,0.518242
28,60,-1.0472,-0.698132,0.174533,-0.174533,-1.04587,-0.691438,0.165236,-0.191807,-0.26589,-0.374845,0.278875,0.518242
28,60,-1.0472,-0.698132,0.174533,-0.174533,-1.04587,-0.691438,0.165236,-0.191807,-0.26589,-0.374845,0.278875,0.518242
28,60,-1.0472,-0.698132,0.174533,-0.174533,-1.04587,-0.691438,0.165236,-0.191807,-0.26589,-0.374845,0.278875,0.518242
28,60,-1.0472,-0.698132,0.174533,-0.174533,-1.04587,-0.691438,0.165236,-0.191807,-0.26589,-0.374845,0.278875,0.518242
28,60,-1.0472,-0.698132,0.174533,-0.174533,-1.04587,-0.691438,0.165236,-0.191807,-0.26589,-0.374845,0.278875,0.518242
28,60,-1.0472,-0.698132,0.174533,-0.174533,-1.04587,-0.691438,0.165236,-0.191807,-0.26589,-0.374845,0.278875,0.518242
28,60,-1.0472,-0.698132,0.174533,-0.174533,-1.04587,-0.691438,0.165236,-0.191807,-0.26589,-0.374845,0.278875,0.518241
28,60,-1.0472,-0.698132,0.174533,-0.174533,-1.04587,-0.691438,0.165236,-0.191807,-0.26589,-0.374845,0.278876,0.518241
28,60,-1.0472,-0.698132,0.174533,-0.174533,-1.04587,-0.691438,0.165236,-0.191807,-0.26589,-0.374845,0.278876,0.518241
28,60,-1.0472,-0.698132,0.174533,-0.174533,-1.04587,-0.691438,0.165236,-0.191807,-0.26589,-0.374845,0.278876,0.518241
28,60,-1.0472,-0.698132,0.174533,-0.174533,-1.04587,-0.691438,0.165236,-0.191807,-0.26589,-0.374845,0.278876,0.518241
28,60,-1.0472,-0.698132,0.174533,-0.174533,-1.04587,-0.691438,0.165236,-0.191807,-0.26589,-0.374845,0.278876,0.518241
28,60,-1.0472,-0.698132,0.174533,-0.174533,-1.04587,-0.691438,0.165236,-0.191807,-0.26589,-0.374845,0.278876,0.518241
28,60,-1.0472,-0.698132,0.174533,-0.174533,-1.04587,-0.691438,0.165236,-0.191807,-0.26589,-0.374845,0.278893,0.518234
28,60,-1.0472,-0.698132,0.174533,-0.174533,-1.04587,-0.691438,0.165236,-0.191807,-0.26589,-0.374845,0.278893,0.518234
28,60,-1.0472,-0.698132,0.174533,-0.174533,-1.04587,-0.691438,0.165236,-0.191807,-0.26589,-0.374845,0.278893,0.518234
28,60,-1.0472,-0.698132,0.174533,-0.174533,-1.04587,-0.691438,0.165236,-0.191807,-0.26589,-0.374845,0.278893,0.518234
28,60,-1.0472,-0.698132,0.174533,-0.174533,-1.04587,-0.691438,0.165236,-0.191807,-0.26589,-0.374845,0.278893,0.518234
28,60,-1.0472,-0.698132,0.174533,-0.174533,-1.04587,-0.691438,0.165236,-0.191807,-0.26589,-0.374845,0.278893,0.518234
28,60,-1.0472,-0.698132,0.174533,-0.174533,-1.04587,-0.691438,0.165236,-0.191807,-0.26589,-0.374845,0.278893,0.518234
28,60,-1.0472,-0.698132,0.174533,-0.174533,-1.04587,-0.691438,0.165236,-0.191807,-0.26589,-0.374845,0.278893,0.518234
28,60,-1.0472,-0.698132,0.174533,-0.174533,-1.04587,-0.691438,0.165236,-0.191807,-0.26589,-0.374845,0.278893,0.518234
28,60,-1.0472,-0.698132,0.174533,-0.174533,-1.04587,-0.691438,0.165236,-0.191807,-0.26589,-0.374845,0.278893,0.518234
28,60,-1.0472,-0.698132,0.174533,-0.174533,-1.04587,-0.691438,0.165236,-0.191807,-0.26589,-0.374845,0.278893,0.518234
28,60,-1.0472,-0.698132,0.174533,-0.174533,-1.04587,-0.691438,0.165236,-0.191807,-0.26589,-0.374845,0.278893,0.518234
28,60,-1.0472,-0.698132,0.174533,-0.174533,-1.04587,-0.691438,0.165236,-0.191807,-0.26589,-0.374845,0.278893,0.518234
28,60,-1.0472,-0.698132,0.174533,-0.174533,-1.04587,-0.691438,0.165236,-0.191807,-0.26589,-0.374845,0.278893,0.518234
28,60,-1.0472,-0.698132,0.174533,-0.174533,-1.04587,-0.691438,0.165236,-0.191807,-0.26589,-0.374845,0.278893,0.518234
28,60,-1.0472,-0.698132,0.174533,-0.174533,-1.04587,-0.691438,0.165236,-0.191807,-0.26589,-0.374845,0.278893,0.518234
28,60,-1.0472,-0.698132,0.174533,-0.174533,-1.04587,-0.691438,0.165236,-0.191807,-0.26589,-0.374845,0.278893,0.518234
28,60,-1.0472,-0.698132,0.174533,-0.174533,-1.04587,-0.691438,0.165236,-0.191807,-0.26589,-0.374845,0.278893,0.518234
28,60,-1.0472,-0.698132,0.174533,-0.174533,-1.04587,-0.691438,0.165236,-0.191807,-0.26589,-0.374845,0.278893,0.518234
28,60,-1.0472,-0.698132,0.174533,-0.174533,-1.04587,-0.691438,0.165236,-0.191807,-0.26589,-0.374845,0.278893,0.518234
28,60,-1.0472,-0.698132,0.174533,-0.174533,-1.04587,-0.691438,0.165236,-0.191807,-0.26589,-0.374845,0.278893,0.518234
28,60,-1.0472,-0.698132,0.174533,-0.174533,-1.04587,-0.691438,0.165236,-0.191807,-0.26589,-0.374845,0.278893,0.518234
28,60,-1.0472,-0.698132,0.174533,-0.174533,-1.04587,-0.691438,0.165236,-0.191807,-0.26589,-0.374845,0.278893,0.518234
28,60,-1.0472,-0.698132,0.174533,-0.174533,-1.04587,-0.691438,0.165236,-0.191807,-0.26589,-0.374845,0.278893,0.518234
28,60,-1.0472,-0.698132,0.174533,-0.174533,-1.04587,-0.691438,0.165236,-0.191807,-0.26589,-0.374845,0.278893,0.518234
28,60,-1.0472,-0.698132,0.174533,-0.174533,-1.04587,-0.691438,0.165236,-0.191807,-0.26589,-0.374845,0.278893,0.518234
28,60,-1.0472,-0.698132,0.174533,-0.174533,-1.04587,-0.691438,0.165236,-0.191807,-0.26589,-0.374845,0.278893,0.518234
28,60,-1.0472,-0.698132,0.174533,-0.174533,-1.04587,-0.691438,0.165236,-0.191807,-0.26589,-0.374845,0.278893,0.518234
28,60,-1.0472,-0.698132,0.174533,-0.174533,-1.04587,-0.691438,0.165236,-0.191807,-0.26589,-0.374845,0.278893,0.518234
28,60,-1.0472,-0.698132,0.174533,-0.174533,-1.04587,-0.691438,0.165236,-0.191807,-0.26589,-0.374845,0.278893,0.518234
28,60,-1.0472,-0.698132,0.174533,-0.174533,-1.04587,-0.691438,0.165236,-0.191807,-0.26589,-0.374845,0.278893,0.518234
28,60,-1.0472,-0.698132,0.174533,-0.174533,-1.04587,-0.691438,0.165224,-0.19175,-0.26589,-0.374845,0.279258,0.516495
28,60,-1.0472,-0.698132,0.174533,-0.174533,-1.04587,-0.691438,0.165224,-0.19175,-0.26589,-0.374845,0.279258,0.516495
28,60,-1.0472,-0.698132,0.174533,-0.174533,-1.04587,-0.691438,0.165224,-0.19175,-0.26589,-0.374845,0.279258,0.516495
28,60,-1.0472,-0.698132,0.174533,-0.174533,-1.04587,-0.691438,0.165224,-0.19175,-0.26589,-0.374845,0.279258,0.516495
28,60,-1.0472,-0.698132,0.174533,-0.174533,-1.04587,-0.691438,0.165224,-0.19175,-0.26589,-0.374845,0.279258,0.516495
28,60,-1.0472,-0.698132,0.174533,-0.174533,-1.04587,-0.691438,0.165224,-0.19175,-0.26589,-0.374845,0.279258,0.516495
28,60,-1.0472,-0.698132,0.174533,-0.174533,-1.04587,-0.691438,0.165224,-0.19175,-0.26589,-0.374845,0.279258,0.516495
28,60,-1.0472,-0.698132,0.174533,-0.174533,-1.04587,-0.691438,0.165224,-0.19175,-0.26589,-0.374845,0.279258,0.516495
28,60,-1.0472,-0.698132,0.174533,-0.174533,-1.04587,-0.691438,0.165224,-0.19175,-0.26589,-0.374845,0.279258,0.516495
28,60,-1.0472,-0.698132,0.174533,-0.174533,-1.04587,-0.691438,0.165224,-0.19175,-0.26589,-0.374845,0.279258,0.516495
28,60,-1.0472,-0.698132,0.174533,-0.174533,-1.04587,-0.691438,0.165224,-0.19175,-0.26589,-0.374845,0.279258,0.516495
28,60,-1.0472,-0.698132,0.174533,-0.174533,-1.04587,-0.691438,0.165224,-0.19175,-0.26589,-0.374845,0.279258,0.516495
28,60,-1.0472,-0.698132,0.174533,-0.174533,-1.04587,-0.691438,0.165224,-0.19175,-0.26589,-0.374845,0.279258,0.516495
28,60,-1.0472,-0.698132,0.174533,-0.174533,-1.04587,-0.691438,0.165224,-0.19175,-0.26589,-0.374845,0.279258,0.516495
28,60,-1.0472,-0.698132,0.174533,-0.174533,-1.04587,-0.691438,0.165224,-0.19175,-0.26589,-0.374845,0.279258,0.516495
28,60,-1.0472,-0.698132,0.174533,-0.174533,-1.04587,-0.691438,0.165224,-0.19175,-0.26589,-0.374845,0.279258,0.516495
28,60,-1.0472,-0.698132,0.174533,-0.174533,-1.04587,-0.691438,0.165224,-0.19175,-0.26589,-0.374845,0.279258,0.516495
28,60,-1.0472,-0.698132,0.174533,-0.174533,-1.04587,-0.691438,0.165224,-0.19175,-0.26589,-0.374845,0.279258,0.516495
28,60,-1.0472,-0.698132,0.174533,-0.174533,-1.04587,-0.691438,0.165224,-0.19175,-0.26589,-0.374845,0.279258,0.516495
28,60,-1.0472,-0.698132,0.174533,-0.174533,-1.04587,-0.691438,0.165224,-0.19175,-0.26589,-0.374845,0.279258,0.516495
28,60,-1.0472,-0.698132,0.174533,-0.174533,-1.04587,-0.691438,0.165224,-0.19175,-0.26589,-0.374845,0.279258,0.516495
28,60,-1.0472,-0.698132,0.174533,-0.174533,-1.04587,-0.691438,0.165224,-0.19175,-0.26589,-0.374845,0.279258,0.516495
28,60,-1.0472,-0.698132,0.174533,-0.174533,-1.04587,-0.691438,0.165224,-0.19175,-0.26589,-0.374845,0.279258,0.516495
28,60,-1.0472,-0.698132,0.174533,-0.174533,-1.04587,-0.691438,0.165224,-0.19175,-0.26589,-0.374845,0.279258,0.516495
28,60,-1.0472,-0.698132,0.174533,-0.174533,-1.04587,-0.691438,0.165224,-0.19175,-0.26589,-0.374845,0.279258,0.516495
28,60,-1.0472,-0.698132,0.174533,-0.174533,-1.04587,-0.691438,0.165224,-0.19175,-0.26589,-0.374845,0.279258,0.516495
28,60,-1.0472,-0.698132,0.174533,-0.174533,-1.04587,-0.691438,0.165224,-0.19175,-0.26589,-0.374845,0.279258,0.516495
28,60,-1.0472,-0.698132,0.174533,-0.174533,-1.04587,-0.691438,0.165224,-0.19175,-0.26589,-0.374845,0.279258,0.516495
28,60,-1.0472,-0.698132,0.174533,-0.174533,-1.04587,-0.691438,0.165224,-0.19175,-0.26589,-0.374845,0.279258,0.516495
28,60,-1.0472,-0.698132,0.174533,-0.174533,-1.04587,-0.691438,0.165224,-0.19175,-0.26589,-0.374845,0.279258,0.516495
28,60,-1.0472,-0.698132,0.174533,-0.174533,-1.04587,-0.691438,0.165224,-0.19175,-0.26589,-0.374845,0.279258,0.516495
28,60,-1.0472,-0.698132,0.174533,-0.174533,-1.04587,-0.691438,0.165224,-0.19175,-0.26589,-0.374845,0.279258,0.516495
28,60,-1.0472,-0.698132,0.174533,-0.174533,-1.04587,-0.691438,0.165224,-0.19175,-0.26589,-0.374845,0.279258,0.516495
28,60,-1.0472,-0.698132,0.174533,-0.174533,-1.04587,-0.691438,0.165224,-0.19175,-0.26589,-0.374845,0.279258,0.516495
28,60,-1.0472,-0.698132,0.174533,-0.174533,-1.04587,-0.691438,0.165224,-0.19175,-0.26589,-0.374845,0.279258,0.516495
28,60,-1.0472,-0.698132,0.174533,-0.174533,-1.04587,-0.691438,0.165224,-0.19175,-0.26589,-0.374845,0.279258,0.516495
28,60,-1.0472,-0.698132,0.174533,-0.174533,-1.04587,-0.691438,0.165224,-0.19175,-0.26589,-0.374845,0.279258,0.516495
28,60,-1.0472,-0.698132,0.174533,-0.174533,-1.04587,-0.691438,0.165224,-0.19175,-0.26589,-0.374845,0.279258,0.516495
28,60,-1.0472,-0.698132,0.174533,-0.174533,-1.04587,-0.691438,0.165224,-0.19175,-0.26589,-0.374845,0.279258,0.516495
28,60,-1.0472,-0.698132,0.174533,-0.174533,-1.04587,-0.691438,0.165224,-0.19175,-0.26589,-0.374845,0.279258,0.516495
28,60,-1.0472,-0.698132,0.174533,-0.174533,-1.04587,-0.691438,0.165224,-0.19175,-0.26589,-0.374845,0.279258,0.516495
28,60,-1.0472,-0.698132,0.174533,-0.174533,-1.04587,-0.691438,0.165224,-0.19175,-0.26589,-0.374845,0.279258,0.516495
28,60,-1.0472,-0.698132,0.174533,-0.174533,-1.04587,-0.691438,0.165224,-0.19175,-0.26589,-0.374845,0.279258,0.516495
28,60,-1.0472,-0.698132,0.174533,-0.174533,-1.04587,-0.691438,0.165224,-0.19175,-0.26589,-0.374845,0.279258,0.516495
28,60,-1.0472,-0.698132,0.174533,-0.174533,-1.04587,-0.691438,0.165224,-0.19175,-0.26589,-0.374845,0.279258,0.516495
28,60,-1.0472,-0.698132,0.174533,-0.174533,-1.04587,-0.691438,0.165224,-0.19175,-0.26589,-0.374845,0.279258,0.516495
28,60,-1.0472,-0.698132,0.174533,-0.174533,-1.04587,-0.691438,0.165224,-0.19175,-0.26589,-0.374845,0.279258,0.516495
28,60,-1.0472,-0.698132,0.174533,-0.174533,-1.04587,-0.691438,0.165224,-0.19175,-0.26589,-0.374845,0.279258,0.516495
28,60,-1.0472,-0.698132,0.174533,-0.174533,-1.04587,-0.691438,0.165224,-0.19175,-0.26589,-0.374845,0.279258,0.516495
28,60,-1.0472,-0.698132,0.174533,-0.174533,-1.04587,-0.691438,0.165224,-0.19175,-0.26589,-0.374845,0.279258,0.516495
28,60,-1.0472,-0.698132,0.174533,-0.174533,-1.04587,-0.691438,0.165224,-0.19175,-0.26589,-0.374845,0.279258,0.516495
28,60,-1.0472,-0.698132,0.174533,-0.174533,-1.04587,-0.691438,0.165224,-0.19175,-0.26589,-0.374845,0.279258,0.516495
28,60,-1.0472,-0.698132,0.174533,-0.174533,-1.04587,-0.691438,0.165224,-0.19175,-0.26589,-0.374845,0.279258,0.516495
28,60,-1.0472,-0.698132,0.174533,-0.174533,-1.04587,-0.691438,0.165224,-0.19175,-0.26589,-0.374845,0.279258,0.516495
28,60,-1.0472,-0.698132,0.174533,-0.174533,-1.04587,-0.691438,0.165224,-0.19175,-0.26589,-0.374845,0.279258,0.516495
28,60,-1.0472,-0.698132,0.174533,-0.174533,-1.04587,-0.691438,0.165224,-0.19175,-0.26589,-0.374845,0.279258,0.516495
28,60,-1.0472,-0.698132,0.174533,-0.174533,-1.04587,-0.691438,0.165224,-0.19175,-0.26589,-0.374845,0.279258,0.516495
28,60,-1.0472,-0.698132,0.174533,-0.174533,-1.04587,-0.691438,0.165224,-0.19175,-0.26589,-0.374845,0.279258,0.516495
28,60,-1.0472,-0.698132,0.174533,-0.174533,-1.04587,-0.691438,0.165224,-0.19175,-0.26589,-0.374845,0.279258,0.516495
28,60,-1.0472,-0.698132,0.174533,-0.174533,-1.04587,-0.691438,0.165224,-0.19175,-0.26589,-0.374845,0.279258,0.516495
28,60,-1.0472,-0.698132,0.174533,-0.174533,-1.04587,-0.691438,0.165224,-0.19175,-0.26589,-0.374845,0.279258,0.516495
28,60,-1.0472,-0.698132,0.174533,-0.174533,-1.04587,-0.691438,0.165224,-0.19175,-0.26589,-0.374845,0.279258,0.516495
28,60,-1.0472,-0.698132,0.174533,-0.174533,-1.04587,-0.691438,0.165224,-0.19175,-0.26589,-0.374845,0.279258,0.516495
28,60,-1.0472,-0.698132,0.174533,-0.174533,-1.04587,-0.691438,0.165224,-0.19175,-0.26589,-0.374845,0.279258,0.516495
28,60,-1.0472,-0.698132,0.174533,-0.174533,-1.04587,-0.691438,0.165224,-0.19175,-0.26589,-0.374845,0.279258,0.516495
28,60,-1.0472,-0.698132,0.174533,-0.174533,-1.04587,-0.691438,0.165224,-0.19175,-0.26589,-0.374845,0.279258,0.516495
28,60,-1.0472,-0.698132,0.174533,-0.174533,-1.04587,-0.691438,0.165224,-0.19175,-0.26589,-0.374845,0.279258,0.516495
28,60,-1.0472,-0.698132,0.174533,-0.174533,-1.04587,-0.691438,0.165224,-0.19175,-0.26589,-0.374845,0.279258,0.516495
28,60,-1.0472,-0.698132,0.174533,-0.174533,-1.04587,-0.691438,0.165224,-0.19175,-0.26589,-0.374845,0.279258,0.516495
28,60,-1.0472,-0.698132,0.174533,-0.174533,-1.04587,-0.691438,0.165224,-0.19175,-0.26589,-0.374845,0.279258,0.516495
28,60,-1.0472,-0.698132,0.174533,-0.174533,-1.04587,-0.691438,0.165224,-0.19175,-0.26589,-0.374845,0.279258,0.516495
28,60,-1.0472,-0.698132,0.174533,-0.174533,-1.04587,-0.691438,0.165224,-0.19175,-0.26589,-0.374845,0.279258,0.516495
28,60,-1.0472,-0.698132,0.174533,-0.174533,-1.04587,-0.691438,0.165224,-0.19175,-0.26589,-0.374845,0.279258,0.516495
28,60,-1.0472,-0.698132,0.174533,-0.174533,-1.04587,-0.691438,0.165224,-0.19175,-0.26589,-0.374845,0.279258,0.516495
28,60,-1.0472,-0.698132,0.174533,-0.174533,-1.04587,-0.691438,0.165224,-0.19175,-0.26589,-0.374845,0.279258,0.516495
28,60,-1.0472,-0.698132,0.174533,-0.174533,-1.04587,-0.691438,0.165224,-0.19175,-0.26589,-0.374845,0.279258,0.516495
28,60,-1.0472,-0.698132,0.174533,-0.174533,-1.04587,-0.691438,0.165224,-0.19175,-0.26589,-0.374845,0.279258,0.516495
28,60,-1.0472,-0.698132,0.174533,-0.174533,-1.04587,-0.691438,0.165224,-0.19175,-0.26589,-0.374845,0.279258,0.516495
28,60,-1.0472,-0.698132,0.174533,-0.174533,-1.04587,-0.691438,0.165224,-0.19175,-0.26589,-0.374845,0.279258,0.516495
28,60,-1.0472,-0.698132,0.174533,-0.174533,-1.04587,-0.691438,0.165224,-0.19175,-0.26589,-0.374845,0.279258,0.516495
28,60,-1.0472,-0.698132,0.174533,-0.174533,-1.04587,-0.691438,0.165224,-0.19175,-0.26589,-0.374845,0.279258,0.516495
28,60,-1.0472,-0.698132,0.174533,-0.174533,-1.04587,-0.691438,0.165224,-0.19175,-0.26589,-0.374845,0.279258,0.516495
28,60,-1.0472,-0.698132,0.174533,-0.174533,-1.04587,-0.691438,0.165224,-0.19175,-0.26589,-0.374845,0.279258,0.516495
28,60,-1.0472,-0.698132,0.174533,-0.174533,-1.04587,-0.691438,0.165224,-0.19175,-0.26589,-0.374845,0.279258,0.516495
28,60,-1.0472,-0.698132,0.174533,-0.174533,-1.04587,-0.691438,0.165224,-0.19175,-0.26589,-0.374845,0.279258,0.516495
28,60,-1.0472,-0.698132,0.174533,-0.174533,-1.04587,-0.691438,0.165224,-0.19175,-0.26589,-0.374845,0.279258,0.516495
28,60,-1.0472,-0.698132,0.174533,-0.174533,-1.04587,-0.691438,0.165224,-0.19175,-0.26589,-0.374845,0.279258,0.516495
28,60,-1.0472,-0.698132,0.174533,-0.174533,-1.04587,-0.691438,0.165224,-0.19175,-0.26589,-0.374845,0.279258,0.516495
28,60,-1.0472,-0.698132,0.174533,-0.174533,-1.04587,-0.691438,0.165224,-0.19175,-0.26589,-0.374845,0.279258,0.516495
28,60,-1.0472,-0.698132,0.174533,-0.174533,-1.04587,-0.691438,0.165224,-0.19175,-0.26589,-0.374845,0.279258,0.516495
28,60,-1.0472,-0.698132,0.174533,-0.174533,-1.04587,-0.691438,0.165224,-0.19175,-0.26589,-0.374845,0.279258,0.516495
28,60,-1.0472,-0.698132,0.174533,-0.174533,-1.04587,-0.691438,0.165224,-0.19175,-0.26589,-0.374845,0.279258,0.516495
28,60,-1.0472,-0.698132,0.174533,-0.174533,-1.04587,-0.691438,0.165224,-0.19175,-0.26589,-0.374845,0.279258,0.516495
28,60,-1.0472,-0.698132,0.174533,-0.174533,-1.04587,-0.691438,0.165224,-0.19175,-0.26589,-0.374845,0.279258,0.516495
28,60,-1.0472,-0.698132,0.174533,-0.174533,-1.04587,-0.691438,0.165224,-0.19175,-0.26589,-0.374845,0.279258,0.516495
28,60,-1.0472,-0.698132,0.174533,-0.174533,-1.04587,-0.691438,0.165224,-0.19175,-0.26589,-0.374845,0.279258,0.516495
28,60,-1.0472,-0.698132,0.174533,-0.174533,-1.04587,-0.691438,0.165224,-0.19175,-0.26589,-0.374845,0.279258,0.516495
28,60,-1.0472,-0.698132,0.174533,-0.174533,-1.04587,-0.691438,0.165224,-0.19175,-0.26589,-0.374845,0.279258,0.516495
28,60,-1.0472,-0.698132,0.174533,-0.174533,-1.04587,-0.691438,0.165224,-0.19175,-0.26589,-0.374845,0.279258,0.516495
28,60,-1.0472,-0.698132,0.174533,-0.174533,-1.04587,-0.691438,0.165224,-0.19175,-0.26589,-0.374845,0.279258,0.516495
28,60,-1.0472,-0.698132,0.174533,-0.174533,-1.04587,-0.691438,0.165224,-0.19175,-0.26589,-0.374845,0.279258,0.516495
28,60,-1.0472,-0.698132,0.174533,-0.174533,-1.04587,-0.691438,0.165224,-0.19175,-0.26589,-0.374845,0.279258,0.516495
28,60,-1.0472,-0.698132,0.174533,-0.174533,-1.04587,-0.691438,0.165224,-0.19175,-0.26589,-0.374845,0.279258,0.516495
28,60,-1.0472,-0.698132,0.174533,-0.174533,-1.04587,-0.691438,0.165224,-0.19175,-0.26589,-0.374845,0.279258,0.516495
28,60,-1.0472,-0.698132,0.174533,-0.174533,-1.04587,-0.691438,0.165224,-0.19175,-0.26589,-0.374845,0.279258,0.516495
28,60,-1.0472,-0.698132,0.174533,-0.174533,-1.04587,-0.691438,0.165224,-0.19175,-0.26589,-0.374845,0.279258,0.516495
28,60,-1.0472,-0.698132,0.174533,-0.174533,-1.04587,-0.691438,0.165224,-0.19175,-0.26589,-0.374845,0.279258,0.516495
28,60,-1.0472,-0.698132,0.174533,-0.174533,-1.04587,-0.691438,0.165224,-0.19175,-0.26589,-0.374845,0.279258,0.516495
28,60,-1.0472,-0.698132,0.174533,-0.174533,-1.04587,-0.691438,0.165224,-0.19175,-0.26589,-0.374845,0.279258,0.516495
28,60,-1.0472,-0.698132,0.174533,-0.174533,-1.04587,-0.691438,0.165224,-0.19175,-0.26589,-0.374845,0.279258,0.516495
28,60,-1.0472,-0.698132,0.174533,-0.174533,-1.04587,-0.691438,0.165224,-0.19175,-0.26589,-0.374845,0.279258,0.516495
28,60,-1.0472,-0.698132,0.174533,-0.174533,-1.04587,-0.691438,0.165224,-0.19175,-0.26589,-0.374845,0.279258,0.516495
28,60,-1.0472,-0.698132,0.174533,-0.174533,-1.04587,-0.691438,0.165224,-0.19175,-0.26589,-0.374845,0.279258,0.516495
28,60,-1.0472,-0.698132,0.174533,-0.174533,-1.04587,-0.691438,0.165224,-0.19175,-0.26589,-0.374845,0.279258,0.516495
28,60,-1.0472,-0.698132,0.174533,-0.174533,-1.04587,-0.691438,0.165224,-0.19175,-0.26589,-0.374845,0.279258,0.516495
28,60,-1.0472,-0.698132,0.174533,-0.174533,-1.04587,-0.691438,0.165224,-0.19175,-0.26589,-0.374845,0.279258,0.516495
28,60,-1.0472,-0.698132,0.174533,-0.174533,-1.04587,-0.691438,0.165224,-0.19175,-0.26589,-0.374845,0.279258,0.516495
28,60,-1.0472,-0.698132,0.174533,-0.174533,-1.04587,-0.691438,0.165224,-0.19175,-0.26589,-0.374845,0.279258,0.516495
28,60,-1.0472,-0.698132,0.174533,-0.174533,-1.04587,-0.691438,0.165224,-0.19175,-0.26589,-0.374845,0.279258,0.516495
28,60,-1.0472,-0.698132,0.174533,-0.174533,-1.04587,-0.691438,0.165224,-0.19175,-0.26589,-0.374845,0.279258,0.516495
28,60,-1.0472,-0.698132,0.174533,-0.174533,-1.04587,-0.691438,0.165224,-0.19175,-0.26589,-0.374845,0.279258,0.516495
28,60,-1.0472,-0.698132,0.174533,-0.174533,-1.04587,-0.691438,0.165224,-0.19175,-0.26589,-0.374845,0.279258,0.516495
28,60,-1.0472,-0.698132,0.174533,-0.174533,-1.04587,-0.691438,0.165224,-0.19175,-0.26589,-0.374845,0.279258,0.516495
28,60,-1.0472,-0.698132,0.174533,-0.174533,-1.04587,-0.691438,0.165224,-0.19175,-0.26589,-0.374845,0.279258,0.516495
28,60,-1.0472,-0.698132,0.174533,-0.174533,-1.04587,-0.691438,0.165224,-0.19175,-0.26589,-0.374845,0.279258,0.516495
28,60,-1.0472,-0.698132,0.174533,-0.174533,-1.04587,-0.691438,0.165224,-0.19175,-0.26589,-0.374845,0.279258,0.516495
28,60,-1.0472,-0.698132,0.174533,-0.174533,-1.04587,-0.691438,0.165224,-0.19175,-0.26589,-0.374845,0.279258,0.516495
28,60,-1.0472,-0.698132,0.174533,-0.174533,-1.04587,-0.691438,0.165224,-0.19175,-0.26589,-0.374845,0.279258,0.516495
28,60,-1.0472,-0.698132,0.174533,-0.174533,-1.04587,-0.691438,0.165224,-0.19175,-0.26589,-0.374845,0.279258,0.516495
28,60,-1.0472,-0.698132,0.174533,-0.174533,-1.04587,-0.691438,0.165224,-0.19175,-0.26589,-0.374845,0.279258,0.516495
28,60,-1.0472,-0.698132,0.174533,-0.174533,-1.04587,-0.691438,0.165224,-0.19175,-0.26589,-0.374845,0.279258,0.516495
28,60,-1.0472,-0.698132,0.174533,-0.174533,-1.04587,-0.691438,0.165224,-0.19175,-0.26589,-0.374845,0.279258,0.516495
28,60,-1.0472,-0.698132,0.174533,-0.174533,-1.04587,-0.691438,0.165224,-0.19175,-0.26589,-0.374845,0.279258,0.516495
28,60,-1.0472,-0.698132,0.174533,-0.174533,-1.04587,-0.691438,0.165224,-0.19175,-0.26589,-0.374845,0.279258,0.516495
28,60,-1.0472,-0.698132,0.174533,-0.174533,-1.04587,-0.691438,0.165224,-0.19175,-0.26589,-0.374845,0.279258,0.516495
28,60,-1.0472,-0.698132,0.174533,-0.174533,-1.04587,-0.691438,0.165224,-0.19175,-0.26589,-0.374845,0.279258,0.516495
28,60,-1.0472,-0.698132,0.174533,-0.174533,-1.04587,-0.691438,0.165224,-0.19175,-0.26589,-0.374845,0.279258,0.516495
28,60,-1.0472,-0.698132,0.174533,-0.174533,-1.04587,-0.691438,0.165224,-0.19175,-0.26589,-0.374845,0.279258,0.516495
28,60,-1.0472,-0.698132,0.174533,-0.174533,-1.04587,-0.691438,0.165224,-0.19175,-0.26589,-0.374845,0.279258,0.516495
28,60,-1.0472,-0.698132,0.174533,-0.174533,-1.04587,-0.691438,0.165224,-0.19175,-0.26589,-0.374845,0.279258,0.516495
28,60,-1.0472,-0.698132,0.174533,-0.174533,-1.04587,-0.691438,0.165224,-0.19175,-0.26589,-0.374845,0.279258,0.516495
28,60,-1.0472,-0.698132,0.174533,-0.174533,-1.04587,-0.691438,0.165224,-0.19175,-0.26589,-0.374845,0.279258,0.516495
28,60,-1.0472,-0.698132,0.174533,-0.174533,-1.04587,-0.691438,0.165224,-0.19175,-0.26589,-0.374845,0.279258,0.516495
28,60,-1.0472,-0.698132,0.174533,-0.174533,-1.04587,-0.691438,0.165224,-0.19175,-0.26589,-0.374845,0.279258,0.516495
28,60,-1.0472,-0.698132,0.174533,-0.174533,-1.04587,-0.691438,0.165224,-0.19175,-0.26589,-0.374845,0.279258,0.516495
28,60,-1.0472,-0.698132,0.174533,-0.174533,-1.04587,-0.691438,0.165224,-0.19175,-0.26589,-0.374845,0.279258,0.516495
28,60,-1.0472,-0.698132,0.174533,-0.174533,-1.04587,-0.691438,0.165224,-0.19175,-0.26589,-0.374845,0.279258,0.516495
28,60,-1.0472,-0.698132,0.174533,-0.174533,-1.04587,-0.691438,0.165224,-0.19175,-0.26589,-0.374845,0.279258,0.516495
28,60,-1.0472,-0.698132,0.174533,-0.174533,-1.04587,-0.691438,0.165224,-0.19175,-0.26589,-0.374845,0.279258,0.516495
28,60,-1.0472,-0.698132,0.174533,-0.174533,-1.04587,-0.691438,0.165224,-0.19175,-0.26589,-0.374845,0.279258,0.516495
28,60,-1.0472,-0.698132,0.174533,-0.174533,-1.04587,-0.691438,0.165224,-0.19175,-0.26589,-0.374845,0.279258,0.516495
28,60,-1.0472,-0.698132,0.174533,-0.174533,-1.04587,-0.691438,0.165224,-0.19175,-0.26589,-0.374845,0.279258,0.516495
28,60,-1.0472,-0.698132,0.174533,-0.174533,-1.04587,-0.691438,0.165224,-0.19175,-0.26589,-0.374845,0.279258,0.516495
28,60,-1.0472,-0.698132,0.174533,-0.174533,-1.04587,-0.691438,0.165224,-0.19175,-0.26589,-0.374845,0.279258,0.516495
28,60,-1.0472,-0.698132,0.174533,-0.174533,-1.04587,-0.691438,0.165224,-0.19175,-0.26589,-0.374845,0.279258,0.516495
28,60,-1.0472,-0.698132,0.174533,-0.174533,-1.04587,-0.691438,0.165224,-0.19175,-0.26589,-0.374845,0.279258,0.516495
28,60,-1.0472,-0.698132,0.174533,-0.174533,-1.04587,-0.691438,0.165224,-0.19175,-0.26589,-0.374845,0.279258,0.516495
28,60,-1.0472,-0.698132,0.174533,-0.174533,-1.04587,-0.691438,0.165224,-0.19175,-0.26589,-0.374845,0.279258,0.516495
28,60,-1.0472,-0.698132,0.174533,-0.174533,-1.04587,-0.691438,0.165224,-0.19175,-0.26589,-0.374845,0.279258,0.516495
28,60,-1.0472,-0.698132,0.174533,-0.174533,-1.04587,-0.691438,0.165224,-0.19175,-0.26589,-0.374845,0.279258,0.516495
28,60,-1.0472,-0.698132,0.174533,-0.174533,-1.04587,-0.691438,0.165224,-0.19175,-0.26589,-0.374845,0.279258,0.516495
28,60,-1.0472,-0.698132,0.174533,-0.174533,-1.04587,-0.691438,0.165224,-0.19175,-0.26589,-0.374845,0.279258,0.516495
28,60,-1.0472,-0.698132,0.174533,-0.174533,-1.04587,-0.691438,0.165224,-0.19175,-0.26589,-0.374845,0.279258,0.516495
28,60,-1.0472,-0.698132,0.174533,-0.174533,-1.04587,-0.691438,0.165224,-0.19175,-0.26589,-0.374845,0.279258,0.516495
28,60,-1.0472,-0.698132,0.174533,-0.174533,-1.04587,-0.691438,0.165224,-0.19175,-0.26589,-0.374845,0.279258,0.516495
28,60,-1.0472,-0.698132,0.174533,-0.174533,-1.04587,-0.691438,0.165224,-0.19175,-0.26589,-0.374845,0.279258,0.516495
28,60,-1.0472,-0.698132,0.174533,-0.174533,-1.04587,-0.691438,0.165224,-0.19175,-0.26589,-0.374845,0.279258,0.516495
28,60,-1.0472,-0.698132,0.174533,-0.174533,-1.04587,-0.691438,0.165224,-0.19175,-0.26589,-0.374845,0.279258,0.516495
28,60,-1.0472,-0.698132,0.174533,-0.174533,-1.04587,-0.691438,0.165224,-0.19175,-0.26589,-0.374845,0.279258,0.516495
28,60,-1.0472,-0.698132,0.174533,-0.174533,-1.04587,-0.691438,0.165224,-0.19175,-0.26589,-0.374845,0.279258,0.516495
28,60,-1.0472,-0.698132,0.174533,-0.174533,-1.04587,-0.691438,0.165224,-0.19175,-0.26589,-0.374845,0.279258,0.516495
28,60,-1.0472,-0.698132,0.174533,-0.174533,-1.04587,-0.691438,0.165224,-0.19175,-0.26589,-0.374845,0.279258,0.516495
28,60,-1.0472,-0.698132,0.174533,-0.174533,-1.04587,-0.691438,0.165224,-0.19175,-0.26589,-0.374845,0.279258,0.516495
28,60,-1.0472,-0.698132,0.174533,-0.174533,-1.04587,-0.691438,0.165224,-0.19175,-0.26589,-0.374845,0.279258,0.516495
28,60,-1.0472,-0.698132,0.174533,-0.174533,-1.04587,-0.691438,0.165224,-0.19175,-0.26589,-0.374845,0.279258,0.516495
28,60,-1.0472,-0.698132,0.174533,-0.174533,-1.04587,-0.691438,0.165224,-0.19175,-0.26589,-0.374845,0.279258,0.516495
28,60,-1.0472,-0.698132,0.174533,-0.174533,-1.04587,-0.691438,0.165224,-0.19175,-0.26589,-0.374845,0.279258,0.516495
28,60,-1.0472,-0.698132,0.174533,-0.174533,-1.04587,-0.691438,0.165224,-0.19175,-0.26589,-0.374845,0.279258,0.516495
28,60,-1.0472,-0.698132,0.174533,-0.174533,-1.04587,-0.691438,0.165224,-0.19175,-0.26589,-0.374845,0.279258,0.516495
28,60,-1.0472,-0.698132,0.174533,-0.174533,-1.04587,-0.691438,0.165224,-0.19175,-0.26589,-0.374845,0.279258,0.516495
28,60,-1.0472,-0.698132,0.174533,-0.174533,-1.04587,-0.691438,0.165224,-0.19175,-0.26589,-0.374845,0.279258,0.516495
28,60,-1.0472,-0.698132,0.174533,-0.174533,-1.04587,-0.691438,0.165224,-0.19175,-0.26589,-0.374845,0.279258,0.516495
28,60,-1.0472,-0.698132,0.174533,-0.174533,-1.04587,-0.691438,0.165224,-0.19175,-0.26589,-0.374845,0.279258,0.516495
28,60,-1.0472,-0.698132,0.174533,-0.174533,-1.04587,-0.691438,0.165224,-0.19175,-0.26589,-0.374845,0.279258,0.516495
28,60,-1.0472,-0.698132,0.174533,-0.174533,-1.04587,-0.691438,0.165224,-0.19175,-0.26589,-0.374845,0.279258,0.516495
28,60,-1.0472,-0.698132,0.174533,-0.174533,-1.04587,-0.691438,0.165224,-0.19175,-0.26589,-0.374845,0.279258,0.516495
28,60,-1.0472,-0.698132,0.174533,-0.174533,-1.04587,-0.691438,0.165224,-0.19175,-0.26589,-0.374845,0.279258,0.516495
28,60,-1.0472,-0.698132,0.174533,-0.174533,-1.04587,-0.691438,0.165224,-0.19175,-0.26589,-0.374845,0.279258,0.516495
28,60,-1.0472,-0.698132,0.174533,-0.174533,-1.04587,-0.691438,0.165224,-0.19175,-0.26589,-0.374845,0.279258,0.516495
28,60,-1.0472,-0.698132,0.174533,-0.174533,-1.04587,-0.691438,0.165224,-0.19175,-0.26589,-0.374845,0.279258,0.516495
28,60,-1.0472,-0.698132,0.174533,-0.174533,-1.04587,-0.691438,0.165224,-0.19175,-0.26589,-0.374845,0.279258,0.516495
28,60,-1.0472,-0.698132,0.174533,-0.174533,-1.04587,-0.691438,0.165224,-0.19175,-0.26589,-0.374845,0.279258,0.516495
28,60,-1.0472,-0.698132,0.174533,-0.174533,-1.04587,-0.691438,0.165224,-0.19175,-0.26589,-0.374845,0.279258,0.516495
28,60,-1.0472,-0.698132,0.174533,-0.174533,-1.04587,-0.691438,0.165224,-0.19175,-0.26589,-0.374845,0.279258,0.516495
28,60,-1.0472,-0.698132,0.174533,-0.174533,-1.04587,-0.691438,0.165224,-0.19175,-0.26589,-0.374845,0.279258,0.516495
28,60,-1.0472,-0.698132,0.174533,-0.174533,-1.04587,-0.691438,0.165224,-0.19175,-0.26589,-0.374845,0.279258,0.516495
28,60,-1.0472,-0.698132,0.174533,-0.174533,-1.04587,-0.691438,0.165224,-0.19175,-0.26589,-0.374845,0.279258,0.516495
28,60,-1.0472,-0.698132,0.174533,-0.174533,-1.04587,-0.691438,0.165224,-0.19175,-0.26589,-0.374845,0.279258,0.516495
28,60,-1.0472,-0.698132,0.174533,-0.174533,-1.04587,-0.691438,0.165224,-0.19175,-0.26589,-0.374845,0.279258,0.516495
28,60,-1.0472,-0.698132,0.174533,-0.174533,-1.04587,-0.691438,0.165224,-0.19175,-0.26589,-0.374845,0.279258,0.516495
28,60,-1.0472,-0.698132,0.174533,-0.174533,-1.04587,-0.691438,0.165224,-0.19175,-0.26589,-0.374845,0.279258,0.516495
28,60,-1.0472,-0.698132,0.174533,-0.174533,-1.04587,-0.691438,0.165224,-0.19175,-0.26589,-0.374845,0.279258,0.516495
28,60,-1.0472,-0.698132,0.174533,-0.174533,-1.04587,-0.691438,0.165224,-0.19175,-0.26589,-0.374845,0.279258,0.516495
28,60,-1.0472,-0.698132,0.174533,-0.174533,-1.04587,-0.691438,0.165224,-0.19175,-0.26589,-0.374845,0.279258,0.516495
28,60,-1.0472,-0.698132,0.174533,-0.174533,-1.04587,-0.691438,0.165224,-0.19175,-0.26589,-0.374845,0.279258,0.516495
28,60,-1.0472,-0.698132,0.174533,-0.174533,-1.04587,-0.691438,0.165224,-0.19175,-0.26589,-0.374845,0.279258,0.516495
28,60,-1.0472,-0.698132,0.174533,-0.174533,-1.04587,-0.691438,0.165224,-0.19175,-0.26589,-0.374845,0.279258,0.516495
28,60,-1.0472,-0.698132,0.174533,-0.174533,-1.04587,-0.691438,0.165224,-0.19175,-0.26589,-0.374845,0.279258,0.516495
28,60,-1.0472,-0.698132,0.174533,-0.174533,-1.04587,-0.691438,0.165224,-0.19175,-0.26589,-0.374845,0.279258,0.516495
28,60,-1.0472,-0.698132,0.174533,-0.174533,-1.04587,-0.691438,0.165224,-0.19175,-0.26589,-0.374845,0.279258,0.516495
28,60,-1.0472,-0.698132,0.174533,-0.174533,-1.04587,-0.691438,0.165224,-0.19175,-0.26589,-0.374845,0.279256,0.516507
28,60,-1.0472,-0.698132,0.174533,-0.174533,-1.04587,-0.691438,0.165224,-0.19175,-0.26589,-0.374845,0.279256,0.516507
28,60,-1.0472,-0.698132,0.174533,-0.174533,-1.04587,-0.691438,0.165224,-0.19175,-0.26589,-0.374845,0.279256,0.516507
28,60,-1.0472,-0.698132,0.174533,-0.174533,-1.04587,-0.691438,0.165224,-0.19175,-0.26589,-0.374845,0.279256,0.516507
28,60,-1.0472,-0.698132,0.174533,-0.174533,-1.04587,-0.691438,0.165224,-0.19175,-0.26589,-0.374845,0.279256,0.516507
28,60,-1.0472,-0.698132,0.174533,-0.174533,-1.04587,-0.691438,0.165224,-0.19175,-0.26589,-0.374845,0.279256,0.516507
28,60,-1.0472,-0.698132,0.174533,-0.174533,-1.04587,-0.691438,0.165224,-0.19175,-0.26589,-0.374845,0.279256,0.516507
28,60,-1.0472,-0.698132,0.174533,-0.174533,-1.04587,-0.691438,0.165224,-0.19175,-0.26589,-0.374845,0.279256,0.516507
28,60,-1.0472,-0.698132,0.174533,-0.174533,-1.04587,-0.691438,0.165224,-0.19175,-0.26589,-0.374845,0.279256,0.516507
28,60,-1.0472,-0.698132,0.174533,-0.174533,-1.04587,-0.691438,0.165224,-0.19175,-0.26589,-0.374845,0.279256,0.516507
28,60,-1.0472,-0.698132,0.174533,-0.174533,-1.04587,-0.691438,0.165224,-0.19175,-0.26589,-0.374845,0.279256,0.516507
28,60,-1.0472,-0.698132,0.174533,-0.174533,-1.04587,-0.691438,0.165224,-0.19175,-0.26589,-0.374845,0.279256,0.516507
28,60,-1.0472,-0.698132,0.174533,-0.174533,-1.04587,-0.691438,0.165224,-0.19175,-0.26589,-0.374845,0.279256,0.516507
28,60,-1.0472,-0.698132,0.174533,-0.174533,-1.04587,-0.691438,0.165224,-0.19175,-0.26589,-0.374845,0.279256,0.516507
28,60,-1.0472,-0.698132,0.174533,-0.174533,-1.04587,-0.691438,0.165224,-0.19175,-0.26589,-0.374845,0.279256,0.516507
28,60,-1.0472,-0.698132,0.174533,-0.174533,-1.04587,-0.691438,0.165224,-0.19175,-0.26589,-0.374845,0.279256,0.516507
28,60,-1.0472,-0.698132,0.174533,-0.174533,-1.04587,-0.691438,0.165224,-0.19175,-0.26589,-0.374845,0.279256,0.516507
28,60,-1.0472,-0.698132,0.174533,-0.174533,-1.04587,-0.691438,0.165224,-0.19175,-0.26589,-0.374845,0.279256,0.516507
28,60,-1.0472,-0.698132,0.174533,-0.174533,-1.04587,-0.691438,0.165224,-0.19175,-0.26589,-0.374845,0.279256,0.516507
28,60,-1.0472,-0.698132,0.174533,-0.174533,-1.04587,-0.691438,0.165224,-0.19175,-0.26589,-0.374845,0.279256,0.516507
28,60,-1.0472,-0.698132,0.174533,-0.174533,-1.04587,-0.691438,0.165224,-0.19175,-0.26589,-0.374845,0.279256,0.516507
28,60,-1.0472,-0.698132,0.174533,-0.174533,-1.04587,-0.691438,0.165224,-0.19175,-0.26589,-0.374845,0.279256,0.516507
28,60,-1.0472,-0.698132,0.174533,-0.174533,-1.04587,-0.691438,0.165224,-0.19175,-0.26589,-0.374845,0.279256,0.516507
28,60,-1.0472,-0.698132,0.174533,-0.174533,-1.04587,-0.691438,0.165224,-0.19175,-0.26589,-0.374845,0.279256,0.516507
28,60,-1.0472,-0.698132,0.174533,-0.174533,-1.04587,-0.691438,0.165224,-0.19175,-0.26589,-0.374845,0.279256,0.516507
28,60,-1.0472,-0.698132,0.174533,-0.174533,-1.04587,-0.691438,0.165224,-0.19175,-0.26589,-0.374845,0.279256,0.516507
28,60,-1.0472,-0.698132,0.174533,-0.174533,-1.04587,-0.691438,0.165224,-0.19175,-0.26589,-0.374845,0.279256,0.516507
28,60,-1.0472,-0.698132,0.174533,-0.174533,-1.04587,-0.691438,0.165224,-0.19175,-0.26589,-0.374845,0.279256,0.516507
28,60,-1.0472,-0.698132,0.174533,-0.174533,-1.04587,-0.691438,0.165224,-0.19175,-0.26589,-0.374845,0.279256,0.516507
28,60,-1.0472,-0.698132,0.174533,-0.174533,-1.04587,-0.691438,0.165224,-0.19175,-0.26589,-0.374845,0.279256,0.516507
28,60,-1.0472,-0.698132,0.174533,-0.174533,-1.04587,-0.691438,0.165224,-0.19175,-0.26589,-0.374845,0.279256,0.516507
28,60,-1.0472,-0.698132,0.174533,-0.174533,-1.04587,-0.691438,0.165224,-0.19175,-0.26589,-0.374845,0.279256,0.516507
28,60,-1.0472,-0.698132,0.174533,-0.174533,-1.04587,-0.691438,0.165224,-0.19175,-0.26589,-0.374845,0.279256,0.516507
28,60,-1.0472,-0.698132,0.174533,-0.174533,-1.04587,-0.691438,0.165224,-0.19175,-0.26589,-0.374845,0.279256,0.516507
28,60,-1.0472,-0.698132,0.174533,-0.174533,-1.04587,-0.691438,0.165224,-0.19175,-0.26589,-0.374845,0.279256,0.516507
28,60,-1.0472,-0.698132,0.174533,-0.174533,-1.04587,-0.691438,0.165224,-0.19175,-0.26589,-0.374845,0.279256,0.516507
28,60,-1.0472,-0.698132,0.174533,-0.174533,-1.04587,-0.691438,0.165224,-0.19175,-0.26589,-0.374845,0.279256,0.516507
28,60,-1.0472,-0.698132,0.174533,-0.174533,-1.04587,-0.691438,0.165224,-0.19175,-0.26589,-0.374845,0.279256,0.516507
28,60,-1.0472,-0.698132,0.174533,-0.174533,-1.04587,-0.691438,0.165224,-0.19175,-0.26589,-0.374845,0.279256,0.516507
28,60,-1.0472,-0.698132,0.174533,-0.174533,-1.04587,-0.691438,0.165224,-0.19175,-0.26589,-0.374845,0.279256,0.516507
28,60,-1.0472,-0.698132,0.174533,-0.174533,-1.04587,-0.691438,0.165224,-0.19175,-0.26589,-0.374845,0.279256,0.516507
28,60,-1.0472,-0.698132,0.174533,-0.174533,-1.04587,-0.691438,0.165224,-0.19175,-0.26589,-0.374845,0.279256,0.516507
28,60,-1.0472,-0.698132,0.174533,-0.174533,-1.04587,-0.691438,0.165224,-0.19175,-0.26589,-0.374845,0.279256,0.516507
28,60,-1.0472,-0.698132,0.174533,-0.174533,-1.04587,-0.691438,0.165224,-0.19175,-0.26589,-0.374845,0.279256,0.516507
28,60,-1.0472,-0.698132,0.174533,-0.174533,-1.04587,-0.691438,0.165224,-0.19175,-0.26589,-0.374845,0.279256,0.516507
28,60,-1.0472,-0.698132,0.174533,-0.174533,-1.04587,-0.691438,0.165224,-0.19175,-0.26589,-0.374845,0.279256,0.516507
28,60,-1.0472,-0.698132,0.174533,-0.174533,-1.04587,-0.691438,0.165224,-0.19175,-0.26589,-0.374845,0.279256,0.516507
28,60,-1.0472,-0.698132,0.174533,-0.174533,-1.04587,-0.691438,0.165224,-0.19175,-0.26589,-0.374845,0.279256,0.516507
28,60,-1.0472,-0.698132,0.174533,-0.174533,-1.04587,-0.691438,0.165224,-0.19175,-0.26589,-0.374845,0.279256,0.516507
28,60,-1.0472,-0.698132,0.174533,-0.174533,-1.04587,-0.691438,0.165224,-0.19175,-0.26589,-0.374845,0.279256,0.516507
28,60,-1.0472,-0.698132,0.174533,-0.174533,-1.04587,-0.691438,0.165224,-0.19175,-0.26589,-0.374845,0.279256,0.516507
28,60,-1.0472,-0.698132,0.174533,-0.174533,-1.04587,-0.691438,0.165224,-0.19175,-0.26589,-0.374845,0.279256,0.516507
28,60,-1.0472,-0.698132,0.174533,-0.174533,-1.04587,-0.691438,0.165224,-0.19175,-0.26589,-0.374845,0.279256,0.516507
28,60,-1.0472,-0.698132,0.174533,-0.174533,-1.04587,-0.691438,0.165224,-0.19175,-0.26589,-0.374845,0.279256,0.516507
28,60,-1.0472,-0.698132,0.174533,-0.174533,-1.04587,-0.691438,0.165224,-0.19175,-0.26589,-0.374845,0.279256,0.516507
28,60,-1.0472,-0.698132,0.174533,-0.174533,-1.04587,-0.691438,0.165224,-0.19175,-0.26589,-0.374845,0.279256,0.516507
28,60,-1.0472,-0.698132,0.174533,-0.174533,-1.04587,-0.691438,0.165224,-0.19175,-0.26589,-0.374845,0.279256,0.516507
28,60,-1.0472,-0.698132,0.174533,-0.174533,-1.04587,-0.691438,0.165224,-0.19175,-0.26589,-0.374845,0.279256,0.516507
28,60,-1.0472,-0.698132,0.174533,-0.174533,-1.04587,-0.691438,0.165224,-0.19175,-0.26589,-0.374845,0.279256,0.516507
28,60,-1.0472,-0.698132,0.174533,-0.174533,-1.04587,-0.691438,0.165224,-0.19175,-0.26589,-0.374845,0.279256,0.516507
28,60,-1.0472,-0.698132,0.174533,-0.174533,-1.04587,-0.691438,0.165224,-0.19175,-0.26589,-0.374845,0.279256,0.516507
28,60,-1.0472,-0.698132,0.174533,-0.174533,-1.04587,-0.691438,0.165224,-0.19175,-0.26589,-0.374845,0.279256,0.516507
28,60,-1.0472,-0.698132,0.174533,-0.174533,-1.04587,-0.691438,0.165224,-0.19175,-0.26589,-0.374845,0.279256,0.516507
28,60,-1.0472,-0.698132,0.174533,-0.174533,-1.04587,-0.691438,0.165224,-0.19175,-0.26589,-0.374845,0.279256,0.516507
28,60,-1.0472,-0.698132,0.174533,-0.174533,-1.04587,-0.691438,0.165224,-0.19175,-0.26589,-0.374845,0.279256,0.516507
28,60,-1.0472,-0.698132,0.174533,-0.174533,-1.04587,-0.691438,0.165224,-0.19175,-0.26589,-0.374845,0.279256,0.516507
28,60,-1.0472,-0.698132,0.174533,-0.174533,-1.04587,-0.691438,0.165224,-0.19175,-0.26589,-0.374845,0.279256,0.516507
28,60,-1.0472,-0.698132,0.174533,-0.174533,-1.04587,-0.691438,0.165212,-0.191692,-0.26589,-0.374845,0.279619,0.514777
28,60,-1.0472,-0.698132,0.174533,-0.174533,-1.04587,-0.691438,0.165212,-0.191692,-0.26589,-0.374845,0.279619,0.514777
28,60,-1.0472,-0.698132,0.174533,-0.174533,-1.04587,-0.691438,0.165212,-0.191692,-0.26589,-0.374845,0.279619,0.514777
28,60,-1.0472,-0.698132,0.174533,-0.174533,-1.04587,-0.691438,0.165212,-0.191692,-0.26589,-0.374845,0.279619,0.514777
28,60,-1.0472,-0.698132,0.174533,-0.174533,-1.04587,-0.691438,0.165212,-0.191692,-0.26589,-0.374845,0.279619,0.514777
28,60,-1.0472,-0.698132,0.174533,-0.174533,-1.04587,-0.691438,0.165212,-0.191692,-0.26589,-0.374845,0.279619,0.514777
28,60,-1.0472,-0.698132,0.174533,-0.174533,-1.04587,-0.691438,0.165212,-0.191692,-0.26589,-0.374845,0.279619,0.514777
28,60,-1.0472,-0.698132,0.174533,-0.174533,-1.04587,-0.691438,0.165212,-0.191692,-0.26589,-0.374845,0.279619,0.514777
28,60,-1.0472,-0.698132,0.174533,-0.174533,-1.04587,-0.691438,0.165212,-0.191692,-0.26589,-0.374845,0.279619,0.514777
28,60,-1.0472,-0.698132,0.174533,-0.174533,-1.04587,-0.691438,0.165212,-0.191692,-0.26589,-0.374845,0.279619,0.514777
28,60,-1.0472,-0.698132,0.174533,-0.174533,-1.04587,-0.691438,0.165212,-0.191692,-0.26589,-0.374845,0.279619,0.514777
28,60,-1.0472,-0.698132,0.174533,-0.174533,-1.04587,-0.691438,0.165212,-0.191692,-0.26589,-0.374845,0.279619,0.514777
28,60,-1.0472,-0.698132,0.174533,-0.174533,-1.04587,-0.691438,0.165212,-0.191692,-0.26589,-0.374845,0.279619,0.514777
28,60,-1.0472,-0.698132,0.174533,-0.174533,-1.04587,-0.691438,0.165212,-0.191692,-0.26589,-0.374845,0.279619,0.514777
28,60,-1.0472,-0.698132,0.174533,-0.174533,-1.04587,-0.691438,0.165212,-0.191692,-0.26589,-0.374845,0.279619,0.514777
28,60,-1.0472,-0.698132,0.174533,-0.174533,-1.04587,-0.691438,0.165212,-0.191692,-0.26589,-0.374845,0.279619,0.514777
28,60,-1.0472,-0.698132,0.174533,-0.174533,-1.04587,-0.691438,0.165212,-0.191692,-0.26589,-0.374845,0.279619,0.514777
28,60,-1.0472,-0.698132,0.174533,-0.174533,-1.04587,-0.691438,0.165212,-0.191692,-0.26589,-0.374845,0.279619,0.514777
28,60,-1.0472,-0.698132,0.174533,-0.174533,-1.04587,-0.691438,0.165212,-0.191692,-0.26589,-0.374845,0.279619,0.514777
28,60,-1.0472,-0.698132,0.174533,-0.174533,-1.04587,-0.691438,0.165212,-0.191692,-0.26589,-0.374845,0.279619,0.514777
28,60,-1.0472,-0.698132,0.174533,-0.174533,-1.04587,-0.691438,0.165212,-0.191692,-0.26589,-0.374845,0.279619,0.514777
28,60,-1.0472,-0.698132,0.174533,-0.174533,-1.04587,-0.691438,0.165212,-0.191692,-0.26589,-0.374845,0.279619,0.514777
28,60,-1.0472,-0.698132,0.174533,-0.174533,-1.04587,-0.691438,0.165212,-0.191692,-0.26589,-0.374845,0.279619,0.514777
28,60,-1.0472,-0.698132,0.174533,-0.174533,-1.04587,-0.691438,0.165212,-0.191692,-0.26589,-0.374845,0.279619,0.514777
28,60,-1.0472,-0.698132,0.174533,-0.174533,-1.04587,-0.691438,0.165212,-0.191692,-0.26589,-0.374845,0.279619,0.514777
28,60,-1.0472,-0.698132,0.174533,-0.174533,-1.04587,-0.691438,0.165212,-0.191692,-0.26589,-0.374845,0.279619,0.514777
28,60,-1.0472,-0.698132,0.174533,-0.174533,-1.04587,-0.691438,0.165212,-0.191692,-0.26589,-0.374845,0.279619,0.514777
28,60,-1.0472,-0.698132,0.174533,-0.174533,-1.04587,-0.691438,0.165212,-0.191692,-0.26589,-0.374845,0.279619,0.514777
28,60,-1.0472,-0.698132,0.174533,-0.174533,-1.04587,-0.691438,0.165212,-0.191692,-0.26589,-0.374845,0.279619,0.514777
28,60,-1.0472,-0.698132,0.174533,-0.174533,-1.04587,-0.691438,0.165212,-0.191692,-0.26589,-0.374845,0.279619,0.514777
28,60,-1.0472,-0.698132,0.174533,-0.174533,-1.04587,-0.691438,0.165212,-0.191692,-0.26589,-0.374845,0.279619,0.514777
28,60,-1.0472,-0.698132,0.174533,-0.174533,-1.04587,-0.691438,0.165212,-0.191692,-0.26589,-0.374845,0.279619,0.514777
28,60,-1.0472,-0.698132,0.174533,-0.174533,-1.04587,-0.691438,0.165212,-0.191692,-0.26589,-0.374845,0.279619,0.514777
28,60,-1.0472,-0.698132,0.174533,-0.174533,-1.04587,-0.691438,0.165212,-0.191692,-0.26589,-0.374845,0.279619,0.514777
28,60,-1.0472,-0.698132,0.174533,-0.174533,-1.04587,-0.691438,0.165212,-0.191692,-0.26589,-0.374845,0.279619,0.514777
28,60,-1.0472,-0.698132,0.174533,-0.174533,-1.04587,-0.691438,0.165212,-0.191692,-0.26589,-0.374845,0.279619,0.514777
28,60,-1.0472,-0.698132,0.174533,-0.174533,-1.04587,-0.691438,0.165212,-0.191692,-0.26589,-0.374845,0.279619,0.514777
28,60,-1.0472,-0.698132,0.174533,-0.174533,-1.04587,-0.691438,0.165212,-0.191692,-0.26589,-0.374845,0.279619,0.514777
28,60,-1.0472,-0.698132,0.174533,-0.174533,-1.04587,-0.691438,0.165212,-0.191692,-0.26589,-0.374845,0.279619,0.514777
28,60,-1.0472,-0.698132,0.174533,-0.174533,-1.04587,-0.691438,0.165212,-0.191692,-0.26589,-0.374845,0.279619,0.514777
28,60,-1.0472,-0.698132,0.174533,-0.174533,-1.04587,-0.691438,0.165212,-0.191692,-0.26589,-0.374845,0.279619,0.514777
28,60,-1.0472,-0.698132,0.174533,-0.174533,-1.04587,-0.691438,0.165212,-0.191692,-0.26589,-0.374845,0.279619,0.514777
28,60,-1.0472,-0.698132,0.174533,-0.174533,-1.04587,-0.691438,0.165212,-0.191692,-0.26589,-0.374845,0.279619,0.514777
28,60,-1.0472,-0.698132,0.174533,-0.174533,-1.04587,-0.691438,0.165212,-0.191692,-0.26589,-0.374845,0.279619,0.514777
28,60,-1.0472,-0.698132,0.174533,-0.174533,-1.04587,-0.691438,0.165212,-0.191692,-0.26589,-0.374845,0.279619,0.514777
28,60,-1.0472,-0.698132,0.174533,-0.174533,-1.04587,-0.691438,0.165212,-0.191692,-0.26589,-0.374845,0.279619,0.514777
28,60,-1.0472,-0.698132,0.174533,-0.174533,-1.04587,-0.691438,0.165212,-0.191692,-0.26589,-0.374845,0.279619,0.514777
28,60,-1.0472,-0.698132,0.174533,-0.174533,-1.04587,-0.691438,0.165212,-0.191692,-0.26589,-0.374845,0.279619,0.514777
28,60,-1.0472,-0.698132,0.174533,-0.174533,-1.04587,-0.691438,0.165212,-0.191692,-0.26589,-0.374845,0.279619,0.514777
28,60,-1.0472,-0.698132,0.174533,-0.174533,-1.04587,-0.691438,0.165212,-0.191692,-0.26589,-0.374845,0.279619,0.514777
28,60,-1.0472,-0.698132,0.174533,-0.174533,-1.04587,-0.691438,0.165212,-0.191692,-0.26589,-0.374845,0.279619,0.514777
28,60,-1.0472,-0.698132,0.174533,-0.174533,-1.04587,-0.691438,0.165212,-0.191692,-0.26589,-0.374845,0.279619,0.514777
28,60,-1.0472,-0.698132,0.174533,-0.174533,-1.04587,-0.691438,0.165212,-0.191692,-0.26589,-0.374845,0.279619,0.514777
28,60,-1.0472,-0.698132,0.174533,-0.174533,-1.04587,-0.691438,0.165212,-0.191692,-0.26589,-0.374845,0.279619,0.514777
28,60,-1.0472,-0.698132,0.174533,-0.174533,-1.04587,-0.691438,0.165212,-0.191692,-0.26589,-0.374845,0.279619,0.514777
28,60,-1.0472,-0.698132,0.174533,-0.174533,-1.04587,-0.691438,0.165212,-0.191692,-0.26589,-0.374845,0.279619,0.514777
28,60,-1.0472,-0.698132,0.174533,-0.174533,-1.04587,-0.691438,0.165212,-0.191692,-0.26589,-0.374845,0.279619,0.514777
28,60,-1.0472,-0.698132,0.174533,-0.174533,-1.04587,-0.691438,0.165212,-0.191692,-0.26589,-0.374845,0.279619,0.514777
28,60,-1.0472,-0.698132,0.174533,-0.174533,-1.04587,-0.691438,0.165212,-0.191692,-0.26589,-0.374845,0.279619,0.514777
28,60,-1.0472,-0.698132,0.174533,-0.174533,-1.04587,-0.691438,0.165212,-0.191692,-0.26589,-0.374845,0.279619,0.514777
28,60,-1.0472,-0.698132,0.174533,-0.174533,-1.04587,-0.691438,0.165212,-0.191692,-0.26589,-0.374845,0.279619,0.514777
28,60,-1.0472,-0.698132,0.174533,-0.174533,-1.04587,-0.691438,0.165212,-0.191692,-0.26589,-0.374845,0.279619,0.514777
28,60,-1.0472,-0.698132,0.174533,-0.174533,-1.04587,-0.691438,0.165212,-0.191692,-0.26589,-0.374845,0.279619,0.514777
28,60,-1.0472,-0.698132,0.174533,-0.174533,-1.04587,-0.691438,0.165212,-0.191692,-0.26589,-0.374845,0.279619,0.514777
28,60,-1.0472,-0.698132,0.174533,-0.174533,-1.04587,-0.691438,0.165212,-0.191692,-0.26589,-0.374845,0.279619,0.514777
28,60,-1.0472,-0.698132,0.174533,-0.174533,-1.04587,-0.691438,0.165212,-0.191692,-0.26589,-0.374845,0.279619,0.514777
28,60,-1.0472,-0.698132,0.174533,-0.174533,-1.04587,-0.691438,0.165212,-0.191692,-0.26589,-0.374845,0.279619,0.514777
28,60,-1.0472,-0.698132,0.174533,-0.174533,-1.04587,-0.691438,0.165212,-0.191692,-0.26589,-0.374845,0.279619,0.514777
28,60,-1.0472,-0.698132,0.174533,-0.174533,-1.04587,-0.691438,0.165212,-0.191692,-0.26589,-0.374845,0.279619,0.514777
28,60,-1.0472,-0.698132,0.174533,-0.174533,-1.04587,-0.691438,0.165212,-0.191692,-0.26589,-0.374845,0.279619,0.514777
28,60,-1.0472,-0.698132,0.174533,-0.174533,-1.04587,-0.691438,0.165212,-0.191692,-0.26589,-0.374845,0.279619,0.514777
28,60,-1.0472,-0.698132,0.174533,-0.174533,-1.04587,-0.691438,0.165212,-0.191692,-0.26589,-0.374845,0.279619,0.514777
28,60,-1.0472,-0.698132,0.174533,-0.174533,-1.04587,-0.691438,0.165212,-0.191692,-0.26589,-0.374845,0.279619,0.514777
28,60,-1.0472,-0.698132,0.174533,-0.174533,-1.04587,-0.691438,0.165212,-0.191692,-0.26589,-0.374845,0.279619,0.514777
28,60,-1.0472,-0.698132,0.174533,-0.174533,-1.04587,-0.691438,0.165212,-0.191692,-0.26589,-0.374845,0.279619,0.514777
28,60,-1.0472,-0.698132,0.174533,-0.174533,-1.04587,-0.691438,0.165212,-0.191692,-0.26589,-0.374845,0.279619,0.514777
28,60,-1.0472,-0.698132,0.174533,-0.174533,-1.04587,-0.691438,0.165212,-0.191692,-0.26589,-0.374845,0.279619,0.514777
28,60,-1.0472,-0.698132,0.174533,-0.174533,-1.04587,-0.691438,0.165212,-0.191692,-0.26589,-0.374845,0.279619,0.514777
28,60,-1.0472,-0.698132,0.174533,-0.174533,-1.04587,-0.691438,0.1652,-0.191635,-0.26589,-0.374845,0.279982,0.513048
28,60,-1.0472,-0.698132,0.174533,-0.174533,-1.04587,-0.691438,0.1652,-0.191635,-0.26589,-0.374845,0.279982,0.513048
28,60,-1.0472,-0.698132,0.174533,-0.174533,-1.04587,-0.691438,0.1652,-0.191635,-0.26589,-0.374845,0.279982,0.513048
28,60,-1.0472,-0.698132,0.174533,-0.174533,-1.04587,-0.691438,0.1652,-0.191635,-0.26589,-0.374845,0.279982,0.513048
28,60,-1.0472,-0.698132,0.174533,-0.174533,-1.04587,-0.691438,0.1652,-0.191635,-0.26589,-0.374845,0.279982,0.513048
28,60,-1.0472,-0.698132,0.174533,-0.174533,-1.04587,-0.691438,0.1652,-0.191635,-0.26589,-0.374845,0.279982,0.513048
28,60,-1.0472,-0.698132,0.174533,-0.174533,-1.04587,-0.691438,0.1652,-0.191635,-0.26589,-0.374845,0.279982,0.513048
28,60,-1.0472,-0.698132,0.174533,-0.174533,-1.04587,-0.691438,0.1652,-0.191635,-0.26589,-0.374845,0.279982,0.513048
28,60,-1.0472,-0.698132,0.174533,-0.174533,-1.04587,-0.691438,0.1652,-0.191635,-0.26589,-0.374845,0.279982,0.513048
28,60,-1.0472,-0.698132,0.174533,-0.174533,-1.04587,-0.691438,0.1652,-0.191635,-0.26589,-0.374845,0.279982,0.513048
28,60,-1.0472,-0.698132,0.174533,-0.174533,-1.04587,-0.691438,0.1652,-0.191635,-0.26589,-0.374845,0.279982,0.513048
28,60,-1.0472,-0.698132,0.174533,-0.174533,-1.04587,-0.691438,0.1652,-0.191635,-0.26589,-0.374845,0.279982,0.513048
28,60,-1.0472,-0.698132,0.174533,-0.174533,-1.04587,-0.691438,0.1652,-0.191635,-0.26589,-0.374845,0.279982,0.513048
28,60,-1.0472,-0.698132,0.174533,-0.174533,-1.04587,-0.691438,0.1652,-0.191635,-0.26589,-0.374845,0.279982,0.513048
28,60,-1.0472,-0.698132,0.174533,-0.174533,-1.04587,-0.691438,0.1652,-0.191635,-0.26589,-0.374845,0.279982,0.513048
28,60,-1.0472,-0.698132,0.174533,-0.174533,-1.04587,-0.691438,0.1652,-0.191635,-0.26589,-0.374845,0.279982,0.513048
28,60,-1.0472,-0.698132,0.174533,-0.174533,-1.04587,-0.691438,0.1652,-0.191635,-0.26589,-0.374845,0.279982,0.513048
28,60,-1.0472,-0.698132,0.174533,-0.174533,-1.04587,-0.691438,0.1652,-0.191635,-0.26589,-0.374845,0.279982,0.513048
28,60,-1.0472,-0.698132,0.174533,-0.174533,-1.04587,-0.691438,0.1652,-0.191635,-0.26589,-0.374845,0.279982,0.513048
28,60,-1.0472,-0.698132,0.174533,-0.174533,-1.04587,-0.691438,0.1652,-0.191635,-0.26589,-0.374845,0.279982,0.513048
28,60,-1.0472,-0.698132,0.174533,-0.174533,-1.04587,-0.691438,0.1652,-0.191635,-0.26589,-0.374845,0.279982,0.513048
28,60,-1.0472,-0.698132,0.174533,-0.174533,-1.04587,-0.691438,0.1652,-0.191635,-0.26589,-0.374845,0.279982,0.513048
28,60,-1.0472,-0.698132,0.174533,-0.174533,-1.04587,-0.691438,0.1652,-0.191635,-0.26589,-0.374845,0.279982,0.513048
28,60,-1.0472,-0.698132,0.174533,-0.174533,-1.04587,-0.691438,0.1652,-0.191635,-0.26589,-0.374845,0.279982,0.513048
28,60,-1.0472,-0.698132,0.174533,-0.174533,-1.04587,-0.691438,0.1652,-0.191635,-0.26589,-0.374845,0.279982,0.513048
28,60,-1.0472,-0.698132,0.174533,-0.174533,-1.04587,-0.691438,0.1652,-0.191635,-0.26589,-0.374845,0.279982,0.513048
28,60,-1.0472,-0.698132,0.174533,-0.174533,-1.04587,-0.691438,0.1652,-0.191635,-0.26589,-0.374845,0.279982,0.513048
28,60,-1.0472,-0.698132,0.174533,-0.174533,-1.04587,-0.691438,0.1652,-0.191635,-0.26589,-0.374845,0.279982,0.513048
28,60,-1.0472,-0.698132,0.174533,-0.174533,-1.04587,-0.691438,0.1652,-0.191635,-0.26589,-0.374845,0.279982,0.513048
28,60,-1.0472,-0.698132,0.174533,-0.174533,-1.04587,-0.691438,0.1652,-0.191635,-0.26589,-0.374845,0.279982,0.513048
28,60,-1.0472,-0.698132,0.174533,-0.174533,-1.04587,-0.691438,0.1652,-0.191635,-0.26589,-0.374845,0.279982,0.513048
28,60,-1.0472,-0.698132,0.174533,-0.174533,-1.04587,-0.691438,0.1652,-0.191635,-0.26589,-0.374845,0.279982,0.513048
28,60,-1.0472,-0.698132,0.174533,-0.174533,-1.04587,-0.691438,0.1652,-0.191635,-0.26589,-0.374845,0.279982,0.513048
28,60,-1.0472,-0.698132,0.174533,-0.174533,-1.04587,-0.691438,0.1652,-0.191635,-0.26589,-0.374845,0.279982,0.513048
28,60,-1.0472,-0.698132,0.174533,-0.174533,-1.04587,-0.691438,0.1652,-0.191635,-0.26589,-0.374845,0.279982,0.513048
28,60,-1.0472,-0.698132,0.174533,-0.174533,-1.04587,-0.691438,0.1652,-0.191635,-0.26589,-0.374845,0.279982,0.513048
28,60,-1.0472,-0.698132,0.174533,-0.174533,-1.04587,-0.691438,0.1652,-0.191635,-0.26589,-0.374845,0.279982,0.513048
28,60,-1.0472,-0.698132,0.174533,-0.174533,-1.04587,-0.691438,0.1652,-0.191635,-0.26589,-0.374845,0.279982,0.513048
28,60,-1.0472,-0.698132,0.174533,-0.174533,-1.04587,-0.691438,0.1652,-0.191635,-0.26589,-0.374845,0.279982,0.513048
28,60,-1.0472,-0.698132,0.174533,-0.174533,-1.04587,-0.691438,0.1652,-0.191635,-0.26589,-0.374845,0.279982,0.513048
28,60,-1.0472,-0.698132,0.174533,-0.174533,-1.04587,-0.691438,0.1652,-0.191635,-0.26589,-0.374845,0.279982,0.513048
28,60,-1.0472,-0.698132,0.174533,-0.174533,-1.04587,-0.691438,0.1652,-0.191635,-0.26589,-0.374845,0.279982,0.513048
28,60,-1.0472,-0.698132,0.174533,-0.174533,-1.04587,-0.691438,0.1652,-0.191635,-0.26589,-0.374845,0.279982,0.513048
28,60,-1.0472,-0.698132,0.174533,-0.174533,-1.04587,-0.691438,0.1652,-0.191635,-0.26589,-0.374845,0.279982,0.513048
28,60,-1.0472,-0.698132,0.174533,-0.174533,-1.04587,-0.691438,0.1652,-0.191635,-0.26589,-0.374845,0.279982,0.513048
28,60,-1.0472,-0.698132,0.174533,-0.174533,-1.04587,-0.691438,0.1652,-0.191635,-0.26589,-0.374845,0.279982,0.513048
28,60,-1.0472,-0.698132,0.174533,-0.174533,-1.04587,-0.691438,0.1652,-0.191635,-0.26589,-0.374845,0.279982,0.513048
28,60,-1.0472,-0.698132,0.174533,-0.174533,-1.04587,-0.691438,0.1652,-0.191635,-0.26589,-0.374845,0.279982,0.513048
28,60,-1.0472,-0.698132,0.174533,-0.174533,-1.04587,-0.691438,0.1652,-0.191635,-0.26589,-0.374845,0.279982,0.513048
28,60,-1.0472,-0.698132,0.174533,-0.174533,-1.04587,-0.691438,0.1652,-0.191635,-0.26589,-0.374845,0.279982,0.513048
28,60,-1.0472,-0.698132,0.174533,-0.174533,-1.04587,-0.691438,0.1652,-0.191635,-0.26589,-0.374845,0.279982,0.513048
28,60,-1.0472,-0.698132,0.174533,-0.174533,-1.04587,-0.691438,0.1652,-0.191635,-0.26589,-0.374845,0.279982,0.513048
28,60,-1.0472,-0.698132,0.174533,-0.174533,-1.04587,-0.691438,0.1652,-0.191635,-0.26589,-0.374845,0.279982,0.513048
28,60,-1.0472,-0.698132,0.174533,-0.174533,-1.04587,-0.691438,0.1652,-0.191635,-0.26589,-0.374845,0.279982,0.513048
28,60,-1.0472,-0.698132,0.174533,-0.174533,-1.04587,-0.691438,0.1652,-0.191635,-0.26589,-0.374845,0.279982,0.513048
28,60,-1.0472,-0.698132,0.174533,-0.174533,-1.04587,-0.691438,0.1652,-0.191635,-0.26589,-0.374845,0.279982,0.513048
28,60,-1.0472,-0.698132,0.174533,-0.174533,-1.04587,-0.691438,0.1652,-0.191635,-0.26589,-0.374845,0.279982,0.513048
28,60,-1.0472,-0.698132,0.174533,-0.174533,-1.04587,-0.691438,0.1652,-0.191635,-0.26589,-0.374845,0.279982,0.513048
28,60,-1.0472,-0.698132,0.174533,-0.174533,-1.04587,-0.691438,0.1652,-0.191635,-0.26589,-0.374845,0.279982,0.513048
28,60,-1.0472,-0.698132,0.174533,-0.174533,-1.04587,-0.691438,0.1652,-0.191635,-0.26589,-0.374845,0.279982,0.513048
28,60,-1.0472,-0.698132,0.174533,-0.174533,-1.04587,-0.691438,0.1652,-0.191635,-0.26589,-0.374845,0.279982,0.513048
28,60,-1.0472,-0.698132,0.174533,-0.174533,-1.04587,-0.691438,0.1652,-0.191635,-0.26589,-0.374845,0.279982,0.513048
28,60,-1.0472,-0.698132,0.174533,-0.174533,-1.04587,-0.691438,0.1652,-0.191635,-0.26589,-0.374845,0.279982,0.513048
28,60,-1.0472,-0.698132,0.174533,-0.174533,-1.04587,-0.691438,0.1652,-0.191635,-0.26589,-0.374845,0.279982,0.513048
28,60,-1.0472,-0.698132,0.174533,-0.174533,-1.04587,-0.691438,0.1652,-0.191635,-0.26589,-0.374845,0.279982,0.513048
28,60,-1.0472,-0.698132,0.174533,-0.174533,-1.04587,-0.691438,0.1652,-0.191635,-0.26589,-0.374845,0.279982,0.513048
28,60,-1.0472,-0.698132,0.174533,-0.174533,-1.04587,-0.691438,0.1652,-0.191635,-0.26589,-0.374845,0.279982,0.513048
28,60,-1.0472,-0.698132,0.174533,-0.174533,-1.04587,-0.691438,0.1652,-0.191635,-0.26589,-0.374845,0.279982,0.513048
28,60,-1.0472,-0.698132,0.174533,-0.174533,-1.04587,-0.691438,0.1652,-0.191635,-0.26589,-0.374845,0.279982,0.513048
28,60,-1.0472,-0.698132,0.174533,-0.174533,-1.04587,-0.691438,0.1652,-0.191635,-0.26589,-0.374845,0.279982,0.513048
28,60,-1.0472,-0.698132,0.174533,-0.174533,-1.04587,-0.691438,0.1652,-0.191635,-0.26589,-0.374845,0.279982,0.513048
28,60,-1.0472,-0.698132,0.174533,-0.174533,-1.04587,-0.691438,0.1652,-0.191635,-0.26589,-0.374845,0.279982,0.513048
28,60,-1.0472,-0.698132,0.174533,-0.174533,-1.04587,-0.691438,0.1652,-0.191635,-0.26589,-0.374845,0.279982,0.513048
28,60,-1.0472,-0.698132,0.174533,-0.174533,-1.04587,-0.691438,0.1652,-0.191635,-0.26589,-0.374845,0.279982,0.513048
28,60,-1.0472,-0.698132,0.174533,-0.174533,-1.04587,-0.691438,0.1652,-0.191635,-0.26589,-0.374845,0.279982,0.513048
28,60,-1.0472,-0.698132,0.174533,-0.174533,-1.04587,-0.691438,0.1652,-0.191635,-0.26589,-0.374845,0.279982,0.513048
28,60,-1.0472,-0.698132,0.174533,-0.174533,-1.04587,-0.691438,0.1652,-0.191635,-0.26589,-0.374845,0.279982,0.513048
28,60,-1.0472,-0.698132,0.174533,-0.174533,-1.04587,-0.691438,0.1652,-0.191635,-0.26589,-0.374845,0.279982,0.513048
28,60,-1.0472,-0.698132,0.174533,-0.174533,-1.04587,-0.691438,0.1652,-0.191635,-0.26589,-0.374845,0.279982,0.513048
28,60,-1.0472,-0.698132,0.174533,-0.174533,-1.04587,-0.691438,0.1652,-0.191635,-0.26589,-0.374845,0.279982,0.513048
28,60,-1.0472,-0.698132,0.174533,-0.174533,-1.04587,-0.691438,0.1652,-0.191635,-0.26589,-0.374845,0.279982,0.513048
28,60,-1.0472,-0.698132,0.174533,-0.174533,-1.04587,-0.691438,0.1652,-0.191635,-0.26589,-0.374845,0.279982,0.513048
28,60,-1.0472,-0.698132,0.174533,-0.174533,-1.04587,-0.691438,0.1652,-0.191635,-0.26589,-0.374845,0.279982,0.513048
28,60,-1.0472,-0.698132,0.174533,-0.174533,-1.04587,-0.691438,0.1652,-0.191635,-0.26589,-0.374845,0.279982,0.513048
28,60,-1.0472,-0.698132,0.174533,-0.174533,-1.04587,-0.691438,0.1652,-0.191635,-0.26589,-0.374845,0.279982,0.513048
28,60,-1.0472,-0.698132,0.174533,-0.174533,-1.04587,-0.691438,0.1652,-0.191635,-0.26589,-0.374845,0.279982,0.513048
28,60,-1.0472,-0.698132,0.174533,-0.174533,-1.04587,-0.691438,0.1652,-0.191635,-0.26589,-0.374845,0.279982,0.513048
28,60,-1.0472,-0.698132,0.174533,-0.174533,-1.04587,-0.691438,0.1652,-0.191635,-0.26589,-0.374845,0.279982,0.513048
28,60,-1.0472,-0.698132,0.174533,-0.174533,-1.04587,-0.691438,0.1652,-0.191635,-0.26589,-0.374845,0.279982,0.513048
28,60,-1.0472,-0.698132,0.174533,-0.174533,-1.04587,-0.691438,0.1652,-0.191635,-0.26589,-0.374845,0.279982,0.513048
28,60,-1.0472,-0.698132,0.174533,-0.174533,-1.04587,-0.691438,0.1652,-0.191635,-0.26589,-0.374845,0.279982,0.513048
28,60,-1.0472,-0.698132,0.174533,-0.174533,-1.04587,-0.691438,0.1652,-0.191635,-0.26589,-0.374845,0.279982,0.513048
28,60,-1.0472,-0.698132,0.174533,-0.174533,-1.04587,-0.691438,0.1652,-0.191635,-0.26589,-0.374845,0.279982,0.513048
28,60,-1.0472,-0.698132,0.174533,-0.174533,-1.04587,-0.691438,0.1652,-0.191635,-0.26589,-0.374845,0.279982,0.513048
28,60,-1.0472,-0.698132,0.174533,-0.174533,-1.04587,-0.691438,0.1652,-0.191635,-0.26589,-0.374845,0.279982,0.513048
28,60,-1.0472,-0.698132,0.174533,-0.174533,-1.04587,-0.691438,0.1652,-0.191635,-0.26589,-0.374845,0.279982,0.513048
28,60,-1.0472,-0.698132,0.174533,-0.174533,-1.04587,-0.691438,0.1652,-0.191635,-0.26589,-0.374845,0.279982,0.513048
28,60,-1.0472,-0.698132,0.174533,-0.174533,-1.04587,-0.691438,0.1652,-0.191635,-0.26589,-0.374845,0.279982,0.513048
28,60,-1.0472,-0.698132,0.174533,-0.174533,-1.04587,-0.691438,0.1652,-0.191635,-0.26589,-0.374845,0.279982,0.513048
28,60,-1.0472,-0.698132,0.174533,-0.174533,-1.04587,-0.691438,0.1652,-0.191635,-0.26589,-0.374845,0.279982,0.513048
28,60,-1.0472,-0.698132,0.174533,-0.174533,-1.04587,-0.691438,0.1652,-0.191635,-0.26589,-0.374845,0.279982,0.513048
28,60,-1.0472,-0.698132,0.174533,-0.174533,-1.04587,-0.691438,0.1652,-0.191635,-0.26589,-0.374845,0.279982,0.513048
28,60,-1.0472,-0.698132,0.174533,-0.174533,-1.04587,-0.691438,0.1652,-0.191635,-0.26589,-0.374845,0.279982,0.513048
28,60,-1.0472,-0.698132,0.174533,-0.174533,-1.04587,-0.691438,0.1652,-0.191635,-0.26589,-0.374845,0.279982,0.513048
28,60,-1.0472,-0.698132,0.174533,-0.174533,-1.04587,-0.691438,0.1652,-0.191635,-0.26589,-0.374845,0.279982,0.513048
28,60,-1.0472,-0.698132,0.174533,-0.174533,-1.04587,-0.691438,0.1652,-0.191635,-0.26589,-0.374845,0.279982,0.513048
28,60,-1.0472,-0.698132,0.174533,-0.174533,-1.04587,-0.691438,0.1652,-0.191635,-0.26589,-0.374845,0.279982,0.513048
28,60,-1.0472,-0.698132,0.174533,-0.174533,-1.04587,-0.691438,0.1652,-0.191635,-0.26589,-0.374845,0.279982,0.513048
28,60,-1.0472,-0.698132,0.174533,-0.174533,-1.04587,-0.691438,0.1652,-0.191635,-0.26589,-0.374845,0.279982,0.513048
28,60,-1.0472,-0.698132,0.174533,-0.174533,-1.04587,-0.691438,0.1652,-0.191635,-0.26589,-0.374845,0.279982,0.513048
28,60,-1.0472,-0.698132,0.174533,-0.174533,-1.04587,-0.691438,0.1652,-0.191635,-0.26589,-0.374845,0.279982,0.513048
28,60,-1.0472,-0.698132,0.174533,-0.174533,-1.04587,-0.691438,0.1652,-0.191635,-0.26589,-0.374845,0.279982,0.513048
28,60,-1.0472,-0.698132,0.174533,-0.174533,-1.04587,-0.691438,0.1652,-0.191635,-0.26589,-0.374845,0.279982,0.513048
28,60,-1.0472,-0.698132,0.174533,-0.174533,-1.04587,-0.691438,0.1652,-0.191635,-0.26589,-0.374845,0.279982,0.513048
28,60,-1.0472,-0.698132,0.174533,-0.174533,-1.04587,-0.691438,0.1652,-0.191635,-0.26589,-0.374845,0.279982,0.513048
28,60,-1.0472,-0.698132,0.174533,-0.174533,-1.04587,-0.691438,0.1652,-0.191635,-0.26589,-0.374845,0.279982,0.513048
28,60,-1.0472,-0.698132,0.174533,-0.174533,-1.04587,-0.691438,0.1652,-0.191635,-0.26589,-0.374845,0.279982,0.513048
28,60,-1.0472,-0.698132,0.174533,-0.174533,-1.04587,-0.691438,0.1652,-0.191635,-0.26589,-0.374845,0.279982,0.513048
28,60,-1.0472,-0.698132,0.174533,-0.174533,-1.04587,-0.691438,0.1652,-0.191635,-0.26589,-0.374845,0.279982,0.513048
28,60,-1.0472,-0.698132,0.174533,-0.174533,-1.04587,-0.691438,0.1652,-0.191635,-0.26589,-0.374845,0.279982,0.513048
28,60,-1.0472,-0.698132,0.174533,-0.174533,-1.04587,-0.691438,0.1652,-0.191635,-0.26589,-0.374845,0.279982,0.513048
28,60,-1.0472,-0.698132,0.174533,-0.174533,-1.04587,-0.691438,0.1652,-0.191635,-0.26589,-0.374845,0.279982,0.513048
28,60,-1.0472,-0.698132,0.174533,-0.174533,-1.04587,-0.691438,0.1652,-0.191635,-0.26589,-0.374845,0.279982,0.513048
28,60,-1.0472,-0.698132,0.174533,-0.174533,-1.04587,-0.691438,0.1652,-0.191635,-0.26589,-0.374845,0.279982,0.513048
28,60,-1.0472,-0.698132,0.174533,-0.174533,-1.04587,-0.691438,0.1652,-0.191635,-0.26589,-0.374845,0.279982,0.513048
28,60,-1.0472,-0.698132,0.174533,-0.174533,-1.04587,-0.691438,0.1652,-0.191635,-0.26589,-0.374845,0.279982,0.513048
28,60,-1.0472,-0.698132,0.174533,-0.174533,-1.04587,-0.691438,0.1652,-0.191635,-0.26589,-0.374845,0.279982,0.513048
28,60,-1.0472,-0.698132,0.174533,-0.174533,-1.04587,-0.691438,0.1652,-0.191635,-0.26589,-0.374845,0.279982,0.513048
28,60,-1.0472,-0.698132,0.174533,-0.174533,-1.04587,-0.691438,0.1652,-0.191635,-0.26589,-0.374845,0.279982,0.513048
28,60,-1.0472,-0.698132,0.174533,-0.174533,-1.04587,-0.691438,0.1652,-0.191635,-0.26589,-0.374845,0.279982,0.513048
28,60,-1.0472,-0.698132,0.174533,-0.174533,-1.04587,-0.691438,0.1652,-0.191635,-0.26589,-0.374845,0.279982,0.513048
28,60,-1.0472,-0.698132,0.174533,-0.174533,-1.04587,-0.691438,0.1652,-0.191635,-0.26589,-0.374845,0.279982,0.513048
28,60,-1.0472,-0.698132,0.174533,-0.174533,-1.04587,-0.691438,0.1652,-0.191635,-0.26589,-0.374845,0.279982,0.513048
28,60,-1.0472,-0.698132,0.174533,-0.174533,-1.04587,-0.691438,0.1652,-0.191635,-0.26589,-0.374845,0.279982,0.513048
28,60,-1.0472,-0.698132,0.174533,-0.174533,-1.04587,-0.691438,0.1652,-0.191635,-0.26589,-0.374845,0.279982,0.513048
28,60,-1.0472,-0.698132,0.174533,-0.174533,-1.04587,-0.691438,0.1652,-0.191635,-0.26589,-0.374845,0.279982,0.513048
28,60,-1.0472,-0.698132,0.174533,-0.174533,-1.04587,-0.691438,0.1652,-0.191635,-0.26589,-0.374845,0.279982,0.513048
28,60,-1.0472,-0.698132,0.174533,-0.174533,-1.04587,-0.691438,0.1652,-0.191635,-0.26589,-0.374845,0.279982,0.513048
28,60,-1.0472,-0.698132,0.174533,-0.174533,-1.04587,-0.691438,0.1652,-0.191635,-0.26589,-0.374845,0.279982,0.513048
28,60,-1.0472,-0.698132,0.174533,-0.174533,-1.04587,-0.691438,0.1652,-0.191635,-0.26589,-0.374845,0.279982,0.513048
28,60,-1.0472,-0.698132,0.174533,-0.174533,-1.04587,-0.691438,0.1652,-0.191635,-0.26589,-0.374845,0.279982,0.513048
28,60,-1.0472,-0.698132,0.174533,-0.174533,-1.04587,-0.691438,0.1652,-0.191635,-0.26589,-0.374845,0.279982,0.513048
28,60,-1.0472,-0.698132,0.174533,-0.174533,-1.04587,-0.691438,0.1652,-0.191635,-0.26589,-0.374845,0.279982,0.513048
28,60,-1.0472,-0.698132,0.174533,-0.174533,-1.04587,-0.691438,0.1652,-0.191635,-0.26589,-0.374845,0.279982,0.513048
28,60,-1.0472,-0.698132,0.174533,-0.174533,-1.04587,-0.691438,0.1652,-0.191635,-0.26589,-0.374845,0.279982,0.513048
28,60,-1.0472,-0.698132,0.174533,-0.174533,-1.04587,-0.691438,0.1652,-0.191635,-0.26589,-0.374845,0.279982,0.513048
28,60,-1.0472,-0.698132,0.174533,-0.174533,-1.04587,-0.691438,0.1652,-0.191635,-0.26589,-0.374845,0.279982,0.513048
28,60,-1.0472,-0.698132,0.174533,-0.174533,-1.04587,-0.691438,0.1652,-0.191635,-0.26589,-0.374845,0.279982,0.513048
28,60,-1.0472,-0.698132,0.174533,-0.174533,-1.04587,-0.691438,0.1652,-0.191635,-0.26589,-0.374845,0.279982,0.513048
28,60,-1.0472,-0.698132,0.174533,-0.174533,-1.04587,-0.691438,0.1652,-0.191635,-0.26589,-0.374845,0.279982,0.513048
28,60,-1.0472,-0.698132,0.174533,-0.174533,-1.04587,-0.691438,0.1652,-0.191635,-0.26589,-0.374845,0.279982,0.513048
28,60,-1.0472,-0.698132,0.174533,-0.174533,-1.04587,-0.691438,0.1652,-0.191635,-0.26589,-0.374845,0.279982,0.513048
28,60,-1.0472,-0.698132,0.174533,-0.174533,-1.04587,-0.691438,0.1652,-0.191635,-0.26589,-0.374845,0.279982,0.513048
28,60,-1.0472,-0.698132,0.174533,-0.174533,-1.04587,-0.691438,0.1652,-0.191635,-0.26589,-0.374845,0.279982,0.513048
28,60,-1.0472,-0.698132,0.174533,-0.174533,-1.04587,-0.691438,0.1652,-0.191635,-0.26589,-0.374845,0.279982,0.513048
28,60,-1.0472,-0.698132,0.174533,-0.174533,-1.04587,-0.691438,0.1652,-0.191635,-0.26589,-0.374845,0.279982,0.513048
28,60,-1.0472,-0.698132,0.174533,-0.174533,-1.04587,-0.691438,0.1652,-0.191635,-0.26589,-0.374845,0.279982,0.513048
28,60,-1.0472,-0.698132,0.174533,-0.174533,-1.04587,-0.691438,0.1652,-0.191635,-0.26589,-0.374845,0.279982,0.513048
28,60,-1.0472,-0.698132,0.174533,-0.174533,-1.04587,-0.691438,0.1652,-0.191635,-0.26589,-0.374845,0.279982,0.513048
28,60,-1.0472,-0.698132,0.174533,-0.174533,-1.04587,-0.691438,0.1652,-0.191635,-0.26589,-0.374845,0.279982,0.513048
28,60,-1.0472,-0.698132,0.174533,-0.174533,-1.04587,-0.691438,0.1652,-0.191635,-0.26589,-0.374845,0.279982,0.513048
28,60,-1.0472,-0.698132,0.174533,-0.174533,-1.04587,-0.691438,0.1652,-0.191635,-0.26589,-0.374845,0.279982,0.513048
28,60,-1.0472,-0.698132,0.174533,-0.174533,-1.04587,-0.691438,0.1652,-0.191635,-0.26589,-0.374845,0.279982,0.513048
28,60,-1.0472,-0.698132,0.174533,-0.174533,-1.04587,-0.691438,0.1652,-0.191635,-0.26589,-0.374845,0.279982,0.513048
28,60,-1.0472,-0.698132,0.174533,-0.174533,-1.04587,-0.691438,0.1652,-0.191635,-0.26589,-0.374845,0.279982,0.513048
28,60,-1.0472,-0.698132,0.174533,-0.174533,-1.04587,-0.691438,0.1652,-0.191635,-0.26589,-0.374845,0.279982,0.513048
28,60,-1.0472,-0.698132,0.174533,-0.174533,-1.04587,-0.691438,0.1652,-0.191635,-0.26589,-0.374845,0.279982,0.513048
28,60,-1.0472,-0.698132,0.174533,-0.174533,-1.04587,-0.691438,0.1652,-0.191635,-0.26589,-0.374845,0.279982,0.513048
28,60,-1.0472,-0.698132,0.174533,-0.174533,-1.04587,-0.691438,0.1652,-0.191635,-0.26589,-0.374845,0.279982,0.513048
28,60,-1.0472,-0.698132,0.174533,-0.174533,-1.04587,-0.691438,0.1652,-0.191635,-0.26589,-0.374845,0.279982,0.513048
28,60,-1.0472,-0.698132,0.174533,-0.174533,-1.04587,-0.691438,0.1652,-0.191635,-0.26589,-0.374845,0.279982,0.513048
28,60,-1.0472,-0.698132,0.174533,-0.174533,-1.04587,-0.691438,0.1652,-0.191635,-0.26589,-0.374845,0.279982,0.513048
28,60,-1.0472,-0.698132,0.174533,-0.174533,-1.04587,-0.691438,0.1652,-0.191635,-0.26589,-0.374845,0.279982,0.513048
28,60,-1.0472,-0.698132,0.174533,-0.174533,-1.04587,-0.691438,0.1652,-0.191635,-0.26589,-0.374845,0.279982,0.513048
28,60,-1.0472,-0.698132,0.174533,-0.174533,-1.04587,-0.691438,0.1652,-0.191635,-0.26589,-0.374845,0.279982,0.513048
28,60,-1.0472,-0.698132,0.174533,-0.174533,-1.04587,-0.691438,0.1652,-0.191635,-0.26589,-0.374845,0.279982,0.513048
28,60,-1.0472,-0.698132,0.174533,-0.174533,-1.04587,-0.691438,0.1652,-0.191635,-0.26589,-0.374845,0.279982,0.513048
28,60,-1.0472,-0.698132,0.174533,-0.174533,-1.04587,-0.691438,0.1652,-0.191635,-0.26589,-0.374845,0.279982,0.513048
28,60,-1.0472,-0.698132,0.174533,-0.174533,-1.04587,-0.691438,0.1652,-0.191635,-0.26589,-0.374845,0.279982,0.513048
28,60,-1.0472,-0.698132,0.174533,-0.174533,-1.04587,-0.691438,0.1652,-0.191635,-0.26589,-0.374845,0.279982,0.513048
28,60,-1.0472,-0.698132,0.174533,-0.174533,-1.04587,-0.691438,0.1652,-0.191635,-0.26589,-0.374845,0.279982,0.513048
28,60,-1.0472,-0.698132,0.174533,-0.174533,-1.04587,-0.691438,0.1652,-0.191635,-0.26589,-0.374845,0.279982,0.513048
28,60,-1.0472,-0.698132,0.174533,-0.174533,-1.04587,-0.691438,0.1652,-0.191635,-0.26589,-0.374845,0.279982,0.513048
28,60,-1.0472,-0.698132,0.174533,-0.174533,-1.04587,-0.691438,0.1652,-0.191635,-0.26589,-0.374845,0.279982,0.513048
28,60,-1.0472,-0.698132,0.174533,-0.174533,-1.04587,-0.691438,0.1652,-0.191635,-0.26589,-0.374845,0.279982,0.513048
28,60,-1.0472,-0.698132,0.174533,-0.174533,-1.04587,-0.691438,0.1652,-0.191635,-0.26589,-0.374845,0.279982,0.513048
28,60,-1.0472,-0.698132,0.174533,-0.174533,-1.04587,-0.691438,0.1652,-0.191635,-0.26589,-0.374845,0.279982,0.513048
28,60,-1.0472,-0.698132,0.174533,-0.174533,-1.04587,-0.691438,0.1652,-0.191635,-0.26589,-0.374845,0.279982,0.513048
28,60,-1.0472,-0.698132,0.174533,-0.174533,-1.04587,-0.691438,0.1652,-0.191635,-0.26589,-0.374845,0.279982,0.513048
28,60,-1.0472,-0.698132,0.174533,-0.174533,-1.04587,-0.691438,0.1652,-0.191635,-0.26589,-0.374845,0.279982,0.513048
28,60,-1.0472,-0.698132,0.174533,-0.174533,-1.04587,-0.691438,0.1652,-0.191635,-0.26589,-0.374845,0.279982,0.513048
28,60,-1.0472,-0.698132,0.174533,-0.174533,-1.04587,-0.691438,0.1652,-0.191635,-0.26589,-0.374845,0.279982,0.513048
28,60,-1.0472,-0.698132,0.174533,-0.174533,-1.04587,-0.691438,0.1652,-0.191635,-0.26589,-0.374845,0.279982,0.513048
28,60,-1.0472,-0.698132,0.174533,-0.174533,-1.04587,-0.691438,0.1652,-0.191635,-0.26589,-0.374845,0.279982,0.513048
28,60,-1.0472,-0.698132,0.174533,-0.174533,-1.04587,-0.691438,0.1652,-0.191635,-0.26589,-0.374845,0.279982,0.513048
28,60,-1.0472,-0.698132,0.174533,-0.174533,-1.04587,-0.691438,0.1652,-0.191635,-0.26589,-0.374845,0.279982,0.513048
28,60,-1.0472,-0.698132,0.174533,-0.174533,-1.04587,-0.691438,0.1652,-0.191635,-0.26589,-0.374845,0.279982,0.513048
28,60,-1.0472,-0.698132,0.174533,-0.174533,-1.04587,-0.691438,0.1652,-0.191635,-0.26589,-0.374845,0.279982,0.513048
28,60,-1.0472,-0.698132,0.174533,-0.174533,-1.04587,-0.691438,0.1652,-0.191635,-0.26589,-0.374845,0.279982,0.513048
28,60,-1.0472,-0.698132,0.174533,-0.174533,-1.04587,-0.691438,0.1652,-0.191635,-0.26589,-0.374845,0.279982,0.513048
28,60,-1.0472,-0.698132,0.174533,-0.174533,-1.04587,-0.691438,0.1652,-0.191635,-0.26589,-0.374845,0.279982,0.513048
28,60,-1.0472,-0.698132,0.174533,-0.174533,-1.04587,-0.691438,0.1652,-0.191635,-0.26589,-0.374845,0.279982,0.513048
28,60,-1.0472,-0.698132,0.174533,-0.174533,-1.04587,-0.691438,0.1652,-0.191635,-0.26589,-0.374845,0.279982,0.513048
28,60,-1.0472,-0.698132,0.174533,-0.174533,-1.04587,-0.691438,0.1652,-0.191635,-0.26589,-0.374845,0.279982,0.513048
28,60,-1.0472,-0.698132,0.174533,-0.174533,-1.04587,-0.691438,0.1652,-0.191635,-0.26589,-0.374845,0.279982,0.513048
28,60,-1.0472,-0.698132,0.174533,-0.174533,-1.04587,-0.691438,0.1652,-0.191635,-0.26589,-0.374845,0.279982,0.513048
28,60,-1.0472,-0.698132,0.174533,-0.174533,-1.04587,-0.691438,0.1652,-0.191635,-0.26589,-0.374845,0.279982,0.513048
28,60,-1.0472,-0.698132,0.174533,-0.174533,-1.04587,-0.691438,0.1652,-0.191635,-0.26589,-0.374845,0.279982,0.513048
28,60,-1.0472,-0.698132,0.174533,-0.174533,-1.04587,-0.691438,0.1652,-0.191635,-0.26589,-0.374845,0.279982,0.513048
28,60,-1.0472,-0.698132,0.174533,-0.174533,-1.04587,-0.691438,0.1652,-0.191635,-0.26589,-0.374845,0.279982,0.513048
28,60,-1.0472,-0.698132,0.174533,-0.174533,-1.04587,-0.691438,0.1652,-0.191635,-0.26589,-0.374845,0.279982,0.513052
28,60,-1.0472,-0.698132,0.174533,-0.174533,-1.04587,-0.691438,0.1652,-0.191635,-0.26589,-0.374845,0.279982,0.513052
28,60,-1.0472,-0.698132,0.174533,-0.174533,-1.04587,-0.691438,0.1652,-0.191635,-0.26589,-0.374845,0.279982,0.513052
28,60,-1.0472,-0.698132,0.174533,-0.174533,-1.04587,-0.691438,0.1652,-0.191635,-0.26589,-0.374845,0.279982,0.513052
28,60,-1.0472,-0.698132,0.174533,-0.174533,-1.04587,-0.691438,0.1652,-0.191635,-0.26589,-0.374845,0.279982,0.513052
28,60,-1.0472,-0.698132,0.174533,-0.174533,-1.04587,-0.691438,0.1652,-0.191635,-0.26589,-0.374845,0.279982,0.513052
28,60,-1.0472,-0.698132,0.174533,-0.174533,-1.04587,-0.691438,0.1652,-0.191635,-0.26589,-0.374845,0.279982,0.513052
28,60,-1.0472,-0.698132,0.174533,-0.174533,-1.04587,-0.691438,0.1652,-0.191635,-0.26589,-0.374845,0.279982,0.513052
28,60,-1.0472,-0.698132,0.174533,-0.174533,-1.04587,-0.691438,0.1652,-0.191635,-0.26589,-0.374845,0.279982,0.513052
28,60,-1.0472,-0.698132,0.174533,-0.174533,-1.04587,-0.691438,0.1652,-0.191635,-0.26589,-0.374845,0.279982,0.513052
28,60,-1.0472,-0.698132,0.174533,-0.174533,-1.04587,-0.691438,0.1652,-0.191635,-0.26589,-0.374845,0.279982,0.513052
28,60,-1.0472,-0.698132,0.174533,-0.174533,-1.04587,-0.691438,0.1652,-0.191635,-0.26589,-0.374845,0.279982,0.513052
28,60,-1.0472,-0.698132,0.174533,-0.174533,-1.04587,-0.691438,0.1652,-0.191635,-0.26589,-0.374845,0.279982,0.513052
28,60,-1.0472,-0.698132,0.174533,-0.174533,-1.04587,-0.691438,0.1652,-0.191635,-0.26589,-0.374845,0.279982,0.513052
28,60,-1.0472,-0.698132,0.174533,-0.174533,-1.04587,-0.691438,0.1652,-0.191635,-0.26589,-0.374845,0.279982,0.513052
28,60,-1.0472,-0.698132,0.174533,-0.174533,-1.04587,-0.691438,0.1652,-0.191635,-0.26589,-0.374845,0.279982,0.513052
28,60,-1.0472,-0.698132,0.174533,-0.174533,-1.04587,-0.691438,0.1652,-0.191635,-0.26589,-0.374845,0.279982,0.513052
28,60,-1.0472,-0.698132,0.174533,-0.174533,-1.04587,-0.691438,0.1652,-0.191635,-0.26589,-0.374845,0.279982,0.513052
28,60,-1.0472,-0.698132,0.174533,-0.174533,-1.04587,-0.691438,0.1652,-0.191635,-0.26589,-0.374845,0.279982,0.513052
28,60,-1.0472,-0.698132,0.174533,-0.174533,-1.04587,-0.691438,0.1652,-0.191635,-0.26589,-0.374845,0.279982,0.513052
28,60,-1.0472,-0.698132,0.174533,-0.174533,-1.04587,-0.691438,0.1652,-0.191635,-0.26589,-0.374845,0.279982,0.513052
28,60,-1.0472,-0.698132,0.174533,-0.174533,-1.04587,-0.691438,0.1652,-0.191635,-0.26589,-0.374845,0.279982,0.513052
28,60,-1.0472,-0.698132,0.174533,-0.174533,-1.04587,-0.691438,0.1652,-0.191635,-0.26589,-0.374845,0.279982,0.513052
28,60,-1.0472,-0.698132,0.174533,-0.174533,-1.04587,-0.691438,0.1652,-0.191635,-0.26589,-0.374845,0.279982,0.513052
28,60,-1.0472,-0.698132,0.174533,-0.174533,-1.04587,-0.691438,0.1652,-0.191635,-0.26589,-0.374845,0.279982,0.513052
28,60,-1.0472,-0.698132,0.174533,-0.174533,-1.04587,-0.691438,0.1652,-0.191635,-0.26589,-0.374845,0.279982,0.513052
28,60,-1.0472,-0.698132,0.174533,-0.174533,-1.04587,-0.691438,0.1652,-0.191635,-0.26589,-0.374845,0.279982,0.513052
28,60,-1.0472,-0.698132,0.174533,-0.174533,-1.04587,-0.691438,0.1652,-0.191635,-0.26589,-0.374845,0.279982,0.513052
28,60,-1.0472,-0.698132,0.174533,-0.174533,-1.04587,-0.691438,0.1652,-0.191635,-0.26589,-0.374845,0.279982,0.513052
28,60,-1.0472,-0.698132,0.174533,-0.174533,-1.04587,-0.691438,0.1652,-0.191635,-0.26589,-0.374845,0.279982,0.513052
28,60,-1.0472,-0.698132,0.174533,-0.174533,-1.04587,-0.691438,0.1652,-0.191635,-0.26589,-0.374845,0.279982,0.513052
28,60,-1.0472,-0.698132,0.174533,-0.174533,-1.04587,-0.691438,0.1652,-0.191635,-0.26589,-0.374845,0.279982,0.513052
28,60,-1.0472,-0.698132,0.174533,-0.174533,-1.04587,-0.691438,0.1652,-0.191635,-0.26589,-0.374845,0.279982,0.513052
28,60,-1.0472,-0.698132,0.174533,-0.174533,-1.04587,-0.691438,0.1652,-0.191635,-0.26589,-0.374845,0.279982,0.513052
28,60,-1.0472,-0.698132,0.174533,-0.174533,-1.04587,-0.691438,0.1652,-0.191635,-0.26589,-0.374845,0.279982,0.513052
28,60,-1.0472,-0.698132,0.174533,-0.174533,-1.04587,-0.691438,0.1652,-0.191635,-0.26589,-0.374845,0.279982,0.513052
28,60,-1.0472,-0.698132,0.174533,-0.174533,-1.04587,-0.691438,0.1652,-0.191635,-0.26589,-0.374845,0.279982,0.513052
28,60,-1.0472,-0.698132,0.174533,-0.174533,-1.04587,-0.691438,0.1652,-0.191635,-0.26589,-0.374845,0.279982,0.513052
28,60,-1.0472,-0.698132,0.174533,-0.174533,-1.04587,-0.691438,0.1652,-0.191635,-0.26589,-0.374845,0.279982,0.513052
28,60,-1.0472,-0.698132,0.174533,-0.174533,-1.04587,-0.691438,0.1652,-0.191635,-0.26589,-0.374845,0.279982,0.513052
28,60,-1.0472,-0.698132,0.174533,-0.174533,-1.04587,-0.691438,0.1652,-0.191635,-0.26589,-0.374845,0.279982,0.513052
28,60,-1.0472,-0.698132,0.174533,-0.174533,-1.04587,-0.691438,0.1652,-0.191635,-0.26589,-0.374845,0.279982,0.513052
28,60,-1.0472,-0.698132,0.174533,-0.174533,-1.04587,-0.691438,0.1652,-0.191635,-0.26589,-0.374845,0.279982,0.513052
28,60,-1.0472,-0.698132,0.174533,-0.174533,-1.04587,-0.691438,0.1652,-0.191635,-0.26589,-0.374845,0.279982,0.513052
28,60,-1.0472,-0.698132,0.174533,-0.174533,-1.04587,-0.691438,0.1652,-0.191635,-0.26589,-0.374845,0.279982,0.513052
28,60,-1.0472,-0.698132,0.174533,-0.174533,-1.04587,-0.691438,0.1652,-0.191635,-0.26589,-0.374845,0.279982,0.513052
28,60,-1.0472,-0.698132,0.174533,-0.174533,-1.04587,-0.691438,0.1652,-0.191635,-0.26589,-0.374845,0.279982,0.513052
28,60,-1.0472,-0.698132,0.174533,-0.174533,-1.04587,-0.691438,0.1652,-0.191635,-0.26589,-0.374845,0.279982,0.513052
28,60,-1.0472,-0.698132,0.174533,-0.174533,-1.04587,-0.691438,0.1652,-0.191635,-0.26589,-0.374845,0.279982,0.513052
28,60,-1.0472,-0.698132,0.174533,-0.174533,-1.04587,-0.691438,0.1652,-0.191635,-0.26589,-0.374845,0.279982,0.513052
28,60,-1.0472,-0.698132,0.174533,-0.174533,-1.04587,-0.691438,0.1652,-0.191635,-0.26589,-0.374845,0.279982,0.513052
28,60,-1.0472,-0.698132,0.174533,-0.174533,-1.04587,-0.691438,0.1652,-0.191635,-0.26589,-0.374845,0.279982,0.513052
28,60,-1.0472,-0.698132,0.174533,-0.174533,-1.04587,-0.691438,0.1652,-0.191635,-0.26589,-0.374845,0.279982,0.513052
28,60,-1.0472,-0.698132,0.174533,-0.174533,-1.04587,-0.691438,0.1652,-0.191635,-0.26589,-0.374845,0.279982,0.513052
28,60,-1.0472,-0.698132,0.174533,-0.174533,-1.04587,-0.691438,0.1652,-0.191635,-0.26589,-0.374845,0.279982,0.513052
28,60,-1.0472,-0.698132,0.174533,-0.174533,-1.04587,-0.691438,0.1652,-0.191635,-0.26589,-0.374845,0.279982,0.513052
28,60,-1.0472,-0.698132,0.174533,-0.174533,-1.04587,-0.691438,0.1652,-0.191635,-0.26589,-0.374845,0.279982,0.513052
28,60,-1.0472,-0.698132,0.174533,-0.174533,-1.04587,-0.691438,0.1652,-0.191635,-0.26589,-0.374845,0.279982,0.513052
28,60,-1.0472,-0.698132,0.174533,-0.174533,-1.04587,-0.691438,0.1652,-0.191635,-0.26589,-0.374845,0.279982,0.513052
28,60,-1.0472,-0.698132,0.174533,-0.174533,-1.04587,-0.691438,0.1652,-0.191635,-0.26589,-0.374845,0.279982,0.513052
28,60,-1.0472,-0.698132,0.174533,-0.174533,-1.04587,-0.691438,0.1652,-0.191635,-0.26589,-0.374845,0.279982,0.513052
28,60,-1.0472,-0.698132,0.174533,-0.174533,-1.04587,-0.691438,0.1652,-0.191635,-0.26589,-0.374845,0.279982,0.513052
28,60,-1.0472,-0.698132,0.174533,-0.174533,-1.04587,-0.691438,0.1652,-0.191635,-0.26589,-0.374845,0.279982,0.513052
28,60,-1.0472,-0.698132,0.174533,-0.174533,-1.04587,-0.691438,0.1652,-0.191635,-0.26589,-0.374845,0.279982,0.513052
28,60,-1.0472,-0.698132,0.174533,-0.174533,-1.04587,-0.691438,0.1652,-0.191635,-0.26589,-0.374845,0.279982,0.513052
28,60,-1.0472,-0.698132,0.174533,-0.174533,-1.04587,-0.691438,0.1652,-0.191635,-0.26589,-0.374845,0.279982,0.513052
28,60,-1.0472,-0.698132,0.174533,-0.174533,-1.04587,-0.691438,0.1652,-0.191635,-0.26589,-0.374845,0.279982,0.513052
28,60,-1.0472,-0.698132,0.174533,-0.174533,-1.04587,-0.691438,0.1652,-0.191635,-0.26589,-0.374845,0.279982,0.513052
28,60,-1.0472,-0.698132,0.174533,-0.174533,-1.04587,-0.691438,0.1652,-0.191635,-0.26589,-0.374845,0.279982,0.513052
28,60,-1.0472,-0.698132,0.174533,-0.174533,-1.04587,-0.691438,0.1652,-0.191635,-0.26589,-0.374845,0.279982,0.513052
28,60,-1.0472,-0.698132,0.174533,-0.174533,-1.04587,-0.691438,0.1652,-0.191635,-0.26589,-0.374845,0.279982,0.513052
28,60,-1.0472,-0.698132,0.174533,-0.174533,-1.04587,-0.691438,0.1652,-0.191635,-0.26589,-0.374845,0.279982,0.513052
28,60,-1.0472,-0.698132,0.174533,-0.174533,-1.04587,-0.691438,0.1652,-0.191635,-0.26589,-0.374845,0.279982,0.513052
28,60,-1.0472,-0.698132,0.174533,-0.174533,-1.04587,-0.691438,0.1652,-0.191635,-0.26589,-0.374845,0.279982,0.513052
28,60,-1.0472,-0.698132,0.174533,-0.174533,-1.04587,-0.691438,0.1652,-0.191635,-0.26589,-0.374845,0.279982,0.513052
28,60,-1.0472,-0.698132,0.174533,-0.174533,-1.04587,-0.691438,0.1652,-0.191635,-0.26589,-0.374845,0.279982,0.513052
28,60,-1.0472,-0.698132,0.174533,-0.174533,-1.04587,-0.691438,0.1652,-0.191635,-0.26589,-0.374845,0.279982,0.513052
28,60,-1.0472,-0.698132,0.174533,-0.174533,-1.04587,-0.691438,0.1652,-0.191635,-0.26589,-0.374845,0.279982,0.513052
28,60,-1.0472,-0.698132,0.174533,-0.174533,-1.04587,-0.691438,0.1652,-0.191635,-0.26589,-0.374845,0.279982,0.513052
28,60,-1.0472,-0.698132,0.174533,-0.174533,-1.04587,-0.691438,0.1652,-0.191635,-0.26589,-0.374845,0.279982,0.513052
28,60,-1.0472,-0.698132,0.174533,-0.174533,-1.04587,-0.691438,0.1652,-0.191635,-0.26589,-0.374845,0.279982,0.513052
28,60,-1.0472,-0.698132,0.174533,-0.174533,-1.04587,-0.691438,0.1652,-0.191635,-0.26589,-0.374845,0.279982,0.513052
28,60,-1.0472,-0.698132,0.174533,-0.174533,-1.04587,-0.691438,0.1652,-0.191635,-0.26589,-0.374845,0.279982,0.513052
28,60,-1.0472,-0.698132,0.174533,-0.174533,-1.04587,-0.691438,0.1652,-0.191635,-0.26589,-0.374845,0.279982,0.513052
28,60,-1.0472,-0.698132,0.174533,-0.174533,-1.04587,-0.691438,0.1652,-0.191635,-0.26589,-0.374845,0.279982,0.513052
28,60,-1.0472,-0.698132,0.174533,-0.174533,-1.04587,-0.691438,0.1652,-0.191635,-0.26589,-0.374845,0.279982,0.513052
28,60,-1.0472,-0.698132,0.174533,-0.174533,-1.04587,-0.691438,0.1652,-0.191635,-0.26589,-0.374845,0.279982,0.513052
28,60,-1.0472,-0.698132,0.174533,-0.174533,-1.04587,-0.691438,0.1652,-0.191635,-0.26589,-0.374845,0.279982,0.513052
28,60,-1.0472,-0.698132,0.174533,-0.174533,-1.04587,-0.691438,0.1652,-0.191635,-0.26589,-0.374845,0.279982,0.513052
28,60,-1.0472,-0.698132,0.174533,-0.174533,-1.04587,-0.691438,0.1652,-0.191635,-0.26589,-0.374845,0.279982,0.513052
28,60,-1.0472,-0.698132,0.174533,-0.174533,-1.04587,-0.691438,0.1652,-0.191635,-0.26589,-0.374845,0.279982,0.513052
28,60,-1.0472,-0.698132,0.174533,-0.174533,-1.04587,-0.691438,0.1652,-0.191635,-0.26589,-0.374845,0.279982,0.513052
28,60,-1.0472,-0.698132,0.174533,-0.174533,-1.04587,-0.691438,0.1652,-0.191635,-0.26589,-0.374845,0.279982,0.513052
28,60,-1.0472,-0.698132,0.174533,-0.174533,-1.04587,-0.691438,0.1652,-0.191635,-0.26589,-0.374845,0.279982,0.513052
28,60,-1.0472,-0.698132,0.174533,-0.174533,-1.04587,-0.691438,0.1652,-0.191635,-0.26589,-0.374845,0.279982,0.513052
28,60,-1.0472,-0.698132,0.174533,-0.174533,-1.04587,-0.691438,0.1652,-0.191635,-0.26589,-0.374845,0.279982,0.513052
28,60,-1.0472,-0.698132,0.174533,-0.174533,-1.04587,-0.691438,0.1652,-0.191635,-0.26589,-0.374845,0.279982,0.513052
28,60,-1.0472,-0.698132,0.174533,-0.174533,-1.04587,-0.691438,0.1652,-0.191635,-0.26589,-0.374845,0.279982,0.513052
28,60,-1.0472,-0.698132,0.174533,-0.174533,-1.04587,-0.691438,0.1652,-0.191635,-0.26589,-0.374845,0.279982,0.513052
28,60,-1.0472,-0.698132,0.174533,-0.174533,-1.04587,-0.691438,0.1652,-0.191635,-0.26589,-0.374845,0.279982,0.513052
28,60,-1.0472,-0.698132,0.174533,-0.174533,-1.04587,-0.691438,0.1652,-0.191635,-0.26589,-0.374845,0.279982,0.513052
28,60,-1.0472,-0.698132,0.174533,-0.174533,-1.04587,-0.691438,0.1652,-0.191635,-0.26589,-0.374845,0.279982,0.513052
28,60,-1.0472,-0.698132,0.174533,-0.174533,-1.04587,-0.691438,0.1652,-0.191635,-0.26589,-0.374845,0.279982,0.513052
28,60,-1.0472,-0.698132,0.174533,-0.174533,-1.04587,-0.691438,0.1652,-0.191635,-0.26589,-0.374845,0.279982,0.513052
28,60,-1.0472,-0.698132,0.174533,-0.174533,-1.04587,-0.691438,0.1652,-0.191635,-0.26589,-0.374845,0.279982,0.513052
