stim_pw [us],stim_amp [mA],com_elbow_fe [rad],com_forearm_ps [rad],com_wrist_fe [rad],com_wrist_ru [rad],act_elbow_fe [rad],act_forearm_ps [rad],act_wrist_fe [rad],act_wrist_ru [rad],elbow_fe_trq [Nm],forearm_ps_trq [Nm],wrist_fe_trq [Nm],wrist_ru_trq [Nm]
23,45,-0.567232,-0.698132,-0.174533,-0.174533,-0.567675,-0.688388,-0.143486,-0.191141,0.044315,-0.272836,-0.465701,0.249116
23,45,-0.567232,-0.698132,-0.174533,-0.174533,-0.567675,-0.688388,-0.143486,-0.191141,0.044315,-0.272836,-0.465701,0.249116
23,45,-0.567232,-0.698132,-0.174533,-0.174533,-0.567675,-0.688388,-0.143486,-0.191141,0.044315,-0.272836,-0.465701,0.249116
23,45,-0.567232,-0.698132,-0.174533,-0.174533,-0.567675,-0.688388,-0.143486,-0.191141,0.044315,-0.272836,-0.465701,0.249116
23,45,-0.567232,-0.698132,-0.174533,-0.174533,-0.567675,-0.688388,-0.143486,-0.191141,0.044315,-0.272836,-0.465701,0.249116
23,45,-0.567232,-0.698132,-0.174533,-0.174533,-0.567675,-0.688388,-0.143486,-0.191141,0.044315,-0.272836,-0.465701,0.249116
23,45,-0.567232,-0.698132,-0.174533,-0.174533,-0.567675,-0.688388,-0.143486,-0.191141,0.044315,-0.272836,-0.465701,0.249116
23,45,-0.567232,-0.698132,-0.174533,-0.174533,-0.567675,-0.688388,-0.143486,-0.191141,0.044315,-0.272836,-0.465701,0.249116
23,45,-0.567232,-0.698132,-0.174533,-0.174533,-0.567675,-0.688388,-0.143486,-0.191141,0.044315,-0.272836,-0.465701,0.249116
23,45,-0.567232,-0.698132,-0.174533,-0.174533,-0.567675,-0.688388,-0.143486,-0.191141,0.044315,-0.272836,-0.465701,0.249116
23,45,-0.567232,-0.698132,-0.174533,-0.174533,-0.567675,-0.688388,-0.143486,-0.191141,0.044315,-0.272836,-0.465701,0.249116
23,45,-0.567232,-0.698132,-0.174533,-0.174533,-0.567675,-0.688388,-0.143486,-0.191141,0.044315,-0.272836,-0.465701,0.249116
23,45,-0.567232,-0.698132,-0.174533,-0.174533,-0.567675,-0.688388,-0.143486,-0.191141,0.044315,-0.272836,-0.465701,0.249116
23,45,-0.567232,-0.698132,-0.174533,-0.174533,-0.567675,-0.688388,-0.143486,-0.191141,0.044315,-0.272836,-0.465701,0.249116
23,45,-0.567232,-0.698132,-0.174533,-0.174533,-0.567675,-0.688388,-0.143486,-0.191141,0.044315,-0.272836,-0.465701,0.249116
23,45,-0.567232,-0.698132,-0.174533,-0.174533,-0.567675,-0.688388,-0.143486,-0.191141,0.044315,-0.272836,-0.465701,0.249116
23,45,-0.567232,-0.698132,-0.174533,-0.174533,-0.567675,-0.688388,-0.143486,-0.191141,0.044315,-0.272836,-0.465701,0.249116
23,45,-0.567232,-0.698132,-0.174533,-0.174533,-0.567675,-0.688388,-0.143486,-0.191141,0.044315,-0.272836,-0.465701,0.249116
23,45,-0.567232,-0.698132,-0.174533,-0.174533,-0.567675,-0.688388,-0.143486,-0.191141,0.044315,-0.272836,-0.465701,0.249116
23,45,-0.567232,-0.698132,-0.174533,-0.174533,-0.567675,-0.688388,-0.143486,-0.191141,0.044315,-0.272836,-0.465701,0.249116
23,45,-0.567232,-0.698132,-0.174533,-0.174533,-0.567675,-0.688388,-0.143486,-0.191141,0.044315,-0.272836,-0.465701,0.249116
23,45,-0.567232,-0.698132,-0.174533,-0.174533,-0.567675,-0.688388,-0.143486,-0.191141,0.044315,-0.272836,-0.465701,0.249116
23,45,-0.567232,-0.698132,-0.174533,-0.174533,-0.567675,-0.688388,-0.143486,-0.191141,0.044315,-0.272836,-0.465701,0.249116
23,45,-0.567232,-0.698132,-0.174533,-0.174533,-0.567675,-0.688388,-0.143486,-0.191141,0.044315,-0.272836,-0.465701,0.249116
23,45,-0.567232,-0.698132,-0.174533,-0.174533,-0.567675,-0.688388,-0.143486,-0.191141,0.044315,-0.272836,-0.465701,0.249116
23,45,-0.567232,-0.698132,-0.174533,-0.174533,-0.567675,-0.688388,-0.143486,-0.191141,0.044315,-0.272836,-0.465701,0.249116
23,45,-0.567232,-0.698132,-0.174533,-0.174533,-0.567675,-0.688388,-0.143486,-0.191141,0.044315,-0.272836,-0.465701,0.249116
23,45,-0.567232,-0.698132,-0.174533,-0.174533,-0.567675,-0.688388,-0.143486,-0.191141,0.044315,-0.272836,-0.465701,0.249116
23,45,-0.567232,-0.698132,-0.174533,-0.174533,-0.567675,-0.688388,-0.143486,-0.191141,0.044315,-0.272836,-0.465701,0.249116
23,45,-0.567232,-0.698132,-0.174533,-0.174533,-0.567675,-0.688388,-0.143486,-0.191141,0.044315,-0.272836,-0.465701,0.249116
23,45,-0.567232,-0.698132,-0.174533,-0.174533,-0.567675,-0.688388,-0.143486,-0.191141,0.044315,-0.272836,-0.465701,0.249116
23,45,-0.567232,-0.698132,-0.174533,-0.174533,-0.567675,-0.688388,-0.143486,-0.191141,0.044315,-0.272836,-0.465701,0.249116
23,45,-0.567232,-0.698132,-0.174533,-0.174533,-0.567675,-0.688388,-0.143486,-0.191141,0.044315,-0.272836,-0.465701,0.249116
23,45,-0.567232,-0.698132,-0.174533,-0.174533,-0.567675,-0.688388,-0.143486,-0.191141,0.044315,-0.272836,-0.465701,0.249116
23,45,-0.567232,-0.698132,-0.174533,-0.174533,-0.567675,-0.688388,-0.143486,-0.191141,0.044315,-0.272836,-0.465701,0.249116
23,45,-0.567232,-0.698132,-0.174533,-0.174533,-0.567675,-0.688388,-0.143486,-0.191141,0.044315,-0.272836,-0.465701,0.249116
23,45,-0.567232,-0.698132,-0.174533,-0.174533,-0.567675,-0.688388,-0.143486,-0.191141,0.044315,-0.272836,-0.465701,0.249116
23,45,-0.567232,-0.698132,-0.174533,-0.174533,-0.567675,-0.688388,-0.143486,-0.191141,0.044315,-0.272836,-0.465701,0.249116
23,45,-0.567232,-0.698132,-0.174533,-0.174533,-0.567675,-0.688388,-0.143486,-0.191141,0.044315,-0.272836,-0.465701,0.249116
23,45,-0.567232,-0.698132,-0.174533,-0.174533,-0.567675,-0.688388,-0.143484,-0.191081,0.044315,-0.272836,-0.46573,0.248227
23,45,-0.567232,-0.698132,-0.174533,-0.174533,-0.567675,-0.688388,-0.143484,-0.191081,0.044315,-0.272836,-0.46573,0.248227
23,45,-0.567232,-0.698132,-0.174533,-0.174533,-0.567675,-0.688388,-0.143484,-0.191081,0.044315,-0.272836,-0.46573,0.248227
23,45,-0.567232,-0.698132,-0.174533,-0.174533,-0.567675,-0.688388,-0.143484,-0.191081,0.044315,-0.272836,-0.46573,0.248227
23,45,-0.567232,-0.698132,-0.174533,-0.174533,-0.567675,-0.688388,-0.143484,-0.191081,0.044315,-0.272836,-0.46573,0.248227
23,45,-0.567232,-0.698132,-0.174533,-0.174533,-0.567675,-0.688388,-0.143484,-0.191081,0.044315,-0.272836,-0.46573,0.248227
23,45,-0.567232,-0.698132,-0.174533,-0.174533,-0.567604,-0.688388,-0.143484,-0.191081,0.0371564,-0.272836,-0.46573,0.248227
23,45,-0.567232,-0.698132,-0.174533,-0.174533,-0.567604,-0.688388,-0.143484,-0.191081,0.0371564,-0.272836,-0.46573,0.248227
23,45,-0.567232,-0.698132,-0.174533,-0.174533,-0.567604,-0.688388,-0.143484,-0.191081,0.0371564,-0.272836,-0.46573,0.248227
23,45,-0.567232,-0.698132,-0.174533,-0.174533,-0.567604,-0.688388,-0.143484,-0.191081,0.0371564,-0.272836,-0.46573,0.248227
23,45,-0.567232,-0.698132,-0.174533,-0.174533,-0.567604,-0.688388,-0.143484,-0.191081,0.0371564,-0.272836,-0.46573,0.248227
23,45,-0.567232,-0.698132,-0.174533,-0.174533,-0.567604,-0.688388,-0.143484,-0.191081,0.0371564,-0.272836,-0.46573,0.248227
23,45,-0.567232,-0.698132,-0.174533,-0.174533,-0.567604,-0.688388,-0.143484,-0.191081,0.0371564,-0.272836,-0.46573,0.248227
23,45,-0.567232,-0.698132,-0.174533,-0.174533,-0.567604,-0.688388,-0.143484,-0.191081,0.0371564,-0.272836,-0.46573,0.248227
23,45,-0.567232,-0.698132,-0.174533,-0.174533,-0.567604,-0.688388,-0.143484,-0.191081,0.0371564,-0.272836,-0.46573,0.248227
23,45,-0.567232,-0.698132,-0.174533,-0.174533,-0.567604,-0.688388,-0.143484,-0.191081,0.0371564,-0.272836,-0.46573,0.248227
23,45,-0.567232,-0.698132,-0.174533,-0.174533,-0.567604,-0.688388,-0.143484,-0.191081,0.0371564,-0.272836,-0.46573,0.248227
23,45,-0.567232,-0.698132,-0.174533,-0.174533,-0.567604,-0.688388,-0.143484,-0.191081,0.0371564,-0.272836,-0.46573,0.248227
23,45,-0.567232,-0.698132,-0.174533,-0.174533,-0.567604,-0.688388,-0.143484,-0.191081,0.0371564,-0.272836,-0.46573,0.248227
23,45,-0.567232,-0.698132,-0.174533,-0.174533,-0.567604,-0.688388,-0.143484,-0.191081,0.0371564,-0.272836,-0.46573,0.248227
23,45,-0.567232,-0.698132,-0.174533,-0.174533,-0.567604,-0.688388,-0.143484,-0.191081,0.0371564,-0.272836,-0.46573,0.248227
23,45,-0.567232,-0.698132,-0.174533,-0.174533,-0.567604,-0.688388,-0.143484,-0.191081,0.0371564,-0.272836,-0.46573,0.248227
23,45,-0.567232,-0.698132,-0.174533,-0.174533,-0.567604,-0.688388,-0.143484,-0.191081,0.0371564,-0.272836,-0.46573,0.248227
23,45,-0.567232,-0.698132,-0.174533,-0.174533,-0.567604,-0.688388,-0.143484,-0.191081,0.0371564,-0.272836,-0.46573,0.248227
23,45,-0.567232,-0.698132,-0.174533,-0.174533,-0.567604,-0.688388,-0.143484,-0.191081,0.0371564,-0.272836,-0.46573,0.248227
23,45,-0.567232,-0.698132,-0.174533,-0.174533,-0.567604,-0.688388,-0.143484,-0.191081,0.0371564,-0.272836,-0.46573,0.248227
23,45,-0.567232,-0.698132,-0.174533,-0.174533,-0.567604,-0.688388,-0.143484,-0.191081,0.0371564,-0.272836,-0.46573,0.248227
23,45,-0.567232,-0.698132,-0.174533,-0.174533,-0.567604,-0.688388,-0.143545,-0.191062,0.0371564,-0.272836,-0.464819,0.247931
23,45,-0.567232,-0.698132,-0.174533,-0.174533,-0.567604,-0.688388,-0.143545,-0.191062,0.0371564,-0.272836,-0.464819,0.247931
23,45,-0.567232,-0.698132,-0.174533,-0.174533,-0.567604,-0.688388,-0.143545,-0.191062,0.0371564,-0.272836,-0.464819,0.247931
23,45,-0.567232,-0.698132,-0.174533,-0.174533,-0.567604,-0.688388,-0.143545,-0.191062,0.0371564,-0.272836,-0.464819,0.247931
23,45,-0.567232,-0.698132,-0.174533,-0.174533,-0.567604,-0.688388,-0.143545,-0.191062,0.0371564,-0.272836,-0.464819,0.247931
23,45,-0.567232,-0.698132,-0.174533,-0.174533,-0.567604,-0.688388,-0.143545,-0.191062,0.0371564,-0.272836,-0.464819,0.247931
23,45,-0.567232,-0.698132,-0.174533,-0.174533,-0.567604,-0.688388,-0.143545,-0.191062,0.0371564,-0.272836,-0.464819,0.247931
23,45,-0.567232,-0.698132,-0.174533,-0.174533,-0.567604,-0.688388,-0.143545,-0.191062,0.0371564,-0.272836,-0.464819,0.247931
23,45,-0.567232,-0.698132,-0.174533,-0.174533,-0.567604,-0.688388,-0.143545,-0.191062,0.0371564,-0.272836,-0.464819,0.247931
23,45,-0.567232,-0.698132,-0.174533,-0.174533,-0.567604,-0.688388,-0.143545,-0.191062,0.0371564,-0.272836,-0.464819,0.247931
23,45,-0.567232,-0.698132,-0.174533,-0.174533,-0.567604,-0.688388,-0.143545,-0.191062,0.0371564,-0.272836,-0.464819,0.247931
23,45,-0.567232,-0.698132,-0.174533,-0.174533,-0.567604,-0.688388,-0.143545,-0.191062,0.0371564,-0.272836,-0.464819,0.247931
23,45,-0.567232,-0.698132,-0.174533,-0.174533,-0.567604,-0.688388,-0.143545,-0.191062,0.0371564,-0.272836,-0.464819,0.247931
23,45,-0.567232,-0.698132,-0.174533,-0.174533,-0.567604,-0.688388,-0.143545,-0.191062,0.0371564,-0.272836,-0.464819,0.247931
23,45,-0.567232,-0.698132,-0.174533,-0.174533,-0.567604,-0.688388,-0.143545,-0.191062,0.0371564,-0.272836,-0.464819,0.247931
23,45,-0.567232,-0.698132,-0.174533,-0.174533,-0.567604,-0.688388,-0.143545,-0.191062,0.0371564,-0.272836,-0.464819,0.247931
23,45,-0.567232,-0.698132,-0.174533,-0.174533,-0.567604,-0.688388,-0.143545,-0.191062,0.0371564,-0.272836,-0.464819,0.247931
23,45,-0.567232,-0.698132,-0.174533,-0.174533,-0.567604,-0.688388,-0.143545,-0.191062,0.0371564,-0.272836,-0.464819,0.247931
23,45,-0.567232,-0.698132,-0.174533,-0.174533,-0.567604,-0.688388,-0.143545,-0.191062,0.0371564,-0.272836,-0.464819,0.247931
23,45,-0.567232,-0.698132,-0.174533,-0.174533,-0.567604,-0.688388,-0.143545,-0.191062,0.0371564,-0.272836,-0.464819,0.247931
23,45,-0.567232,-0.698132,-0.174533,-0.174533,-0.567604,-0.688388,-0.143545,-0.191062,0.0371564,-0.272836,-0.464819,0.247931
23,45,-0.567232,-0.698132,-0.174533,-0.174533,-0.567604,-0.688388,-0.143545,-0.191062,0.0371564,-0.272836,-0.464819,0.247931
23,45,-0.567232,-0.698132,-0.174533,-0.174533,-0.567604,-0.688388,-0.143545,-0.191062,0.0371564,-0.272836,-0.464819,0.247931
23,45,-0.567232,-0.698132,-0.174533,-0.174533,-0.567604,-0.688388,-0.143545,-0.191062,0.0371564,-0.272836,-0.464819,0.247931
23,45,-0.567232,-0.698132,-0.174533,-0.174533,-0.567604,-0.688388,-0.143545,-0.191062,0.0371564,-0.272836,-0.464819,0.247931
23,45,-0.567232,-0.698132,-0.174533,-0.174533,-0.567604,-0.688388,-0.143545,-0.191062,0.0371564,-0.272836,-0.464819,0.247931
23,45,-0.567232,-0.698132,-0.174533,-0.174533,-0.567604,-0.688388,-0.143545,-0.191062,0.0371564,-0.272836,-0.464819,0.247931
23,45,-0.567232,-0.698132,-0.174533,-0.174533,-0.567604,-0.688388,-0.143545,-0.191062,0.0371564,-0.272836,-0.464819,0.247931
23,45,-0.567232,-0.698132,-0.174533,-0.174533,-0.567604,-0.688388,-0.143545,-0.191062,0.0371564,-0.272836,-0.464819,0.247931
23,45,-0.567232,-0.698132,-0.174533,-0.174533,-0.567604,-0.688388,-0.143545,-0.191062,0.0371564,-0.272836,-0.464819,0.247931
23,45,-0.567232,-0.698132,-0.174533,-0.174533,-0.567604,-0.688388,-0.143545,-0.191062,0.0371564,-0.272836,-0.464819,0.247931
23,45,-0.567232,-0.698132,-0.174533,-0.174533,-0.567604,-0.688388,-0.143545,-0.191062,0.0371564,-0.272836,-0.464819,0.247931
23,45,-0.567232,-0.698132,-0.174533,-0.174533,-0.567604,-0.688388,-0.143545,-0.191062,0.0371564,-0.272836,-0.464819,0.247931
23,45,-0.567232,-0.698132,-0.174533,-0.174533,-0.567604,-0.688388,-0.143545,-0.191062,0.0371564,-0.272836,-0.464819,0.247931
23,45,-0.567232,-0.698132,-0.174533,-0.174533,-0.567604,-0.688388,-0.143545,-0.191062,0.0371564,-0.272836,-0.464819,0.247931
23,45,-0.567232,-0.698132,-0.174533,-0.174533,-0.567604,-0.688388,-0.143545,-0.191062,0.0371564,-0.272836,-0.464819,0.247931
23,45,-0.567232,-0.698132,-0.174533,-0.174533,-0.567604,-0.688388,-0.143545,-0.191062,0.0371564,-0.272836,-0.464819,0.247931
23,45,-0.567232,-0.698132,-0.174533,-0.174533,-0.567604,-0.688388,-0.143545,-0.191062,0.0371564,-0.272836,-0.464819,0.247931
23,45,-0.567232,-0.698132,-0.174533,-0.174533,-0.567604,-0.688388,-0.143545,-0.191062,0.0371564,-0.272836,-0.464819,0.247931
23,45,-0.567232,-0.698132,-0.174533,-0.174533,-0.567604,-0.688388,-0.143545,-0.191062,0.0371564,-0.272836,-0.464819,0.247931
23,45,-0.567232,-0.698132,-0.174533,-0.174533,-0.567604,-0.688388,-0.143545,-0.191062,0.0371564,-0.272836,-0.464819,0.247931
23,45,-0.567232,-0.698132,-0.174533,-0.174533,-0.567604,-0.688388,-0.143545,-0.191062,0.0371564,-0.272836,-0.464819,0.247931
23,45,-0.567232,-0.698132,-0.174533,-0.174533,-0.567604,-0.688388,-0.143545,-0.191062,0.0371564,-0.272836,-0.464819,0.247931
23,45,-0.567232,-0.698132,-0.174533,-0.174533,-0.567604,-0.688388,-0.143545,-0.191062,0.0371564,-0.272836,-0.464819,0.247931
23,45,-0.567232,-0.698132,-0.174533,-0.174533,-0.567604,-0.688388,-0.143545,-0.191062,0.0371564,-0.272836,-0.464819,0.247931
23,45,-0.567232,-0.698132,-0.174533,-0.174533,-0.567604,-0.688388,-0.143545,-0.191062,0.0371564,-0.272836,-0.464819,0.247931
23,45,-0.567232,-0.698132,-0.174533,-0.174533,-0.567604,-0.688388,-0.143545,-0.191062,0.0371564,-0.272836,-0.464819,0.247931
23,45,-0.567232,-0.698132,-0.174533,-0.174533,-0.567604,-0.688388,-0.143545,-0.191062,0.0371564,-0.272836,-0.464819,0.247931
23,45,-0.567232,-0.698132,-0.174533,-0.174533,-0.567604,-0.688388,-0.143545,-0.191062,0.0371564,-0.272836,-0.464819,0.247931
23,45,-0.567232,-0.698132,-0.174533,-0.174533,-0.567604,-0.688388,-0.143545,-0.191062,0.0371564,-0.272836,-0.464819,0.247931
23,45,-0.567232,-0.698132,-0.174533,-0.174533,-0.567604,-0.688388,-0.143545,-0.191062,0.0371564,-0.272836,-0.464819,0.247931
23,45,-0.567232,-0.698132,-0.174533,-0.174533,-0.567604,-0.688388,-0.143545,-0.191062,0.0371564,-0.272836,-0.464819,0.247931
23,45,-0.567232,-0.698132,-0.174533,-0.174533,-0.567604,-0.688388,-0.143545,-0.191062,0.0371564,-0.272836,-0.464819,0.247931
23,45,-0.567232,-0.698132,-0.174533,-0.174533,-0.567604,-0.688388,-0.143545,-0.191062,0.0371564,-0.272836,-0.464819,0.247931
23,45,-0.567232,-0.698132,-0.174533,-0.174533,-0.567604,-0.688388,-0.143545,-0.191062,0.0371564,-0.272836,-0.464819,0.247931
23,45,-0.567232,-0.698132,-0.174533,-0.174533,-0.567604,-0.688388,-0.143545,-0.191062,0.0371564,-0.272836,-0.464819,0.247931
23,45,-0.567232,-0.698132,-0.174533,-0.174533,-0.567604,-0.688388,-0.143545,-0.191062,0.0371564,-0.272836,-0.464819,0.247931
23,45,-0.567232,-0.698132,-0.174533,-0.174533,-0.567604,-0.688388,-0.143545,-0.191062,0.0371564,-0.272836,-0.464819,0.247931
23,45,-0.567232,-0.698132,-0.174533,-0.174533,-0.567604,-0.688388,-0.143545,-0.191062,0.0371564,-0.272836,-0.464819,0.247931
23,45,-0.567232,-0.698132,-0.174533,-0.174533,-0.567604,-0.688388,-0.143545,-0.191062,0.0371564,-0.272836,-0.464819,0.247931
23,45,-0.567232,-0.698132,-0.174533,-0.174533,-0.567604,-0.688388,-0.143545,-0.191062,0.0371564,-0.272836,-0.464819,0.247931
23,45,-0.567232,-0.698132,-0.174533,-0.174533,-0.567604,-0.688388,-0.143545,-0.191062,0.0371564,-0.272836,-0.464819,0.247931
23,45,-0.567232,-0.698132,-0.174533,-0.174533,-0.567604,-0.688388,-0.143545,-0.191062,0.0371564,-0.272836,-0.464819,0.247931
23,45,-0.567232,-0.698132,-0.174533,-0.174533,-0.567604,-0.688388,-0.143545,-0.191062,0.0371564,-0.272836,-0.464819,0.247931
23,45,-0.567232,-0.698132,-0.174533,-0.174533,-0.567604,-0.688388,-0.143545,-0.191062,0.0371564,-0.272836,-0.464819,0.247931
23,45,-0.567232,-0.698132,-0.174533,-0.174533,-0.567604,-0.688388,-0.143545,-0.191062,0.0371564,-0.272836,-0.464819,0.247931
23,45,-0.567232,-0.698132,-0.174533,-0.174533,-0.567604,-0.688388,-0.143545,-0.191062,0.0371564,-0.272836,-0.464819,0.247931
23,45,-0.567232,-0.698132,-0.174533,-0.174533,-0.567604,-0.688388,-0.143545,-0.191062,0.0371564,-0.272836,-0.464819,0.247931
23,45,-0.567232,-0.698132,-0.174533,-0.174533,-0.567604,-0.688388,-0.143545,-0.191062,0.0371564,-0.272836,-0.464819,0.247931
23,45,-0.567232,-0.698132,-0.174533,-0.174533,-0.567604,-0.688388,-0.143545,-0.191062,0.0371564,-0.272836,-0.464819,0.247931
23,45,-0.567232,-0.698132,-0.174533,-0.174533,-0.567604,-0.688388,-0.143545,-0.191062,0.0371564,-0.272836,-0.464819,0.247931
23,45,-0.567232,-0.698132,-0.174533,-0.174533,-0.567604,-0.688388,-0.143545,-0.191062,0.0371564,-0.272836,-0.464819,0.247931
23,45,-0.567232,-0.698132,-0.174533,-0.174533,-0.567604,-0.688388,-0.143545,-0.191062,0.0371564,-0.272836,-0.464819,0.247931
23,45,-0.567232,-0.698132,-0.174533,-0.174533,-0.567604,-0.688388,-0.143545,-0.191062,0.0371564,-0.272836,-0.464819,0.247931
23,45,-0.567232,-0.698132,-0.174533,-0.174533,-0.567604,-0.688388,-0.143545,-0.191062,0.0371564,-0.272836,-0.464819,0.247931
23,45,-0.567232,-0.698132,-0.174533,-0.174533,-0.567604,-0.688388,-0.143545,-0.191062,0.0371564,-0.272836,-0.464819,0.247931
23,45,-0.567232,-0.698132,-0.174533,-0.174533,-0.567604,-0.688388,-0.143545,-0.191062,0.0371564,-0.272836,-0.464819,0.247931
23,45,-0.567232,-0.698132,-0.174533,-0.174533,-0.567604,-0.688388,-0.143545,-0.191062,0.0371564,-0.272836,-0.464819,0.247931
23,45,-0.567232,-0.698132,-0.174533,-0.174533,-0.567604,-0.688388,-0.143545,-0.191062,0.0371564,-0.272836,-0.464819,0.247931
23,45,-0.567232,-0.698132,-0.174533,-0.174533,-0.567604,-0.688388,-0.143545,-0.191062,0.0371564,-0.272836,-0.464819,0.247931
23,45,-0.567232,-0.698132,-0.174533,-0.174533,-0.567604,-0.688388,-0.143545,-0.191062,0.0371564,-0.272836,-0.464819,0.247931
23,45,-0.567232,-0.698132,-0.174533,-0.174533,-0.567604,-0.688388,-0.143545,-0.191062,0.0371564,-0.272836,-0.464819,0.247931
23,45,-0.567232,-0.698132,-0.174533,-0.174533,-0.567604,-0.688388,-0.143545,-0.191062,0.0371564,-0.272836,-0.464819,0.247931
23,45,-0.567232,-0.698132,-0.174533,-0.174533,-0.567604,-0.688388,-0.143545,-0.191062,0.0371564,-0.272836,-0.464819,0.247931
23,45,-0.567232,-0.698132,-0.174533,-0.174533,-0.567604,-0.688388,-0.143545,-0.191062,0.0371564,-0.272836,-0.464819,0.247931
23,45,-0.567232,-0.698132,-0.174533,-0.174533,-0.567604,-0.688388,-0.143545,-0.191062,0.0371564,-0.272836,-0.464819,0.247931
23,45,-0.567232,-0.698132,-0.174533,-0.174533,-0.567604,-0.688388,-0.143545,-0.191062,0.0371564,-0.272836,-0.464819,0.247931
23,45,-0.567232,-0.698132,-0.174533,-0.174533,-0.567604,-0.688388,-0.143545,-0.191062,0.0371564,-0.272836,-0.464819,0.247931
23,45,-0.567232,-0.698132,-0.174533,-0.174533,-0.567604,-0.688388,-0.143545,-0.191062,0.0371564,-0.272836,-0.464819,0.247931
23,45,-0.567232,-0.698132,-0.174533,-0.174533,-0.567604,-0.688388,-0.143545,-0.191062,0.0371564,-0.272836,-0.464819,0.247931
23,45,-0.567232,-0.698132,-0.174533,-0.174533,-0.567604,-0.688388,-0.143545,-0.191062,0.0371564,-0.272836,-0.464819,0.247931
23,45,-0.567232,-0.698132,-0.174533,-0.174533,-0.567604,-0.688388,-0.143545,-0.191062,0.0371564,-0.272836,-0.464819,0.247931
23,45,-0.567232,-0.698132,-0.174533,-0.174533,-0.567604,-0.688388,-0.143545,-0.191062,0.0371564,-0.272836,-0.464819,0.247931
23,45,-0.567232,-0.698132,-0.174533,-0.174533,-0.567604,-0.688388,-0.143545,-0.191062,0.0371564,-0.272836,-0.464819,0.247931
23,45,-0.567232,-0.698132,-0.174533,-0.174533,-0.567604,-0.688388,-0.143545,-0.191062,0.0371564,-0.272836,-0.464819,0.247931
23,45,-0.567232,-0.698132,-0.174533,-0.174533,-0.567604,-0.688388,-0.143545,-0.191062,0.0371564,-0.272836,-0.464819,0.247931
23,45,-0.567232,-0.698132,-0.174533,-0.174533,-0.567604,-0.688388,-0.143545,-0.191062,0.0371564,-0.272836,-0.464819,0.247931
23,45,-0.567232,-0.698132,-0.174533,-0.174533,-0.567604,-0.688388,-0.143545,-0.191062,0.0371564,-0.272836,-0.464819,0.247931
23,45,-0.567232,-0.698132,-0.174533,-0.174533,-0.567604,-0.688388,-0.143545,-0.191062,0.0371564,-0.272836,-0.464819,0.247931
23,45,-0.567232,-0.698132,-0.174533,-0.174533,-0.567604,-0.688388,-0.143545,-0.191062,0.0371564,-0.272836,-0.464819,0.247931
23,45,-0.567232,-0.698132,-0.174533,-0.174533,-0.567604,-0.688388,-0.143545,-0.191062,0.0371564,-0.272836,-0.464819,0.247931
23,45,-0.567232,-0.698132,-0.174533,-0.174533,-0.567604,-0.688388,-0.143545,-0.191062,0.0371564,-0.272836,-0.464819,0.247931
23,45,-0.567232,-0.698132,-0.174533,-0.174533,-0.567604,-0.688388,-0.143545,-0.191062,0.0371564,-0.272836,-0.464819,0.247931
23,45,-0.567232,-0.698132,-0.174533,-0.174533,-0.567604,-0.688388,-0.143545,-0.191062,0.0371564,-0.272836,-0.464819,0.247931
23,45,-0.567232,-0.698132,-0.174533,-0.174533,-0.567604,-0.688388,-0.143545,-0.191062,0.0371564,-0.272836,-0.464819,0.247931
23,45,-0.567232,-0.698132,-0.174533,-0.174533,-0.567604,-0.688388,-0.143545,-0.191062,0.0371564,-0.272836,-0.464819,0.247931
23,45,-0.567232,-0.698132,-0.174533,-0.174533,-0.567604,-0.688388,-0.143545,-0.191062,0.0371564,-0.272836,-0.464819,0.247931
23,45,-0.567232,-0.698132,-0.174533,-0.174533,-0.567604,-0.688388,-0.143545,-0.191062,0.0371564,-0.272836,-0.464819,0.247931
23,45,-0.567232,-0.698132,-0.174533,-0.174533,-0.567604,-0.688388,-0.143545,-0.191062,0.0371564,-0.272836,-0.464819,0.247931
23,45,-0.567232,-0.698132,-0.174533,-0.174533,-0.567604,-0.688388,-0.143545,-0.191062,0.0371564,-0.272836,-0.464819,0.247931
23,45,-0.567232,-0.698132,-0.174533,-0.174533,-0.567604,-0.688388,-0.143545,-0.191062,0.0371564,-0.272836,-0.464819,0.247931
23,45,-0.567232,-0.698132,-0.174533,-0.174533,-0.567604,-0.688388,-0.143545,-0.191062,0.0371564,-0.272836,-0.464819,0.247931
23,45,-0.567232,-0.698132,-0.174533,-0.174533,-0.567604,-0.688388,-0.143545,-0.191062,0.0371564,-0.272836,-0.464819,0.247931
23,45,-0.567232,-0.698132,-0.174533,-0.174533,-0.567604,-0.688388,-0.143545,-0.191062,0.0371564,-0.272836,-0.464819,0.247931
23,45,-0.567232,-0.698132,-0.174533,-0.174533,-0.567604,-0.688388,-0.143545,-0.191062,0.0371564,-0.272836,-0.464819,0.247931
23,45,-0.567232,-0.698132,-0.174533,-0.174533,-0.567604,-0.688388,-0.143545,-0.191062,0.0371564,-0.272836,-0.464819,0.247931
23,45,-0.567232,-0.698132,-0.174533,-0.174533,-0.567604,-0.688388,-0.143545,-0.191062,0.0371564,-0.272836,-0.464819,0.247931
23,45,-0.567232,-0.698132,-0.174533,-0.174533,-0.567604,-0.688388,-0.143545,-0.191062,0.0371564,-0.272836,-0.464819,0.247931
23,45,-0.567232,-0.698132,-0.174533,-0.174533,-0.567604,-0.688388,-0.143545,-0.191062,0.0371564,-0.272836,-0.464819,0.247931
23,45,-0.567232,-0.698132,-0.174533,-0.174533,-0.567604,-0.688388,-0.143545,-0.191062,0.0371564,-0.272836,-0.464819,0.247931
23,45,-0.567232,-0.698132,-0.174533,-0.174533,-0.567604,-0.688388,-0.143545,-0.191062,0.0371564,-0.272836,-0.464819,0.247931
23,45,-0.567232,-0.698132,-0.174533,-0.174533,-0.567604,-0.688388,-0.143545,-0.191062,0.0371564,-0.272836,-0.464819,0.247931
23,45,-0.567232,-0.698132,-0.174533,-0.174533,-0.567604,-0.688388,-0.143545,-0.191062,0.0371564,-0.272836,-0.464819,0.247931
23,45,-0.567232,-0.698132,-0.174533,-0.174533,-0.567604,-0.688388,-0.143545,-0.191062,0.0371564,-0.272836,-0.464819,0.247931
23,45,-0.567232,-0.698132,-0.174533,-0.174533,-0.567604,-0.688388,-0.143545,-0.191062,0.0371564,-0.272836,-0.464819,0.247931
23,45,-0.567232,-0.698132,-0.174533,-0.174533,-0.567604,-0.688388,-0.143545,-0.191062,0.0371564,-0.272836,-0.464819,0.247931
23,45,-0.567232,-0.698132,-0.174533,-0.174533,-0.567604,-0.688388,-0.143545,-0.191062,0.0371564,-0.272836,-0.464819,0.247931
23,45,-0.567232,-0.698132,-0.174533,-0.174533,-0.567604,-0.688388,-0.143545,-0.191062,0.0371564,-0.272836,-0.464819,0.247931
23,45,-0.567232,-0.698132,-0.174533,-0.174533,-0.567604,-0.688388,-0.143545,-0.191062,0.0371564,-0.272836,-0.464819,0.247931
23,45,-0.567232,-0.698132,-0.174533,-0.174533,-0.567604,-0.688388,-0.143545,-0.191062,0.0371564,-0.272836,-0.464819,0.247931
23,45,-0.567232,-0.698132,-0.174533,-0.174533,-0.567604,-0.688388,-0.143545,-0.191062,0.0371564,-0.272836,-0.464819,0.247931
23,45,-0.567232,-0.698132,-0.174533,-0.174533,-0.567604,-0.688388,-0.143545,-0.191062,0.0371564,-0.272836,-0.464819,0.247931
23,45,-0.567232,-0.698132,-0.174533,-0.174533,-0.567604,-0.688388,-0.143545,-0.191062,0.0371564,-0.272836,-0.464819,0.247931
23,45,-0.567232,-0.698132,-0.174533,-0.174533,-0.567604,-0.688388,-0.143545,-0.191062,0.0371564,-0.272836,-0.464819,0.247931
23,45,-0.567232,-0.698132,-0.174533,-0.174533,-0.567604,-0.688388,-0.143545,-0.191062,0.0371564,-0.272836,-0.464819,0.247931
23,45,-0.567232,-0.698132,-0.174533,-0.174533,-0.567604,-0.688388,-0.143545,-0.191062,0.0371564,-0.272836,-0.464819,0.247931
23,45,-0.567232,-0.698132,-0.174533,-0.174533,-0.567604,-0.688388,-0.143545,-0.191062,0.0371564,-0.272836,-0.464819,0.247931
23,45,-0.567232,-0.698132,-0.174533,-0.174533,-0.567604,-0.688388,-0.143545,-0.191062,0.0371564,-0.272836,-0.464819,0.247931
23,45,-0.567232,-0.698132,-0.174533,-0.174533,-0.567604,-0.688388,-0.143545,-0.191062,0.0371564,-0.272836,-0.464819,0.247931
23,45,-0.567232,-0.698132,-0.174533,-0.174533,-0.567604,-0.688388,-0.143545,-0.191062,0.0371564,-0.272836,-0.464819,0.247931
23,45,-0.567232,-0.698132,-0.174533,-0.174533,-0.567604,-0.688388,-0.143545,-0.191062,0.0371564,-0.272836,-0.464819,0.247931
23,45,-0.567232,-0.698132,-0.174533,-0.174533,-0.567604,-0.688388,-0.143545,-0.191062,0.0371564,-0.272836,-0.464819,0.247931
23,45,-0.567232,-0.698132,-0.174533,-0.174533,-0.567604,-0.688388,-0.143545,-0.191062,0.0371564,-0.272836,-0.464819,0.247931
23,45,-0.567232,-0.698132,-0.174533,-0.174533,-0.567604,-0.688388,-0.143545,-0.191062,0.0371564,-0.272836,-0.464819,0.247931
23,45,-0.567232,-0.698132,-0.174533,-0.174533,-0.567604,-0.688388,-0.143545,-0.191062,0.0371564,-0.272836,-0.464819,0.247931
23,45,-0.567232,-0.698132,-0.174533,-0.174533,-0.567604,-0.688388,-0.143545,-0.191062,0.0371564,-0.272836,-0.464819,0.247931
23,45,-0.567232,-0.698132,-0.174533,-0.174533,-0.567604,-0.688388,-0.143545,-0.191062,0.0371564,-0.272836,-0.464819,0.247931
23,45,-0.567232,-0.698132,-0.174533,-0.174533,-0.567604,-0.688388,-0.143545,-0.191062,0.0371564,-0.272836,-0.464819,0.247931
23,45,-0.567232,-0.698132,-0.174533,-0.174533,-0.567604,-0.688388,-0.143545,-0.191062,0.0371564,-0.272836,-0.464819,0.247931
23,45,-0.567232,-0.698132,-0.174533,-0.174533,-0.567604,-0.688388,-0.143545,-0.191062,0.0371564,-0.272836,-0.464819,0.247931
23,45,-0.567232,-0.698132,-0.174533,-0.174533,-0.567604,-0.688388,-0.143545,-0.191062,0.0371564,-0.272836,-0.464819,0.247931
23,45,-0.567232,-0.698132,-0.174533,-0.174533,-0.567604,-0.688388,-0.143545,-0.191062,0.0371564,-0.272836,-0.464819,0.247931
23,45,-0.567232,-0.698132,-0.174533,-0.174533,-0.567604,-0.688388,-0.143545,-0.191062,0.0371564,-0.272836,-0.464819,0.247931
23,45,-0.567232,-0.698132,-0.174533,-0.174533,-0.567604,-0.688388,-0.143545,-0.191062,0.0371564,-0.272836,-0.464819,0.247931
23,45,-0.567232,-0.698132,-0.174533,-0.174533,-0.567604,-0.688388,-0.143545,-0.191062,0.0371564,-0.272836,-0.464819,0.247931
23,45,-0.567232,-0.698132,-0.174533,-0.174533,-0.567604,-0.688388,-0.143545,-0.191062,0.0371564,-0.272836,-0.464819,0.247931
23,45,-0.567232,-0.698132,-0.174533,-0.174533,-0.567604,-0.688388,-0.143545,-0.191062,0.0371564,-0.272836,-0.464819,0.247931
23,45,-0.567232,-0.698132,-0.174533,-0.174533,-0.567604,-0.688388,-0.143545,-0.191062,0.0371564,-0.272836,-0.464819,0.247931
23,45,-0.567232,-0.698132,-0.174533,-0.174533,-0.567604,-0.688388,-0.143545,-0.191062,0.0371564,-0.272836,-0.464819,0.247931
23,45,-0.567232,-0.698132,-0.174533,-0.174533,-0.567604,-0.688388,-0.143545,-0.191062,0.0371564,-0.272836,-0.464819,0.247931
23,45,-0.567232,-0.698132,-0.174533,-0.174533,-0.567604,-0.688388,-0.143545,-0.191062,0.0371564,-0.272836,-0.464819,0.247931
23,45,-0.567232,-0.698132,-0.174533,-0.174533,-0.567604,-0.688388,-0.143545,-0.191062,0.0371564,-0.272836,-0.464819,0.247931
23,45,-0.567232,-0.698132,-0.174533,-0.174533,-0.567604,-0.688388,-0.143545,-0.191062,0.0371564,-0.272836,-0.464819,0.247931
23,45,-0.567232,-0.698132,-0.174533,-0.174533,-0.567604,-0.688388,-0.143545,-0.191062,0.0371564,-0.272836,-0.464819,0.247931
23,45,-0.567232,-0.698132,-0.174533,-0.174533,-0.567604,-0.688388,-0.143545,-0.191062,0.0371564,-0.272836,-0.464819,0.247931
23,45,-0.567232,-0.698132,-0.174533,-0.174533,-0.567604,-0.688388,-0.143545,-0.191062,0.0371564,-0.272836,-0.464819,0.247931
23,45,-0.567232,-0.698132,-0.174533,-0.174533,-0.567604,-0.688388,-0.143545,-0.191062,0.0371564,-0.272836,-0.464819,0.247931
23,45,-0.567232,-0.698132,-0.174533,-0.174533,-0.567604,-0.688388,-0.143545,-0.191062,0.0371564,-0.272836,-0.464819,0.247931
23,45,-0.567232,-0.698132,-0.174533,-0.174533,-0.567604,-0.688388,-0.143545,-0.191062,0.0371564,-0.272836,-0.464819,0.247931
23,45,-0.567232,-0.698132,-0.174533,-0.174533,-0.567604,-0.688388,-0.143545,-0.191062,0.0371564,-0.272836,-0.464819,0.247931
23,45,-0.567232,-0.698132,-0.174533,-0.174533,-0.567604,-0.688388,-0.143545,-0.191062,0.0371564,-0.272836,-0.464819,0.247931
23,45,-0.567232,-0.698132,-0.174533,-0.174533,-0.567604,-0.688388,-0.143545,-0.191062,0.0371564,-0.272836,-0.464819,0.247931
23,45,-0.567232,-0.698132,-0.174533,-0.174533,-0.567604,-0.688388,-0.143545,-0.191062,0.0371564,-0.272836,-0.464819,0.247931
23,45,-0.567232,-0.698132,-0.174533,-0.174533,-0.567604,-0.688388,-0.143545,-0.191062,0.0371564,-0.272836,-0.464819,0.247931
23,45,-0.567232,-0.698132,-0.174533,-0.174533,-0.567604,-0.688388,-0.143545,-0.191062,0.0371564,-0.272836,-0.464819,0.247931
23,45,-0.567232,-0.698132,-0.174533,-0.174533,-0.567604,-0.688388,-0.143545,-0.191062,0.0371564,-0.272836,-0.464819,0.247931
23,45,-0.567232,-0.698132,-0.174533,-0.174533,-0.567604,-0.688388,-0.143545,-0.191062,0.0371564,-0.272836,-0.464819,0.247931
23,45,-0.567232,-0.698132,-0.174533,-0.174533,-0.567604,-0.688388,-0.143545,-0.191062,0.0371564,-0.272836,-0.464819,0.247931
23,45,-0.567232,-0.698132,-0.174533,-0.174533,-0.567604,-0.688388,-0.143545,-0.191062,0.0371564,-0.272836,-0.464819,0.247931
23,45,-0.567232,-0.698132,-0.174533,-0.174533,-0.567604,-0.688388,-0.143545,-0.191062,0.0371564,-0.272836,-0.464819,0.247931
23,45,-0.567232,-0.698132,-0.174533,-0.174533,-0.567604,-0.688388,-0.143545,-0.191062,0.0371564,-0.272836,-0.464819,0.247931
23,45,-0.567232,-0.698132,-0.174533,-0.174533,-0.567604,-0.688388,-0.143543,-0.191002,0.0371564,-0.272836,-0.464848,0.247042
23,45,-0.567232,-0.698132,-0.174533,-0.174533,-0.567604,-0.688388,-0.143543,-0.191002,0.0371564,-0.272836,-0.464848,0.247042
23,45,-0.567232,-0.698132,-0.174533,-0.174533,-0.567604,-0.688388,-0.143543,-0.191002,0.0371564,-0.272836,-0.464848,0.247042
23,45,-0.567232,-0.698132,-0.174533,-0.174533,-0.567604,-0.688388,-0.143543,-0.191002,0.0371564,-0.272836,-0.464848,0.247042
23,45,-0.567232,-0.698132,-0.174533,-0.174533,-0.567604,-0.688388,-0.143543,-0.191002,0.0371564,-0.272836,-0.464848,0.247042
23,45,-0.567232,-0.698132,-0.174533,-0.174533,-0.567604,-0.688388,-0.143543,-0.191002,0.0371564,-0.272836,-0.464848,0.247042
23,45,-0.567232,-0.698132,-0.174533,-0.174533,-0.567604,-0.688388,-0.143543,-0.191002,0.0371564,-0.272836,-0.464848,0.247042
23,45,-0.567232,-0.698132,-0.174533,-0.174533,-0.567604,-0.688388,-0.143543,-0.191002,0.0371564,-0.272836,-0.464848,0.247042
23,45,-0.567232,-0.698132,-0.174533,-0.174533,-0.567604,-0.688388,-0.143543,-0.191002,0.0371564,-0.272836,-0.464848,0.247042
23,45,-0.567232,-0.698132,-0.174533,-0.174533,-0.567604,-0.688388,-0.143543,-0.191002,0.0371564,-0.272836,-0.464848,0.247042
23,45,-0.567232,-0.698132,-0.174533,-0.174533,-0.567604,-0.688388,-0.143543,-0.191002,0.0371564,-0.272836,-0.464848,0.247042
23,45,-0.567232,-0.698132,-0.174533,-0.174533,-0.567604,-0.688388,-0.143543,-0.191002,0.0371564,-0.272836,-0.464848,0.247042
23,45,-0.567232,-0.698132,-0.174533,-0.174533,-0.567604,-0.688388,-0.143543,-0.191002,0.0371564,-0.272836,-0.464848,0.247042
23,45,-0.567232,-0.698132,-0.174533,-0.174533,-0.567604,-0.688388,-0.143543,-0.191002,0.0371564,-0.272836,-0.464848,0.247042
23,45,-0.567232,-0.698132,-0.174533,-0.174533,-0.567604,-0.688388,-0.143543,-0.191002,0.0371564,-0.272836,-0.464848,0.247042
23,45,-0.567232,-0.698132,-0.174533,-0.174533,-0.567604,-0.688388,-0.143543,-0.191002,0.0371564,-0.272836,-0.464848,0.247042
23,45,-0.567232,-0.698132,-0.174533,-0.174533,-0.567604,-0.688388,-0.143543,-0.191002,0.0371564,-0.272836,-0.464848,0.247042
23,45,-0.567232,-0.698132,-0.174533,-0.174533,-0.567604,-0.688388,-0.143543,-0.191002,0.0371564,-0.272836,-0.464848,0.247042
23,45,-0.567232,-0.698132,-0.174533,-0.174533,-0.567604,-0.688388,-0.143543,-0.191002,0.0371564,-0.272836,-0.464848,0.247042
23,45,-0.567232,-0.698132,-0.174533,-0.174533,-0.567604,-0.688388,-0.143543,-0.191002,0.0371564,-0.272836,-0.464848,0.247042
23,45,-0.567232,-0.698132,-0.174533,-0.174533,-0.567604,-0.688388,-0.143543,-0.191002,0.0371564,-0.272836,-0.464848,0.247042
23,45,-0.567232,-0.698132,-0.174533,-0.174533,-0.567604,-0.688388,-0.143543,-0.191002,0.0371564,-0.272836,-0.464848,0.247042
23,45,-0.567232,-0.698132,-0.174533,-0.174533,-0.567604,-0.688388,-0.143543,-0.191002,0.0371564,-0.272836,-0.464848,0.247042
23,45,-0.567232,-0.698132,-0.174533,-0.174533,-0.567604,-0.688388,-0.143543,-0.191002,0.0371564,-0.272836,-0.464848,0.247042
23,45,-0.567232,-0.698132,-0.174533,-0.174533,-0.567604,-0.688388,-0.143543,-0.191002,0.0371564,-0.272836,-0.464848,0.247042
23,45,-0.567232,-0.698132,-0.174533,-0.174533,-0.567604,-0.688388,-0.143543,-0.191002,0.0371564,-0.272836,-0.464848,0.247042
23,45,-0.567232,-0.698132,-0.174533,-0.174533,-0.567604,-0.688388,-0.143543,-0.191002,0.0371564,-0.272836,-0.464848,0.247042
23,45,-0.567232,-0.698132,-0.174533,-0.174533,-0.567604,-0.688388,-0.143543,-0.191002,0.0371564,-0.272836,-0.464848,0.247042
23,45,-0.567232,-0.698132,-0.174533,-0.174533,-0.567604,-0.688388,-0.143543,-0.191002,0.0371564,-0.272836,-0.464848,0.247042
23,45,-0.567232,-0.698132,-0.174533,-0.174533,-0.567604,-0.688388,-0.143543,-0.191002,0.0371564,-0.272836,-0.464848,0.247042
23,45,-0.567232,-0.698132,-0.174533,-0.174533,-0.567604,-0.688388,-0.143543,-0.191002,0.0371564,-0.272836,-0.464848,0.247042
23,45,-0.567232,-0.698132,-0.174533,-0.174533,-0.567604,-0.688388,-0.143543,-0.191002,0.0371564,-0.272836,-0.464848,0.247042
23,45,-0.567232,-0.698132,-0.174533,-0.174533,-0.567604,-0.688388,-0.143543,-0.191002,0.0371564,-0.272836,-0.464848,0.247042
23,45,-0.567232,-0.698132,-0.174533,-0.174533,-0.567604,-0.688388,-0.143543,-0.191002,0.0371564,-0.272836,-0.464848,0.247042
23,45,-0.567232,-0.698132,-0.174533,-0.174533,-0.567604,-0.688388,-0.143543,-0.191002,0.0371564,-0.272836,-0.464848,0.247042
23,45,-0.567232,-0.698132,-0.174533,-0.174533,-0.567604,-0.688388,-0.143543,-0.191002,0.0371564,-0.272836,-0.464848,0.247042
23,45,-0.567232,-0.698132,-0.174533,-0.174533,-0.567604,-0.688388,-0.143543,-0.191002,0.0371564,-0.272836,-0.464848,0.247042
23,45,-0.567232,-0.698132,-0.174533,-0.174533,-0.567604,-0.688388,-0.143543,-0.191002,0.0371564,-0.272836,-0.464848,0.247042
23,45,-0.567232,-0.698132,-0.174533,-0.174533,-0.567604,-0.688388,-0.143543,-0.191002,0.0371564,-0.272836,-0.464848,0.247042
23,45,-0.567232,-0.698132,-0.174533,-0.174533,-0.567604,-0.688388,-0.143543,-0.191002,0.0371564,-0.272836,-0.464848,0.247042
23,45,-0.567232,-0.698132,-0.174533,-0.174533,-0.567604,-0.688388,-0.143543,-0.191002,0.0371564,-0.272836,-0.464848,0.247042
23,45,-0.567232,-0.698132,-0.174533,-0.174533,-0.567604,-0.688388,-0.143543,-0.191002,0.0371564,-0.272836,-0.464848,0.247042
23,45,-0.567232,-0.698132,-0.174533,-0.174533,-0.567604,-0.688388,-0.143543,-0.191002,0.0371564,-0.272836,-0.464848,0.247042
23,45,-0.567232,-0.698132,-0.174533,-0.174533,-0.567604,-0.688388,-0.143543,-0.191002,0.0371564,-0.272836,-0.464848,0.247042
23,45,-0.567232,-0.698132,-0.174533,-0.174533,-0.567604,-0.688388,-0.143543,-0.191002,0.0371564,-0.272836,-0.464848,0.247042
23,45,-0.567232,-0.698132,-0.174533,-0.174533,-0.567604,-0.688388,-0.143543,-0.191002,0.0371564,-0.272836,-0.464848,0.247042
23,45,-0.567232,-0.698132,-0.174533,-0.174533,-0.567604,-0.688388,-0.143543,-0.191002,0.0371564,-0.272836,-0.464848,0.247042
23,45,-0.567232,-0.698132,-0.174533,-0.174533,-0.567604,-0.688388,-0.143543,-0.191002,0.0371564,-0.272836,-0.464848,0.247042
23,45,-0.567232,-0.698132,-0.174533,-0.174533,-0.567604,-0.688388,-0.143543,-0.191002,0.0371564,-0.272836,-0.464848,0.247042
23,45,-0.567232,-0.698132,-0.174533,-0.174533,-0.567604,-0.688388,-0.143543,-0.191002,0.0371564,-0.272836,-0.464848,0.247042
23,45,-0.567232,-0.698132,-0.174533,-0.174533,-0.567604,-0.688388,-0.143543,-0.191002,0.0371564,-0.272836,-0.464848,0.247042
23,45,-0.567232,-0.698132,-0.174533,-0.174533,-0.567604,-0.688388,-0.143543,-0.191002,0.0371564,-0.272836,-0.464848,0.247042
23,45,-0.567232,-0.698132,-0.174533,-0.174533,-0.567604,-0.688388,-0.143543,-0.191002,0.0371564,-0.272836,-0.464848,0.247042
23,45,-0.567232,-0.698132,-0.174533,-0.174533,-0.567604,-0.688388,-0.143543,-0.191002,0.0371564,-0.272836,-0.464848,0.247042
23,45,-0.567232,-0.698132,-0.174533,-0.174533,-0.567604,-0.688388,-0.143543,-0.191002,0.0371564,-0.272836,-0.464848,0.247042
23,45,-0.567232,-0.698132,-0.174533,-0.174533,-0.567604,-0.688388,-0.143543,-0.191002,0.0371564,-0.272836,-0.464848,0.247042
23,45,-0.567232,-0.698132,-0.174533,-0.174533,-0.567604,-0.688388,-0.143543,-0.191002,0.0371564,-0.272836,-0.464848,0.247042
23,45,-0.567232,-0.698132,-0.174533,-0.174533,-0.567604,-0.688388,-0.143543,-0.191002,0.0371564,-0.272836,-0.464848,0.247042
23,45,-0.567232,-0.698132,-0.174533,-0.174533,-0.567604,-0.688388,-0.143543,-0.191002,0.0371564,-0.272836,-0.464848,0.247042
23,45,-0.567232,-0.698132,-0.174533,-0.174533,-0.567604,-0.688388,-0.143543,-0.191002,0.0371564,-0.272836,-0.464848,0.247042
23,45,-0.567232,-0.698132,-0.174533,-0.174533,-0.567604,-0.688388,-0.143543,-0.191002,0.0371564,-0.272836,-0.464848,0.247042
23,45,-0.567232,-0.698132,-0.174533,-0.174533,-0.567604,-0.688388,-0.143543,-0.191002,0.0371564,-0.272836,-0.464848,0.247042
23,45,-0.567232,-0.698132,-0.174533,-0.174533,-0.567604,-0.688388,-0.143543,-0.191002,0.0371564,-0.272836,-0.464848,0.247042
23,45,-0.567232,-0.698132,-0.174533,-0.174533,-0.567604,-0.688388,-0.143541,-0.190943,0.0371564,-0.272836,-0.464877,0.246153
23,45,-0.567232,-0.698132,-0.174533,-0.174533,-0.567604,-0.688388,-0.143541,-0.190943,0.0371564,-0.272836,-0.464877,0.246153
23,45,-0.567232,-0.698132,-0.174533,-0.174533,-0.567604,-0.688388,-0.143541,-0.190943,0.0371564,-0.272836,-0.464877,0.246153
23,45,-0.567232,-0.698132,-0.174533,-0.174533,-0.567604,-0.688388,-0.143541,-0.190943,0.0371564,-0.272836,-0.464877,0.246153
23,45,-0.567232,-0.698132,-0.174533,-0.174533,-0.567604,-0.688388,-0.143541,-0.190943,0.0371564,-0.272836,-0.464877,0.246153
23,45,-0.567232,-0.698132,-0.174533,-0.174533,-0.567604,-0.688388,-0.143541,-0.190943,0.0371564,-0.272836,-0.464877,0.246153
23,45,-0.567232,-0.698132,-0.174533,-0.174533,-0.567604,-0.688388,-0.143541,-0.190943,0.0371564,-0.272836,-0.464877,0.246153
23,45,-0.567232,-0.698132,-0.174533,-0.174533,-0.567604,-0.688388,-0.143541,-0.190943,0.0371564,-0.272836,-0.464877,0.246153
23,45,-0.567232,-0.698132,-0.174533,-0.174533,-0.567604,-0.688388,-0.143541,-0.190943,0.0371564,-0.272836,-0.464877,0.246153
23,45,-0.567232,-0.698132,-0.174533,-0.174533,-0.567604,-0.688388,-0.143541,-0.190943,0.0371564,-0.272836,-0.464877,0.246153
23,45,-0.567232,-0.698132,-0.174533,-0.174533,-0.567604,-0.688388,-0.143541,-0.190943,0.0371564,-0.272836,-0.464877,0.246153
23,45,-0.567232,-0.698132,-0.174533,-0.174533,-0.567604,-0.688388,-0.143541,-0.190943,0.0371564,-0.272836,-0.464877,0.246153
23,45,-0.567232,-0.698132,-0.174533,-0.174533,-0.567604,-0.688388,-0.143541,-0.190943,0.0371564,-0.272836,-0.464877,0.246153
23,45,-0.567232,-0.698132,-0.174533,-0.174533,-0.567604,-0.688388,-0.143541,-0.190943,0.0371564,-0.272836,-0.464877,0.246153
23,45,-0.567232,-0.698132,-0.174533,-0.174533,-0.567604,-0.688388,-0.143541,-0.190943,0.0371564,-0.272836,-0.464877,0.246153
23,45,-0.567232,-0.698132,-0.174533,-0.174533,-0.567604,-0.688388,-0.143541,-0.190943,0.0371564,-0.272836,-0.464877,0.246153
23,45,-0.567232,-0.698132,-0.174533,-0.174533,-0.567604,-0.688388,-0.143541,-0.190943,0.0371564,-0.272836,-0.464877,0.246153
23,45,-0.567232,-0.698132,-0.174533,-0.174533,-0.567604,-0.688388,-0.143541,-0.190943,0.0371564,-0.272836,-0.464877,0.246153
23,45,-0.567232,-0.698132,-0.174533,-0.174533,-0.567604,-0.688388,-0.143541,-0.190943,0.0371564,-0.272836,-0.464877,0.246153
23,45,-0.567232,-0.698132,-0.174533,-0.174533,-0.567604,-0.688388,-0.143541,-0.190943,0.0371564,-0.272836,-0.464877,0.246153
23,45,-0.567232,-0.698132,-0.174533,-0.174533,-0.567604,-0.688388,-0.143541,-0.190943,0.0371564,-0.272836,-0.464877,0.246153
23,45,-0.567232,-0.698132,-0.174533,-0.174533,-0.567604,-0.688388,-0.143541,-0.190943,0.0371564,-0.272836,-0.464877,0.246153
23,45,-0.567232,-0.698132,-0.174533,-0.174533,-0.567604,-0.688388,-0.143541,-0.190943,0.0371564,-0.272836,-0.464877,0.246153
23,45,-0.567232,-0.698132,-0.174533,-0.174533,-0.567604,-0.688388,-0.143541,-0.190943,0.0371564,-0.272836,-0.464877,0.246153
23,45,-0.567232,-0.698132,-0.174533,-0.174533,-0.567604,-0.688388,-0.143541,-0.190943,0.0371564,-0.272836,-0.464877,0.246153
23,45,-0.567232,-0.698132,-0.174533,-0.174533,-0.567604,-0.688388,-0.143541,-0.190943,0.0371564,-0.272836,-0.464877,0.246153
23,45,-0.567232,-0.698132,-0.174533,-0.174533,-0.567604,-0.688388,-0.143541,-0.190943,0.0371564,-0.272836,-0.464877,0.246153
23,45,-0.567232,-0.698132,-0.174533,-0.174533,-0.567604,-0.688388,-0.143541,-0.190943,0.0371564,-0.272836,-0.464877,0.246153
23,45,-0.567232,-0.698132,-0.174533,-0.174533,-0.567604,-0.688388,-0.143541,-0.190943,0.0371564,-0.272836,-0.464877,0.246153
23,45,-0.567232,-0.698132,-0.174533,-0.174533,-0.567604,-0.688388,-0.143541,-0.190943,0.0371564,-0.272836,-0.464877,0.246153
23,45,-0.567232,-0.698132,-0.174533,-0.174533,-0.567604,-0.688388,-0.143541,-0.190943,0.0371564,-0.272836,-0.464877,0.246153
23,45,-0.567232,-0.698132,-0.174533,-0.174533,-0.567604,-0.688388,-0.143541,-0.190943,0.0371564,-0.272836,-0.464877,0.246153
23,45,-0.567232,-0.698132,-0.174533,-0.174533,-0.567604,-0.688388,-0.143541,-0.190943,0.0371564,-0.272836,-0.464877,0.246153
23,45,-0.567232,-0.698132,-0.174533,-0.174533,-0.567604,-0.688388,-0.143541,-0.190943,0.0371564,-0.272836,-0.464877,0.246153
23,45,-0.567232,-0.698132,-0.174533,-0.174533,-0.567604,-0.688388,-0.143541,-0.190943,0.0371564,-0.272836,-0.464877,0.246153
23,45,-0.567232,-0.698132,-0.174533,-0.174533,-0.567604,-0.688388,-0.143541,-0.190943,0.0371564,-0.272836,-0.464877,0.246153
23,45,-0.567232,-0.698132,-0.174533,-0.174533,-0.567604,-0.688388,-0.143541,-0.190943,0.0371564,-0.272836,-0.464877,0.246153
23,45,-0.567232,-0.698132,-0.174533,-0.174533,-0.567604,-0.688388,-0.143541,-0.190943,0.0371564,-0.272836,-0.464877,0.246153
23,45,-0.567232,-0.698132,-0.174533,-0.174533,-0.567604,-0.688388,-0.143541,-0.190943,0.0371564,-0.272836,-0.464877,0.246153
23,45,-0.567232,-0.698132,-0.174533,-0.174533,-0.567604,-0.688388,-0.143541,-0.190943,0.0371564,-0.272836,-0.464877,0.246153
23,45,-0.567232,-0.698132,-0.174533,-0.174533,-0.567604,-0.688388,-0.143541,-0.190943,0.0371564,-0.272836,-0.464877,0.246153
23,45,-0.567232,-0.698132,-0.174533,-0.174533,-0.567604,-0.688388,-0.143541,-0.190943,0.0371564,-0.272836,-0.464877,0.246153
23,45,-0.567232,-0.698132,-0.174533,-0.174533,-0.567604,-0.688388,-0.143541,-0.190943,0.0371564,-0.272836,-0.464877,0.246153
23,45,-0.567232,-0.698132,-0.174533,-0.174533,-0.567604,-0.688388,-0.143541,-0.190943,0.0371564,-0.272836,-0.464877,0.246153
23,45,-0.567232,-0.698132,-0.174533,-0.174533,-0.567604,-0.688388,-0.143541,-0.190943,0.0371564,-0.272836,-0.464877,0.246153
23,45,-0.567232,-0.698132,-0.174533,-0.174533,-0.567604,-0.688438,-0.143541,-0.190943,0.0371564,-0.271412,-0.464877,0.246153
23,45,-0.567232,-0.698132,-0.174533,-0.174533,-0.567604,-0.688438,-0.143541,-0.190943,0.0371564,-0.271412,-0.464877,0.246153
23,45,-0.567232,-0.698132,-0.174533,-0.174533,-0.567604,-0.688438,-0.143541,-0.190943,0.0371564,-0.271412,-0.464877,0.246153
23,45,-0.567232,-0.698132,-0.174533,-0.174533,-0.567604,-0.688438,-0.143541,-0.190943,0.0371564,-0.271412,-0.464877,0.246153
23,45,-0.567232,-0.698132,-0.174533,-0.174533,-0.567604,-0.688438,-0.143541,-0.190943,0.0371564,-0.271412,-0.464877,0.246153
23,45,-0.567232,-0.698132,-0.174533,-0.174533,-0.567604,-0.688438,-0.143541,-0.190943,0.0371564,-0.271412,-0.464877,0.246153
23,45,-0.567232,-0.698132,-0.174533,-0.174533,-0.567604,-0.688438,-0.143541,-0.190943,0.0371564,-0.271412,-0.464877,0.246153
23,45,-0.567232,-0.698132,-0.174533,-0.174533,-0.567604,-0.688438,-0.143541,-0.190943,0.0371564,-0.271412,-0.464877,0.246153
23,45,-0.567232,-0.698132,-0.174533,-0.174533,-0.567604,-0.688438,-0.143541,-0.190943,0.0371564,-0.271412,-0.464877,0.246153
23,45,-0.567232,-0.698132,-0.174533,-0.174533,-0.567604,-0.688438,-0.143541,-0.190943,0.0371564,-0.271412,-0.464877,0.246153
23,45,-0.567232,-0.698132,-0.174533,-0.174533,-0.567604,-0.688438,-0.143541,-0.190943,0.0371564,-0.271412,-0.464877,0.246153
23,45,-0.567232,-0.698132,-0.174533,-0.174533,-0.567604,-0.688438,-0.143541,-0.190943,0.0371564,-0.271412,-0.464877,0.246153
23,45,-0.567232,-0.698132,-0.174533,-0.174533,-0.567604,-0.688438,-0.143541,-0.190943,0.0371564,-0.271412,-0.464877,0.246153
23,45,-0.567232,-0.698132,-0.174533,-0.174533,-0.567604,-0.688438,-0.143541,-0.190943,0.0371564,-0.271412,-0.464877,0.246153
23,45,-0.567232,-0.698132,-0.174533,-0.174533,-0.567604,-0.688438,-0.143541,-0.190943,0.0371564,-0.271412,-0.464877,0.246153
23,45,-0.567232,-0.698132,-0.174533,-0.174533,-0.567604,-0.688438,-0.143541,-0.190943,0.0371564,-0.271412,-0.464877,0.246153
23,45,-0.567232,-0.698132,-0.174533,-0.174533,-0.567604,-0.688438,-0.143541,-0.190943,0.0371564,-0.271412,-0.464877,0.246153
23,45,-0.567232,-0.698132,-0.174533,-0.174533,-0.567604,-0.688438,-0.143541,-0.190943,0.0371564,-0.271412,-0.464877,0.246153
23,45,-0.567232,-0.698132,-0.174533,-0.174533,-0.567604,-0.688438,-0.143541,-0.190943,0.0371564,-0.271412,-0.464877,0.246153
23,45,-0.567232,-0.698132,-0.174533,-0.174533,-0.567604,-0.688438,-0.143541,-0.190943,0.0371564,-0.271412,-0.464877,0.246153
23,45,-0.567232,-0.698132,-0.174533,-0.174533,-0.567604,-0.688438,-0.143541,-0.190943,0.0371564,-0.271412,-0.464877,0.246153
23,45,-0.567232,-0.698132,-0.174533,-0.174533,-0.567604,-0.688438,-0.143541,-0.190943,0.0371564,-0.271412,-0.464877,0.246153
23,45,-0.567232,-0.698132,-0.174533,-0.174533,-0.567604,-0.688438,-0.143541,-0.190943,0.0371564,-0.271412,-0.464877,0.246153
23,45,-0.567232,-0.698132,-0.174533,-0.174533,-0.567604,-0.688438,-0.143541,-0.190943,0.0371564,-0.271412,-0.464877,0.246153
23,45,-0.567232,-0.698132,-0.174533,-0.174533,-0.567604,-0.688438,-0.143541,-0.190943,0.0371564,-0.271412,-0.464877,0.246153
23,45,-0.567232,-0.698132,-0.174533,-0.174533,-0.567604,-0.688438,-0.143541,-0.190943,0.0371564,-0.271412,-0.464877,0.246153
23,45,-0.567232,-0.698132,-0.174533,-0.174533,-0.567604,-0.688438,-0.143541,-0.190943,0.0371564,-0.271412,-0.464877,0.246153
23,45,-0.567232,-0.698132,-0.174533,-0.174533,-0.567604,-0.688438,-0.143541,-0.190943,0.0371564,-0.271412,-0.464877,0.246153
23,45,-0.567232,-0.698132,-0.174533,-0.174533,-0.567604,-0.688438,-0.143541,-0.190943,0.0371564,-0.271412,-0.464877,0.246153
23,45,-0.567232,-0.698132,-0.174533,-0.174533,-0.567604,-0.688438,-0.143541,-0.190943,0.0371564,-0.271412,-0.464877,0.246153
23,45,-0.567232,-0.698132,-0.174533,-0.174533,-0.567604,-0.688438,-0.143541,-0.190943,0.0371564,-0.271412,-0.464877,0.246153
23,45,-0.567232,-0.698132,-0.174533,-0.174533,-0.567604,-0.688438,-0.143541,-0.190943,0.0371564,-0.271412,-0.464877,0.246153
23,45,-0.567232,-0.698132,-0.174533,-0.174533,-0.567604,-0.688438,-0.143541,-0.190943,0.0371564,-0.271412,-0.464877,0.246153
23,45,-0.567232,-0.698132,-0.174533,-0.174533,-0.567604,-0.688438,-0.143541,-0.190943,0.0371564,-0.271412,-0.464877,0.246153
23,45,-0.567232,-0.698132,-0.174533,-0.174533,-0.567604,-0.688438,-0.143541,-0.190943,0.0371564,-0.271412,-0.464877,0.246153
23,45,-0.567232,-0.698132,-0.174533,-0.174533,-0.567604,-0.688438,-0.143541,-0.190943,0.0371564,-0.271412,-0.464877,0.246153
23,45,-0.567232,-0.698132,-0.174533,-0.174533,-0.567604,-0.688438,-0.143541,-0.190943,0.0371564,-0.271412,-0.464877,0.246153
23,45,-0.567232,-0.698132,-0.174533,-0.174533,-0.567604,-0.688438,-0.143541,-0.190943,0.0371564,-0.271412,-0.464877,0.246153
23,45,-0.567232,-0.698132,-0.174533,-0.174533,-0.567604,-0.688438,-0.143541,-0.190943,0.0371564,-0.271412,-0.464877,0.246153
23,45,-0.567232,-0.698132,-0.174533,-0.174533,-0.567604,-0.688438,-0.143541,-0.190943,0.0371564,-0.271412,-0.464877,0.246153
23,45,-0.567232,-0.698132,-0.174533,-0.174533,-0.567604,-0.688438,-0.143541,-0.190943,0.0371564,-0.271412,-0.464877,0.246153
23,45,-0.567232,-0.698132,-0.174533,-0.174533,-0.567604,-0.688438,-0.143541,-0.190943,0.0371564,-0.271412,-0.464877,0.246153
23,45,-0.567232,-0.698132,-0.174533,-0.174533,-0.567604,-0.688438,-0.143541,-0.190943,0.0371564,-0.271412,-0.464877,0.246153
23,45,-0.567232,-0.698132,-0.174533,-0.174533,-0.567604,-0.688438,-0.143541,-0.190943,0.0371564,-0.271412,-0.464877,0.246153
23,45,-0.567232,-0.698132,-0.174533,-0.174533,-0.567604,-0.688438,-0.143541,-0.190943,0.0371564,-0.271412,-0.464877,0.246153
23,45,-0.567232,-0.698132,-0.174533,-0.174533,-0.567604,-0.688438,-0.143541,-0.190943,0.0371564,-0.271412,-0.464877,0.246153
23,45,-0.567232,-0.698132,-0.174533,-0.174533,-0.567604,-0.688438,-0.143541,-0.190943,0.0371564,-0.271412,-0.464877,0.246153
23,45,-0.567232,-0.698132,-0.174533,-0.174533,-0.567604,-0.688438,-0.143541,-0.190943,0.0371564,-0.271412,-0.464877,0.246153
23,45,-0.567232,-0.698132,-0.174533,-0.174533,-0.567604,-0.688438,-0.143541,-0.190943,0.0371564,-0.271412,-0.464877,0.246153
23,45,-0.567232,-0.698132,-0.174533,-0.174533,-0.567604,-0.688438,-0.143541,-0.190943,0.0371564,-0.271412,-0.464877,0.246153
23,45,-0.567232,-0.698132,-0.174533,-0.174533,-0.567604,-0.688438,-0.143541,-0.190943,0.0371564,-0.271412,-0.464877,0.246153
23,45,-0.567232,-0.698132,-0.174533,-0.174533,-0.567604,-0.688438,-0.143541,-0.190943,0.0371564,-0.271412,-0.464877,0.246153
23,45,-0.567232,-0.698132,-0.174533,-0.174533,-0.567604,-0.688438,-0.143541,-0.190943,0.0371564,-0.271412,-0.464877,0.246153
23,45,-0.567232,-0.698132,-0.174533,-0.174533,-0.567604,-0.688438,-0.143541,-0.190943,0.0371564,-0.271412,-0.464877,0.246153
23,45,-0.567232,-0.698132,-0.174533,-0.174533,-0.567604,-0.688438,-0.143541,-0.190943,0.0371564,-0.271412,-0.464877,0.246153
23,45,-0.567232,-0.698132,-0.174533,-0.174533,-0.567604,-0.688438,-0.143541,-0.190943,0.0371564,-0.271412,-0.464877,0.246153
23,45,-0.567232,-0.698132,-0.174533,-0.174533,-0.567604,-0.688438,-0.143541,-0.190943,0.0371564,-0.271412,-0.464877,0.246153
23,45,-0.567232,-0.698132,-0.174533,-0.174533,-0.567604,-0.688438,-0.143541,-0.190943,0.0371564,-0.271412,-0.464877,0.246153
23,45,-0.567232,-0.698132,-0.174533,-0.174533,-0.567604,-0.688438,-0.143541,-0.190943,0.0371564,-0.271412,-0.464877,0.246153
23,45,-0.567232,-0.698132,-0.174533,-0.174533,-0.567604,-0.688438,-0.143541,-0.190943,0.0371564,-0.271412,-0.464877,0.246153
23,45,-0.567232,-0.698132,-0.174533,-0.174533,-0.567604,-0.688438,-0.143541,-0.190943,0.0371564,-0.271412,-0.464877,0.246153
23,45,-0.567232,-0.698132,-0.174533,-0.174533,-0.567604,-0.688438,-0.143541,-0.190943,0.0371564,-0.271412,-0.464877,0.246153
23,45,-0.567232,-0.698132,-0.174533,-0.174533,-0.567604,-0.688438,-0.143541,-0.190943,0.0371564,-0.271412,-0.464877,0.246153
23,45,-0.567232,-0.698132,-0.174533,-0.174533,-0.567604,-0.688438,-0.143541,-0.190943,0.0371564,-0.271412,-0.464877,0.246153
23,45,-0.567232,-0.698132,-0.174533,-0.174533,-0.567604,-0.688438,-0.143541,-0.190943,0.0371564,-0.271412,-0.464877,0.246153
23,45,-0.567232,-0.698132,-0.174533,-0.174533,-0.567604,-0.688438,-0.143541,-0.190943,0.0371564,-0.271412,-0.464877,0.246153
23,45,-0.567232,-0.698132,-0.174533,-0.174533,-0.567604,-0.688438,-0.143541,-0.190943,0.0371564,-0.271412,-0.464877,0.246153
23,45,-0.567232,-0.698132,-0.174533,-0.174533,-0.567604,-0.688438,-0.143541,-0.190943,0.0371564,-0.271412,-0.464877,0.246153
23,45,-0.567232,-0.698132,-0.174533,-0.174533,-0.567604,-0.688438,-0.143541,-0.190943,0.0371564,-0.271412,-0.464877,0.246153
23,45,-0.567232,-0.698132,-0.174533,-0.174533,-0.567604,-0.688438,-0.143541,-0.190943,0.0371564,-0.271412,-0.464877,0.246153
23,45,-0.567232,-0.698132,-0.174533,-0.174533,-0.567604,-0.688438,-0.143541,-0.190943,0.0371564,-0.271412,-0.464877,0.246153
23,45,-0.567232,-0.698132,-0.174533,-0.174533,-0.567604,-0.688438,-0.143541,-0.190943,0.0371564,-0.271412,-0.464877,0.246153
23,45,-0.567232,-0.698132,-0.174533,-0.174533,-0.567604,-0.688438,-0.143541,-0.190943,0.0371564,-0.271412,-0.464877,0.246153
23,45,-0.567232,-0.698132,-0.174533,-0.174533,-0.567604,-0.688438,-0.143541,-0.190943,0.0371564,-0.271412,-0.464877,0.246153
23,45,-0.567232,-0.698132,-0.174533,-0.174533,-0.567604,-0.688438,-0.143541,-0.190943,0.0371564,-0.271412,-0.464877,0.246153
23,45,-0.567232,-0.698132,-0.174533,-0.174533,-0.567604,-0.688438,-0.143541,-0.190943,0.0371564,-0.271412,-0.464877,0.246153
23,45,-0.567232,-0.698132,-0.174533,-0.174533,-0.567604,-0.688438,-0.143541,-0.190943,0.0371564,-0.271412,-0.464877,0.246153
23,45,-0.567232,-0.698132,-0.174533,-0.174533,-0.567604,-0.688438,-0.143541,-0.190943,0.0371564,-0.271412,-0.464877,0.246153
23,45,-0.567232,-0.698132,-0.174533,-0.174533,-0.567604,-0.688438,-0.143541,-0.190943,0.0371564,-0.271412,-0.464877,0.246153
23,45,-0.567232,-0.698132,-0.174533,-0.174533,-0.567604,-0.688438,-0.143541,-0.190943,0.0371564,-0.271412,-0.464877,0.246153
23,45,-0.567232,-0.698132,-0.174533,-0.174533,-0.567604,-0.688438,-0.143541,-0.190943,0.0371564,-0.271412,-0.464877,0.246153
23,45,-0.567232,-0.698132,-0.174533,-0.174533,-0.567604,-0.688438,-0.143541,-0.190943,0.0371564,-0.271412,-0.464877,0.246153
23,45,-0.567232,-0.698132,-0.174533,-0.174533,-0.567604,-0.688438,-0.143541,-0.190943,0.0371564,-0.271412,-0.464877,0.246153
23,45,-0.567232,-0.698132,-0.174533,-0.174533,-0.567604,-0.688438,-0.143541,-0.190943,0.0371564,-0.271412,-0.464877,0.246153
23,45,-0.567232,-0.698132,-0.174533,-0.174533,-0.567604,-0.688438,-0.143541,-0.190943,0.0371564,-0.271412,-0.464877,0.246153
23,45,-0.567232,-0.698132,-0.174533,-0.174533,-0.567604,-0.688438,-0.143541,-0.190943,0.0371564,-0.271412,-0.464877,0.246153
23,45,-0.567232,-0.698132,-0.174533,-0.174533,-0.567604,-0.688438,-0.143541,-0.190943,0.0371564,-0.271412,-0.464877,0.246153
23,45,-0.567232,-0.698132,-0.174533,-0.174533,-0.567604,-0.688438,-0.143541,-0.190943,0.0371564,-0.271412,-0.464877,0.246153
23,45,-0.567232,-0.698132,-0.174533,-0.174533,-0.567604,-0.688438,-0.143541,-0.190943,0.0371564,-0.271412,-0.464877,0.246153
23,45,-0.567232,-0.698132,-0.174533,-0.174533,-0.567604,-0.688438,-0.143541,-0.190943,0.0371564,-0.271412,-0.464877,0.246153
23,45,-0.567232,-0.698132,-0.174533,-0.174533,-0.567604,-0.688438,-0.143541,-0.190943,0.0371564,-0.271412,-0.464877,0.246153
23,45,-0.567232,-0.698132,-0.174533,-0.174533,-0.567604,-0.688438,-0.143541,-0.190943,0.0371564,-0.271412,-0.464877,0.246153
23,45,-0.567232,-0.698132,-0.174533,-0.174533,-0.567604,-0.688438,-0.143541,-0.190943,0.0371564,-0.271412,-0.464877,0.246153
23,45,-0.567232,-0.698132,-0.174533,-0.174533,-0.567604,-0.688438,-0.143541,-0.190943,0.0371564,-0.271412,-0.464877,0.246153
23,45,-0.567232,-0.698132,-0.174533,-0.174533,-0.567604,-0.688438,-0.143541,-0.190943,0.0371564,-0.271412,-0.464877,0.246153
23,45,-0.567232,-0.698132,-0.174533,-0.174533,-0.567604,-0.688438,-0.143541,-0.190943,0.0371564,-0.271412,-0.464877,0.246153
23,45,-0.567232,-0.698132,-0.174533,-0.174533,-0.567604,-0.688438,-0.143541,-0.190943,0.0371564,-0.271412,-0.464877,0.246153
23,45,-0.567232,-0.698132,-0.174533,-0.174533,-0.567604,-0.688438,-0.143541,-0.190943,0.0371564,-0.271412,-0.464877,0.246153
23,45,-0.567232,-0.698132,-0.174533,-0.174533,-0.567604,-0.688438,-0.143541,-0.190943,0.0371564,-0.271412,-0.464877,0.246153
23,45,-0.567232,-0.698132,-0.174533,-0.174533,-0.567604,-0.688438,-0.143541,-0.190943,0.0371564,-0.271412,-0.464877,0.246153
23,45,-0.567232,-0.698132,-0.174533,-0.174533,-0.567604,-0.688438,-0.143541,-0.190943,0.0371564,-0.271412,-0.464877,0.246153
23,45,-0.567232,-0.698132,-0.174533,-0.174533,-0.567604,-0.688438,-0.143541,-0.190943,0.0371564,-0.271412,-0.464877,0.246153
23,45,-0.567232,-0.698132,-0.174533,-0.174533,-0.567604,-0.688438,-0.143541,-0.190943,0.0371564,-0.271412,-0.464877,0.246153
23,45,-0.567232,-0.698132,-0.174533,-0.174533,-0.567604,-0.688438,-0.143541,-0.190943,0.0371564,-0.271412,-0.464877,0.246153
23,45,-0.567232,-0.698132,-0.174533,-0.174533,-0.567604,-0.688438,-0.143541,-0.190943,0.0371564,-0.271412,-0.464877,0.246153
23,45,-0.567232,-0.698132,-0.174533,-0.174533,-0.567604,-0.688438,-0.143541,-0.190943,0.0371564,-0.271412,-0.464877,0.246153
23,45,-0.567232,-0.698132,-0.174533,-0.174533,-0.567604,-0.688438,-0.143541,-0.190943,0.0371564,-0.271412,-0.464877,0.246153
23,45,-0.567232,-0.698132,-0.174533,-0.174533,-0.567604,-0.688438,-0.143541,-0.190943,0.0371564,-0.271412,-0.464877,0.246153
23,45,-0.567232,-0.698132,-0.174533,-0.174533,-0.567604,-0.688438,-0.143541,-0.190943,0.0371564,-0.271412,-0.464877,0.246153
23,45,-0.567232,-0.698132,-0.174533,-0.174533,-0.567604,-0.688438,-0.143541,-0.190943,0.0371564,-0.271412,-0.464877,0.246153
23,45,-0.567232,-0.698132,-0.174533,-0.174533,-0.567604,-0.688438,-0.143541,-0.190943,0.0371564,-0.271412,-0.464877,0.246153
23,45,-0.567232,-0.698132,-0.174533,-0.174533,-0.567604,-0.688438,-0.143541,-0.190943,0.0371564,-0.271412,-0.464877,0.246153
23,45,-0.567232,-0.698132,-0.174533,-0.174533,-0.567604,-0.688438,-0.143541,-0.190943,0.0371564,-0.271412,-0.464877,0.246153
23,45,-0.567232,-0.698132,-0.174533,-0.174533,-0.567604,-0.688438,-0.143541,-0.190943,0.0371564,-0.271412,-0.464877,0.246153
23,45,-0.567232,-0.698132,-0.174533,-0.174533,-0.567604,-0.688438,-0.143541,-0.190943,0.0371564,-0.271412,-0.464877,0.246153
23,45,-0.567232,-0.698132,-0.174533,-0.174533,-0.567604,-0.688438,-0.143541,-0.190943,0.0371564,-0.271412,-0.464877,0.246153
23,45,-0.567232,-0.698132,-0.174533,-0.174533,-0.567604,-0.688438,-0.143539,-0.190884,0.0371564,-0.271412,-0.464906,0.245263
23,45,-0.567232,-0.698132,-0.174533,-0.174533,-0.567604,-0.688438,-0.143539,-0.190884,0.0371564,-0.271412,-0.464906,0.245263
23,45,-0.567232,-0.698132,-0.174533,-0.174533,-0.567604,-0.688438,-0.143539,-0.190884,0.0371564,-0.271412,-0.464906,0.245263
23,45,-0.567232,-0.698132,-0.174533,-0.174533,-0.567604,-0.688438,-0.143539,-0.190884,0.0371564,-0.271412,-0.464906,0.245263
23,45,-0.567232,-0.698132,-0.174533,-0.174533,-0.567604,-0.688438,-0.143539,-0.190884,0.0371564,-0.271412,-0.464906,0.245263
23,45,-0.567232,-0.698132,-0.174533,-0.174533,-0.567604,-0.688438,-0.143539,-0.190884,0.0371564,-0.271412,-0.464906,0.245263
23,45,-0.567232,-0.698132,-0.174533,-0.174533,-0.567604,-0.688438,-0.143539,-0.190884,0.0371564,-0.271412,-0.464906,0.245263
23,45,-0.567232,-0.698132,-0.174533,-0.174533,-0.567604,-0.688438,-0.143539,-0.190884,0.0371564,-0.271412,-0.464906,0.245263
23,45,-0.567232,-0.698132,-0.174533,-0.174533,-0.567604,-0.688438,-0.143539,-0.190884,0.0371564,-0.271412,-0.464906,0.245263
23,45,-0.567232,-0.698132,-0.174533,-0.174533,-0.567604,-0.688438,-0.143539,-0.190884,0.0371564,-0.271412,-0.464906,0.245263
23,45,-0.567232,-0.698132,-0.174533,-0.174533,-0.567604,-0.688438,-0.143539,-0.190884,0.0371564,-0.271412,-0.464906,0.245263
23,45,-0.567232,-0.698132,-0.174533,-0.174533,-0.567604,-0.688438,-0.143539,-0.190884,0.0371564,-0.271412,-0.464906,0.245263
23,45,-0.567232,-0.698132,-0.174533,-0.174533,-0.567604,-0.688438,-0.143539,-0.190884,0.0371564,-0.271412,-0.464906,0.245263
23,45,-0.567232,-0.698132,-0.174533,-0.174533,-0.567604,-0.688438,-0.143539,-0.190884,0.0371564,-0.271412,-0.464906,0.245263
23,45,-0.567232,-0.698132,-0.174533,-0.174533,-0.567604,-0.688438,-0.143539,-0.190884,0.0371564,-0.271412,-0.464906,0.245263
23,45,-0.567232,-0.698132,-0.174533,-0.174533,-0.567604,-0.688438,-0.143539,-0.190884,0.0371564,-0.271412,-0.464906,0.245263
23,45,-0.567232,-0.698132,-0.174533,-0.174533,-0.567604,-0.688438,-0.143539,-0.190884,0.0371564,-0.271412,-0.464906,0.245263
23,45,-0.567232,-0.698132,-0.174533,-0.174533,-0.567604,-0.688438,-0.143539,-0.190884,0.0371564,-0.271412,-0.464906,0.245263
23,45,-0.567232,-0.698132,-0.174533,-0.174533,-0.567604,-0.688438,-0.143539,-0.190884,0.0371564,-0.271412,-0.464906,0.245263
23,45,-0.567232,-0.698132,-0.174533,-0.174533,-0.567604,-0.688438,-0.143539,-0.190884,0.0371564,-0.271412,-0.464906,0.245263
23,45,-0.567232,-0.698132,-0.174533,-0.174533,-0.567604,-0.688438,-0.143539,-0.190884,0.0371564,-0.271412,-0.464906,0.245263
23,45,-0.567232,-0.698132,-0.174533,-0.174533,-0.567604,-0.688438,-0.143539,-0.190884,0.0371564,-0.271412,-0.464906,0.245263
23,45,-0.567232,-0.698132,-0.174533,-0.174533,-0.567604,-0.688438,-0.143539,-0.190884,0.0371564,-0.271412,-0.464906,0.245263
23,45,-0.567232,-0.698132,-0.174533,-0.174533,-0.567604,-0.688438,-0.143539,-0.190884,0.0371564,-0.271412,-0.464906,0.245263
23,45,-0.567232,-0.698132,-0.174533,-0.174533,-0.567604,-0.688438,-0.143539,-0.190884,0.0371564,-0.271412,-0.464906,0.245263
23,45,-0.567232,-0.698132,-0.174533,-0.174533,-0.567604,-0.688438,-0.143539,-0.190884,0.0371564,-0.271412,-0.464906,0.245263
23,45,-0.567232,-0.698132,-0.174533,-0.174533,-0.567604,-0.688438,-0.143539,-0.190884,0.0371564,-0.271412,-0.464906,0.245263
23,45,-0.567232,-0.698132,-0.174533,-0.174533,-0.567604,-0.688438,-0.143539,-0.190884,0.0371564,-0.271412,-0.464906,0.245263
23,45,-0.567232,-0.698132,-0.174533,-0.174533,-0.567604,-0.688438,-0.143539,-0.190884,0.0371564,-0.271412,-0.464906,0.245263
23,45,-0.567232,-0.698132,-0.174533,-0.174533,-0.567604,-0.688438,-0.143539,-0.190884,0.0371564,-0.271412,-0.464906,0.245263
23,45,-0.567232,-0.698132,-0.174533,-0.174533,-0.567604,-0.688438,-0.143539,-0.190884,0.0371564,-0.271412,-0.464906,0.245263
23,45,-0.567232,-0.698132,-0.174533,-0.174533,-0.567604,-0.688438,-0.143539,-0.190884,0.0371564,-0.271412,-0.464906,0.245263
23,45,-0.567232,-0.698132,-0.174533,-0.174533,-0.567604,-0.688438,-0.143539,-0.190884,0.0371564,-0.271412,-0.464906,0.245263
23,45,-0.567232,-0.698132,-0.174533,-0.174533,-0.567604,-0.688438,-0.143539,-0.190884,0.0371564,-0.271412,-0.464906,0.245263
23,45,-0.567232,-0.698132,-0.174533,-0.174533,-0.567604,-0.688438,-0.143539,-0.190884,0.0371564,-0.271412,-0.464906,0.245263
23,45,-0.567232,-0.698132,-0.174533,-0.174533,-0.567604,-0.688438,-0.143539,-0.190884,0.0371564,-0.271412,-0.464906,0.245263
23,45,-0.567232,-0.698132,-0.174533,-0.174533,-0.567604,-0.688438,-0.143539,-0.190884,0.0371564,-0.271412,-0.464906,0.245263
23,45,-0.567232,-0.698132,-0.174533,-0.174533,-0.567604,-0.688438,-0.143539,-0.190884,0.0371564,-0.271412,-0.464906,0.245263
23,45,-0.567232,-0.698132,-0.174533,-0.174533,-0.567604,-0.688438,-0.143539,-0.190884,0.0371564,-0.271412,-0.464906,0.245263
23,45,-0.567232,-0.698132,-0.174533,-0.174533,-0.567604,-0.688438,-0.143539,-0.190884,0.0371564,-0.271412,-0.464906,0.245263
23,45,-0.567232,-0.698132,-0.174533,-0.174533,-0.567604,-0.688438,-0.143539,-0.190884,0.0371564,-0.271412,-0.464906,0.245263
23,45,-0.567232,-0.698132,-0.174533,-0.174533,-0.567604,-0.688438,-0.143539,-0.190884,0.0371564,-0.271412,-0.464906,0.245263
23,45,-0.567232,-0.698132,-0.174533,-0.174533,-0.567604,-0.688438,-0.143539,-0.190884,0.0371564,-0.271412,-0.464906,0.245263
23,45,-0.567232,-0.698132,-0.174533,-0.174533,-0.567604,-0.688438,-0.143539,-0.190884,0.0371564,-0.271412,-0.464906,0.245263
23,45,-0.567232,-0.698132,-0.174533,-0.174533,-0.567604,-0.688438,-0.143539,-0.190884,0.0371564,-0.271412,-0.464906,0.245263
23,45,-0.567232,-0.698132,-0.174533,-0.174533,-0.567604,-0.688438,-0.143539,-0.190884,0.0371564,-0.271412,-0.464906,0.245263
23,45,-0.567232,-0.698132,-0.174533,-0.174533,-0.567604,-0.688438,-0.143539,-0.190884,0.0371564,-0.271412,-0.464906,0.245263
23,45,-0.567232,-0.698132,-0.174533,-0.174533,-0.567604,-0.688438,-0.143539,-0.190884,0.0371564,-0.271412,-0.464906,0.245263
23,45,-0.567232,-0.698132,-0.174533,-0.174533,-0.567604,-0.688438,-0.143539,-0.190884,0.0371564,-0.271412,-0.464906,0.245263
23,45,-0.567232,-0.698132,-0.174533,-0.174533,-0.567604,-0.688438,-0.143539,-0.190884,0.0371564,-0.271412,-0.464906,0.245263
23,45,-0.567232,-0.698132,-0.174533,-0.174533,-0.567604,-0.688438,-0.143539,-0.190884,0.0371564,-0.271412,-0.464906,0.245263
23,45,-0.567232,-0.698132,-0.174533,-0.174533,-0.567604,-0.688438,-0.143539,-0.190884,0.0371564,-0.271412,-0.464906,0.245263
23,45,-0.567232,-0.698132,-0.174533,-0.174533,-0.567604,-0.688438,-0.143539,-0.190884,0.0371564,-0.271412,-0.464906,0.245263
23,45,-0.567232,-0.698132,-0.174533,-0.174533,-0.567604,-0.688438,-0.143539,-0.190884,0.0371564,-0.271412,-0.464906,0.245263
23,45,-0.567232,-0.698132,-0.174533,-0.174533,-0.567604,-0.688438,-0.143539,-0.190884,0.0371564,-0.271412,-0.464906,0.245263
23,45,-0.567232,-0.698132,-0.174533,-0.174533,-0.567604,-0.688438,-0.143539,-0.190884,0.0371564,-0.271412,-0.464906,0.245263
23,45,-0.567232,-0.698132,-0.174533,-0.174533,-0.567604,-0.688438,-0.143539,-0.190884,0.0371564,-0.271412,-0.464906,0.245263
23,45,-0.567232,-0.698132,-0.174533,-0.174533,-0.567604,-0.688438,-0.143539,-0.190884,0.0371564,-0.271412,-0.464906,0.245263
23,45,-0.567232,-0.698132,-0.174533,-0.174533,-0.567604,-0.688438,-0.143539,-0.190884,0.0371564,-0.271412,-0.464906,0.245263
23,45,-0.567232,-0.698132,-0.174533,-0.174533,-0.567604,-0.688438,-0.143539,-0.190884,0.0371564,-0.271412,-0.464906,0.245263
23,45,-0.567232,-0.698132,-0.174533,-0.174533,-0.567604,-0.688438,-0.143539,-0.190884,0.0371564,-0.271412,-0.464906,0.245263
23,45,-0.567232,-0.698132,-0.174533,-0.174533,-0.567604,-0.688438,-0.143539,-0.190884,0.0371564,-0.271412,-0.464906,0.245263
23,45,-0.567232,-0.698132,-0.174533,-0.174533,-0.567604,-0.688438,-0.143539,-0.190884,0.0371564,-0.271412,-0.464906,0.245263
23,45,-0.567232,-0.698132,-0.174533,-0.174533,-0.567604,-0.688438,-0.143539,-0.190884,0.0371564,-0.271412,-0.464906,0.245263
23,45,-0.567232,-0.698132,-0.174533,-0.174533,-0.567604,-0.688438,-0.143539,-0.190884,0.0371564,-0.271412,-0.464906,0.245263
23,45,-0.567232,-0.698132,-0.174533,-0.174533,-0.567604,-0.688438,-0.143539,-0.190884,0.0371564,-0.271412,-0.464906,0.245263
23,45,-0.567232,-0.698132,-0.174533,-0.174533,-0.567604,-0.688438,-0.143539,-0.190884,0.0371564,-0.271412,-0.464906,0.245263
23,45,-0.567232,-0.698132,-0.174533,-0.174533,-0.567604,-0.688438,-0.143539,-0.190884,0.0371564,-0.271412,-0.464906,0.245263
23,45,-0.567232,-0.698132,-0.174533,-0.174533,-0.567604,-0.688438,-0.143539,-0.190884,0.0371564,-0.271412,-0.464906,0.245263
23,45,-0.567232,-0.698132,-0.174533,-0.174533,-0.567604,-0.688438,-0.143539,-0.190884,0.0371564,-0.271412,-0.464906,0.245263
23,45,-0.567232,-0.698132,-0.174533,-0.174533,-0.567604,-0.688438,-0.143539,-0.190884,0.0371564,-0.271412,-0.464906,0.245263
23,45,-0.567232,-0.698132,-0.174533,-0.174533,-0.567604,-0.688438,-0.143539,-0.190884,0.0371564,-0.271412,-0.464906,0.245263
23,45,-0.567232,-0.698132,-0.174533,-0.174533,-0.567604,-0.688438,-0.143539,-0.190884,0.0371564,-0.271412,-0.464906,0.245263
23,45,-0.567232,-0.698132,-0.174533,-0.174533,-0.567604,-0.688438,-0.143539,-0.190884,0.0371564,-0.271412,-0.464906,0.245263
23,45,-0.567232,-0.698132,-0.174533,-0.174533,-0.567604,-0.688438,-0.143539,-0.190884,0.0371564,-0.271412,-0.464906,0.245263
23,45,-0.567232,-0.698132,-0.174533,-0.174533,-0.567604,-0.688438,-0.143539,-0.190884,0.0371564,-0.271412,-0.464906,0.245263
23,45,-0.567232,-0.698132,-0.174533,-0.174533,-0.567604,-0.688438,-0.143539,-0.190884,0.0371564,-0.271412,-0.464906,0.245263
23,45,-0.567232,-0.698132,-0.174533,-0.174533,-0.567604,-0.688438,-0.143539,-0.190884,0.0371564,-0.271412,-0.464906,0.245263
23,45,-0.567232,-0.698132,-0.174533,-0.174533,-0.567604,-0.688438,-0.143539,-0.190884,0.0371564,-0.271412,-0.464906,0.245263
23,45,-0.567232,-0.698132,-0.174533,-0.174533,-0.567604,-0.688438,-0.143539,-0.190884,0.0371564,-0.271412,-0.464906,0.245263
23,45,-0.567232,-0.698132,-0.174533,-0.174533,-0.567604,-0.688438,-0.143539,-0.190884,0.0371564,-0.271412,-0.464906,0.245263
23,45,-0.567232,-0.698132,-0.174533,-0.174533,-0.567604,-0.688438,-0.143539,-0.190884,0.0371564,-0.271412,-0.464906,0.245263
23,45,-0.567232,-0.698132,-0.174533,-0.174533,-0.567604,-0.688438,-0.143539,-0.190884,0.0371564,-0.271412,-0.464906,0.245263
23,45,-0.567232,-0.698132,-0.174533,-0.174533,-0.567604,-0.688438,-0.143539,-0.190884,0.0371564,-0.271412,-0.464906,0.245263
23,45,-0.567232,-0.698132,-0.174533,-0.174533,-0.567604,-0.688438,-0.143539,-0.190884,0.0371564,-0.271412,-0.464906,0.245263
23,45,-0.567232,-0.698132,-0.174533,-0.174533,-0.567604,-0.688438,-0.143539,-0.190884,0.0371564,-0.271412,-0.464906,0.245263
23,45,-0.567232,-0.698132,-0.174533,-0.174533,-0.567604,-0.688438,-0.143539,-0.190884,0.0371564,-0.271412,-0.464906,0.245263
23,45,-0.567232,-0.698132,-0.174533,-0.174533,-0.567604,-0.688438,-0.143537,-0.190825,0.0371564,-0.271412,-0.464935,0.244374
23,45,-0.567232,-0.698132,-0.174533,-0.174533,-0.567604,-0.688438,-0.143537,-0.190825,0.0371564,-0.271412,-0.464935,0.244374
23,45,-0.567232,-0.698132,-0.174533,-0.174533,-0.567604,-0.688438,-0.143537,-0.190825,0.0371564,-0.271412,-0.464935,0.244374
23,45,-0.567232,-0.698132,-0.174533,-0.174533,-0.567604,-0.688438,-0.143537,-0.190825,0.0371564,-0.271412,-0.464935,0.244374
23,45,-0.567232,-0.698132,-0.174533,-0.174533,-0.567604,-0.688438,-0.143537,-0.190825,0.0371564,-0.271412,-0.464935,0.244374
23,45,-0.567232,-0.698132,-0.174533,-0.174533,-0.567604,-0.688438,-0.143537,-0.190825,0.0371564,-0.271412,-0.464935,0.244374
23,45,-0.567232,-0.698132,-0.174533,-0.174533,-0.567604,-0.688438,-0.143472,-0.190783,0.0371564,-0.271412,-0.465913,0.243753
23,45,-0.567232,-0.698132,-0.174533,-0.174533,-0.567604,-0.688438,-0.143472,-0.190783,0.0371564,-0.271412,-0.465913,0.243753
23,45,-0.567232,-0.698132,-0.174533,-0.174533,-0.567604,-0.688438,-0.143472,-0.190783,0.0371564,-0.271412,-0.465913,0.243753
23,45,-0.567232,-0.698132,-0.174533,-0.174533,-0.567604,-0.688438,-0.143472,-0.190783,0.0371564,-0.271412,-0.465913,0.243753
23,45,-0.567232,-0.698132,-0.174533,-0.174533,-0.567604,-0.688438,-0.143472,-0.190783,0.0371564,-0.271412,-0.465913,0.243753
23,45,-0.567232,-0.698132,-0.174533,-0.174533,-0.567604,-0.688438,-0.143472,-0.190783,0.0371564,-0.271412,-0.465913,0.243753
23,45,-0.567232,-0.698132,-0.174533,-0.174533,-0.567604,-0.688438,-0.143472,-0.190783,0.0371564,-0.271412,-0.465913,0.243753
23,45,-0.567232,-0.698132,-0.174533,-0.174533,-0.567604,-0.688438,-0.143472,-0.190783,0.0371564,-0.271412,-0.465913,0.243753
23,45,-0.567232,-0.698132,-0.174533,-0.174533,-0.567604,-0.688438,-0.143472,-0.190783,0.0371564,-0.271412,-0.465913,0.243753
23,45,-0.567232,-0.698132,-0.174533,-0.174533,-0.567604,-0.688438,-0.143472,-0.190783,0.0371564,-0.271412,-0.465913,0.243753
23,45,-0.567232,-0.698132,-0.174533,-0.174533,-0.567604,-0.688438,-0.143472,-0.190783,0.0371564,-0.271412,-0.465913,0.243753
23,45,-0.567232,-0.698132,-0.174533,-0.174533,-0.567604,-0.688438,-0.143472,-0.190783,0.0371564,-0.271412,-0.465913,0.243753
23,45,-0.567232,-0.698132,-0.174533,-0.174533,-0.567604,-0.688438,-0.143472,-0.190783,0.0371564,-0.271412,-0.465913,0.243753
23,45,-0.567232,-0.698132,-0.174533,-0.174533,-0.567604,-0.688438,-0.143472,-0.190783,0.0371564,-0.271412,-0.465913,0.243753
23,45,-0.567232,-0.698132,-0.174533,-0.174533,-0.567604,-0.688438,-0.143472,-0.190783,0.0371564,-0.271412,-0.465913,0.243753
23,45,-0.567232,-0.698132,-0.174533,-0.174533,-0.567604,-0.688438,-0.143472,-0.190783,0.0371564,-0.271412,-0.465913,0.243753
23,45,-0.567232,-0.698132,-0.174533,-0.174533,-0.567604,-0.688438,-0.143472,-0.190783,0.0371564,-0.271412,-0.465913,0.243753
23,45,-0.567232,-0.698132,-0.174533,-0.174533,-0.567604,-0.688438,-0.143472,-0.190783,0.0371564,-0.271412,-0.465913,0.243753
23,45,-0.567232,-0.698132,-0.174533,-0.174533,-0.567604,-0.688438,-0.143472,-0.190783,0.0371564,-0.271412,-0.465913,0.243753
23,45,-0.567232,-0.698132,-0.174533,-0.174533,-0.567604,-0.688438,-0.143472,-0.190783,0.0371564,-0.271412,-0.465913,0.243753
23,45,-0.567232,-0.698132,-0.174533,-0.174533,-0.567604,-0.688438,-0.143472,-0.190783,0.0371564,-0.271412,-0.465913,0.243753
23,45,-0.567232,-0.698132,-0.174533,-0.174533,-0.567604,-0.688438,-0.143472,-0.190783,0.0371564,-0.271412,-0.465913,0.243753
23,45,-0.567232,-0.698132,-0.174533,-0.174533,-0.567604,-0.688438,-0.143472,-0.190783,0.0371564,-0.271412,-0.465913,0.243753
23,45,-0.567232,-0.698132,-0.174533,-0.174533,-0.567604,-0.688438,-0.143472,-0.190783,0.0371564,-0.271412,-0.465913,0.243753
23,45,-0.567232,-0.698132,-0.174533,-0.174533,-0.567604,-0.688438,-0.143472,-0.190783,0.0371564,-0.271412,-0.465913,0.243753
23,45,-0.567232,-0.698132,-0.174533,-0.174533,-0.567604,-0.688438,-0.143472,-0.190783,0.0371564,-0.271412,-0.465913,0.243753
23,45,-0.567232,-0.698132,-0.174533,-0.174533,-0.567604,-0.688438,-0.143472,-0.190783,0.0371564,-0.271412,-0.465913,0.243753
23,45,-0.567232,-0.698132,-0.174533,-0.174533,-0.567604,-0.688438,-0.143472,-0.190783,0.0371564,-0.271412,-0.465913,0.243753
23,45,-0.567232,-0.698132,-0.174533,-0.174533,-0.567604,-0.688438,-0.143472,-0.190783,0.0371564,-0.271412,-0.465913,0.243753
23,45,-0.567232,-0.698132,-0.174533,-0.174533,-0.567604,-0.688438,-0.143472,-0.190783,0.0371564,-0.271412,-0.465913,0.243753
23,45,-0.567232,-0.698132,-0.174533,-0.174533,-0.567604,-0.688438,-0.143472,-0.190783,0.0371564,-0.271412,-0.465913,0.243753
23,45,-0.567232,-0.698132,-0.174533,-0.174533,-0.567604,-0.688438,-0.143472,-0.190783,0.0371564,-0.271412,-0.465913,0.243753
23,45,-0.567232,-0.698132,-0.174533,-0.174533,-0.567604,-0.688438,-0.143472,-0.190783,0.0371564,-0.271412,-0.465913,0.243753
23,45,-0.567232,-0.698132,-0.174533,-0.174533,-0.567604,-0.688438,-0.143472,-0.190783,0.0371564,-0.271412,-0.465913,0.243753
23,45,-0.567232,-0.698132,-0.174533,-0.174533,-0.567604,-0.688438,-0.143472,-0.190783,0.0371564,-0.271412,-0.465913,0.243753
23,45,-0.567232,-0.698132,-0.174533,-0.174533,-0.567604,-0.688438,-0.143472,-0.190783,0.0371564,-0.271412,-0.465913,0.243753
23,45,-0.567232,-0.698132,-0.174533,-0.174533,-0.567604,-0.688438,-0.143472,-0.190783,0.0371564,-0.271412,-0.465913,0.243753
23,45,-0.567232,-0.698132,-0.174533,-0.174533,-0.567604,-0.688438,-0.143472,-0.190783,0.0371564,-0.271412,-0.465913,0.243753
23,45,-0.567232,-0.698132,-0.174533,-0.174533,-0.567604,-0.688438,-0.143472,-0.190783,0.0371564,-0.271412,-0.465913,0.243753
23,45,-0.567232,-0.698132,-0.174533,-0.174533,-0.567604,-0.688438,-0.143472,-0.190783,0.0371564,-0.271412,-0.465913,0.243753
23,45,-0.567232,-0.698132,-0.174533,-0.174533,-0.567604,-0.688438,-0.143472,-0.190783,0.0371564,-0.271412,-0.465913,0.243753
23,45,-0.567232,-0.698132,-0.174533,-0.174533,-0.567604,-0.688438,-0.143472,-0.190783,0.0371564,-0.271412,-0.465913,0.243753
23,45,-0.567232,-0.698132,-0.174533,-0.174533,-0.567604,-0.688438,-0.143472,-0.190783,0.0371564,-0.271412,-0.465913,0.243753
23,45,-0.567232,-0.698132,-0.174533,-0.174533,-0.567604,-0.688438,-0.143472,-0.190783,0.0371564,-0.271412,-0.465913,0.243753
23,45,-0.567232,-0.698132,-0.174533,-0.174533,-0.567604,-0.688438,-0.143472,-0.190783,0.0371564,-0.271412,-0.465913,0.243753
23,45,-0.567232,-0.698132,-0.174533,-0.174533,-0.567604,-0.688438,-0.143472,-0.190783,0.0371564,-0.271412,-0.465913,0.243753
23,45,-0.567232,-0.698132,-0.174533,-0.174533,-0.567604,-0.688438,-0.143472,-0.190783,0.0371564,-0.271412,-0.465913,0.243753
23,45,-0.567232,-0.698132,-0.174533,-0.174533,-0.567604,-0.688438,-0.143472,-0.190783,0.0371564,-0.271412,-0.465913,0.243753
23,45,-0.567232,-0.698132,-0.174533,-0.174533,-0.567604,-0.688438,-0.143472,-0.190783,0.0371564,-0.271412,-0.465913,0.243753
23,45,-0.567232,-0.698132,-0.174533,-0.174533,-0.567604,-0.688438,-0.143472,-0.190783,0.0371564,-0.271412,-0.465913,0.243753
23,45,-0.567232,-0.698132,-0.174533,-0.174533,-0.567604,-0.688438,-0.143472,-0.190783,0.0371564,-0.271412,-0.465913,0.243753
23,45,-0.567232,-0.698132,-0.174533,-0.174533,-0.567604,-0.688438,-0.143472,-0.190783,0.0371564,-0.271412,-0.465913,0.243753
23,45,-0.567232,-0.698132,-0.174533,-0.174533,-0.567604,-0.688438,-0.143472,-0.190783,0.0371564,-0.271412,-0.465913,0.243753
23,45,-0.567232,-0.698132,-0.174533,-0.174533,-0.567604,-0.688438,-0.143472,-0.190783,0.0371564,-0.271412,-0.465913,0.243753
23,45,-0.567232,-0.698132,-0.174533,-0.174533,-0.567604,-0.688438,-0.143472,-0.190783,0.0371564,-0.271412,-0.465913,0.243753
23,45,-0.567232,-0.698132,-0.174533,-0.174533,-0.567604,-0.688438,-0.143472,-0.190783,0.0371564,-0.271412,-0.465913,0.243753
23,45,-0.567232,-0.698132,-0.174533,-0.174533,-0.567604,-0.688438,-0.143472,-0.190783,0.0371564,-0.271412,-0.465913,0.243753
23,45,-0.567232,-0.698132,-0.174533,-0.174533,-0.567604,-0.688438,-0.143472,-0.190783,0.0371564,-0.271412,-0.465913,0.243753
23,45,-0.567232,-0.698132,-0.174533,-0.174533,-0.567604,-0.688438,-0.143472,-0.190783,0.0371564,-0.271412,-0.465913,0.243753
23,45,-0.567232,-0.698132,-0.174533,-0.174533,-0.567604,-0.688438,-0.143472,-0.190783,0.0371564,-0.271412,-0.465913,0.243753
23,45,-0.567232,-0.698132,-0.174533,-0.174533,-0.567604,-0.688438,-0.143472,-0.190783,0.0371564,-0.271412,-0.465913,0.243753
23,45,-0.567232,-0.698132,-0.174533,-0.174533,-0.567604,-0.688438,-0.143472,-0.190783,0.0371564,-0.271412,-0.465913,0.243753
23,45,-0.567232,-0.698132,-0.174533,-0.174533,-0.567604,-0.688438,-0.143472,-0.190783,0.0371564,-0.271412,-0.465913,0.243753
23,45,-0.567232,-0.698132,-0.174533,-0.174533,-0.567604,-0.688438,-0.143472,-0.190783,0.0371564,-0.271412,-0.465913,0.243753
23,45,-0.567232,-0.698132,-0.174533,-0.174533,-0.567604,-0.688438,-0.143472,-0.190783,0.0371564,-0.271412,-0.465913,0.243753
23,45,-0.567232,-0.698132,-0.174533,-0.174533,-0.567604,-0.688438,-0.143472,-0.190783,0.0371564,-0.271412,-0.465913,0.243753
23,45,-0.567232,-0.698132,-0.174533,-0.174533,-0.567604,-0.688438,-0.143472,-0.190783,0.0371564,-0.271412,-0.465913,0.243753
23,45,-0.567232,-0.698132,-0.174533,-0.174533,-0.567604,-0.688438,-0.143472,-0.190783,0.0371564,-0.271412,-0.465913,0.243753
23,45,-0.567232,-0.698132,-0.174533,-0.174533,-0.567604,-0.688438,-0.143472,-0.190783,0.0371564,-0.271412,-0.465913,0.243753
23,45,-0.567232,-0.698132,-0.174533,-0.174533,-0.567604,-0.688438,-0.143472,-0.190783,0.0371564,-0.271412,-0.465913,0.243753
23,45,-0.567232,-0.698132,-0.174533,-0.174533,-0.567604,-0.688438,-0.143472,-0.190783,0.0371564,-0.271412,-0.465913,0.243753
23,45,-0.567232,-0.698132,-0.174533,-0.174533,-0.567604,-0.688438,-0.143472,-0.190783,0.0371564,-0.271412,-0.465913,0.243753
23,45,-0.567232,-0.698132,-0.174533,-0.174533,-0.567604,-0.688438,-0.143472,-0.190783,0.0371564,-0.271412,-0.465913,0.243753
23,45,-0.567232,-0.698132,-0.174533,-0.174533,-0.567604,-0.688438,-0.143472,-0.190783,0.0371564,-0.271412,-0.465913,0.243753
23,45,-0.567232,-0.698132,-0.174533,-0.174533,-0.567604,-0.688438,-0.143472,-0.190783,0.0371564,-0.271412,-0.465913,0.243753
23,45,-0.567232,-0.698132,-0.174533,-0.174533,-0.567604,-0.688438,-0.143472,-0.190783,0.0371564,-0.271412,-0.465913,0.243753
23,45,-0.567232,-0.698132,-0.174533,-0.174533,-0.567604,-0.688438,-0.143472,-0.190783,0.0371564,-0.271412,-0.465913,0.243753
23,45,-0.567232,-0.698132,-0.174533,-0.174533,-0.567604,-0.688438,-0.143472,-0.190783,0.0371564,-0.271412,-0.465913,0.243753
23,45,-0.567232,-0.698132,-0.174533,-0.174533,-0.567604,-0.688438,-0.143472,-0.190783,0.0371564,-0.271412,-0.465913,0.243753
23,45,-0.567232,-0.698132,-0.174533,-0.174533,-0.567604,-0.688438,-0.143472,-0.190783,0.0371564,-0.271412,-0.465913,0.243753
23,45,-0.567232,-0.698132,-0.174533,-0.174533,-0.567604,-0.688438,-0.143472,-0.190783,0.0371564,-0.271412,-0.465913,0.243753
23,45,-0.567232,-0.698132,-0.174533,-0.174533,-0.567604,-0.688438,-0.143472,-0.190783,0.0371564,-0.271412,-0.465913,0.243753
23,45,-0.567232,-0.698132,-0.174533,-0.174533,-0.567604,-0.688438,-0.143472,-0.190783,0.0371564,-0.271412,-0.465913,0.243753
23,45,-0.567232,-0.698132,-0.174533,-0.174533,-0.567604,-0.688438,-0.143472,-0.190783,0.0371564,-0.271412,-0.465913,0.243753
23,45,-0.567232,-0.698132,-0.174533,-0.174533,-0.567604,-0.688438,-0.143472,-0.190783,0.0371564,-0.271412,-0.465913,0.243753
23,45,-0.567232,-0.698132,-0.174533,-0.174533,-0.567604,-0.688438,-0.143472,-0.190783,0.0371564,-0.271412,-0.465913,0.243753
23,45,-0.567232,-0.698132,-0.174533,-0.174533,-0.567604,-0.688438,-0.143472,-0.190783,0.0371564,-0.271412,-0.465913,0.243753
23,45,-0.567232,-0.698132,-0.174533,-0.174533,-0.567604,-0.688438,-0.143472,-0.190783,0.0371564,-0.271412,-0.465913,0.243753
23,45,-0.567232,-0.698132,-0.174533,-0.174533,-0.567604,-0.688438,-0.143472,-0.190783,0.0371564,-0.271412,-0.465913,0.243753
23,45,-0.567232,-0.698132,-0.174533,-0.174533,-0.567604,-0.688438,-0.143472,-0.190783,0.0371564,-0.271412,-0.465913,0.243753
23,45,-0.567232,-0.698132,-0.174533,-0.174533,-0.567604,-0.688438,-0.143472,-0.190783,0.0371564,-0.271412,-0.465913,0.243753
23,45,-0.567232,-0.698132,-0.174533,-0.174533,-0.567604,-0.688438,-0.143472,-0.190783,0.0371564,-0.271412,-0.465913,0.243753
23,45,-0.567232,-0.698132,-0.174533,-0.174533,-0.567604,-0.688438,-0.143472,-0.190783,0.0371564,-0.271412,-0.465913,0.243753
23,45,-0.567232,-0.698132,-0.174533,-0.174533,-0.567604,-0.688438,-0.143472,-0.190783,0.0371564,-0.271412,-0.465913,0.243753
23,45,-0.567232,-0.698132,-0.174533,-0.174533,-0.567604,-0.688438,-0.143472,-0.190783,0.0371564,-0.271412,-0.465913,0.243753
23,45,-0.567232,-0.698132,-0.174533,-0.174533,-0.567604,-0.688438,-0.143472,-0.190783,0.0371564,-0.271412,-0.465913,0.243753
23,45,-0.567232,-0.698132,-0.174533,-0.174533,-0.567604,-0.688438,-0.143472,-0.190783,0.0371564,-0.271412,-0.465913,0.243753
23,45,-0.567232,-0.698132,-0.174533,-0.174533,-0.567604,-0.688438,-0.143472,-0.190783,0.0371564,-0.271412,-0.465913,0.243753
23,45,-0.567232,-0.698132,-0.174533,-0.174533,-0.567604,-0.688438,-0.143472,-0.190783,0.0371564,-0.271412,-0.465913,0.243753
23,45,-0.567232,-0.698132,-0.174533,-0.174533,-0.567604,-0.688438,-0.143472,-0.190783,0.0371564,-0.271412,-0.465913,0.243753
23,45,-0.567232,-0.698132,-0.174533,-0.174533,-0.567604,-0.688438,-0.143472,-0.190783,0.0371564,-0.271412,-0.465913,0.243753
23,45,-0.567232,-0.698132,-0.174533,-0.174533,-0.567604,-0.688438,-0.143472,-0.190783,0.0371564,-0.271412,-0.465913,0.243753
23,45,-0.567232,-0.698132,-0.174533,-0.174533,-0.567604,-0.688438,-0.143472,-0.190783,0.0371564,-0.271412,-0.465913,0.243753
23,45,-0.567232,-0.698132,-0.174533,-0.174533,-0.567604,-0.688438,-0.143472,-0.190783,0.0371564,-0.271412,-0.465913,0.243753
23,45,-0.567232,-0.698132,-0.174533,-0.174533,-0.567604,-0.688438,-0.143472,-0.190783,0.0371564,-0.271412,-0.465913,0.243753
23,45,-0.567232,-0.698132,-0.174533,-0.174533,-0.567604,-0.688438,-0.143472,-0.190783,0.0371564,-0.271412,-0.465913,0.243753
23,45,-0.567232,-0.698132,-0.174533,-0.174533,-0.567604,-0.688438,-0.143472,-0.190783,0.0371564,-0.271412,-0.465913,0.243753
23,45,-0.567232,-0.698132,-0.174533,-0.174533,-0.567604,-0.688438,-0.143472,-0.190783,0.0371564,-0.271412,-0.465913,0.243753
23,45,-0.567232,-0.698132,-0.174533,-0.174533,-0.567604,-0.688438,-0.143472,-0.190783,0.0371564,-0.271412,-0.465913,0.243753
23,45,-0.567232,-0.698132,-0.174533,-0.174533,-0.567604,-0.688438,-0.143472,-0.190783,0.0371564,-0.271412,-0.465913,0.243753
23,45,-0.567232,-0.698132,-0.174533,-0.174533,-0.567604,-0.688438,-0.143472,-0.190783,0.0371564,-0.271412,-0.465913,0.243753
23,45,-0.567232,-0.698132,-0.174533,-0.174533,-0.567604,-0.688438,-0.143472,-0.190783,0.0371564,-0.271412,-0.465913,0.243753
23,45,-0.567232,-0.698132,-0.174533,-0.174533,-0.567604,-0.688438,-0.143472,-0.190783,0.0371564,-0.271412,-0.465913,0.243753
23,45,-0.567232,-0.698132,-0.174533,-0.174533,-0.567604,-0.688438,-0.143472,-0.190783,0.0371564,-0.271412,-0.465913,0.243753
23,45,-0.567232,-0.698132,-0.174533,-0.174533,-0.567604,-0.688438,-0.143472,-0.190783,0.0371564,-0.271412,-0.465913,0.243753
23,45,-0.567232,-0.698132,-0.174533,-0.174533,-0.567604,-0.688438,-0.143472,-0.190783,0.0371564,-0.271412,-0.465913,0.243753
23,45,-0.567232,-0.698132,-0.174533,-0.174533,-0.567604,-0.688438,-0.143472,-0.190783,0.0371564,-0.271412,-0.465913,0.243753
23,45,-0.567232,-0.698132,-0.174533,-0.174533,-0.567604,-0.688438,-0.143472,-0.190783,0.0371564,-0.271412,-0.465913,0.243753
23,45,-0.567232,-0.698132,-0.174533,-0.174533,-0.567604,-0.688438,-0.143472,-0.190783,0.0371564,-0.271412,-0.465913,0.243753
23,45,-0.567232,-0.698132,-0.174533,-0.174533,-0.567604,-0.688438,-0.143472,-0.190783,0.0371564,-0.271412,-0.465913,0.243753
23,45,-0.567232,-0.698132,-0.174533,-0.174533,-0.567604,-0.688438,-0.143472,-0.190783,0.0371564,-0.271412,-0.465913,0.243753
23,45,-0.567232,-0.698132,-0.174533,-0.174533,-0.567604,-0.688438,-0.143472,-0.190783,0.0371564,-0.271412,-0.465913,0.243753
23,45,-0.567232,-0.698132,-0.174533,-0.174533,-0.567604,-0.688438,-0.143472,-0.190783,0.0371564,-0.271412,-0.465913,0.243753
23,45,-0.567232,-0.698132,-0.174533,-0.174533,-0.567604,-0.688438,-0.143472,-0.190783,0.0371564,-0.271412,-0.465913,0.243753
23,45,-0.567232,-0.698132,-0.174533,-0.174533,-0.567604,-0.688438,-0.143472,-0.190783,0.0371564,-0.271412,-0.465913,0.243753
23,45,-0.567232,-0.698132,-0.174533,-0.174533,-0.567604,-0.688438,-0.143472,-0.190783,0.0371564,-0.271412,-0.465913,0.243753
23,45,-0.567232,-0.698132,-0.174533,-0.174533,-0.567604,-0.688438,-0.143472,-0.190783,0.0371564,-0.271412,-0.465913,0.243753
23,45,-0.567232,-0.698132,-0.174533,-0.174533,-0.567604,-0.688438,-0.143472,-0.190783,0.0371564,-0.271412,-0.465913,0.243753
23,45,-0.567232,-0.698132,-0.174533,-0.174533,-0.567604,-0.688438,-0.143472,-0.190783,0.0371564,-0.271412,-0.465913,0.243753
23,45,-0.567232,-0.698132,-0.174533,-0.174533,-0.567604,-0.688438,-0.143472,-0.190783,0.0371564,-0.271412,-0.465913,0.243753
23,45,-0.567232,-0.698132,-0.174533,-0.174533,-0.567604,-0.688438,-0.143472,-0.190783,0.0371564,-0.271412,-0.465913,0.243753
23,45,-0.567232,-0.698132,-0.174533,-0.174533,-0.567604,-0.688438,-0.143472,-0.190783,0.0371564,-0.271412,-0.465913,0.243753
23,45,-0.567232,-0.698132,-0.174533,-0.174533,-0.567604,-0.688438,-0.143472,-0.190783,0.0371564,-0.271412,-0.465913,0.243753
23,45,-0.567232,-0.698132,-0.174533,-0.174533,-0.567604,-0.688438,-0.143472,-0.190783,0.0371564,-0.271412,-0.465913,0.243753
23,45,-0.567232,-0.698132,-0.174533,-0.174533,-0.567604,-0.688438,-0.143472,-0.190783,0.0371564,-0.271412,-0.465913,0.243753
23,45,-0.567232,-0.698132,-0.174533,-0.174533,-0.567604,-0.688438,-0.143472,-0.190783,0.0371564,-0.271412,-0.465913,0.243753
23,45,-0.567232,-0.698132,-0.174533,-0.174533,-0.567604,-0.688438,-0.143472,-0.190783,0.0371564,-0.271412,-0.465913,0.243753
23,45,-0.567232,-0.698132,-0.174533,-0.174533,-0.567604,-0.688438,-0.143472,-0.190783,0.0371564,-0.271412,-0.465913,0.243753
23,45,-0.567232,-0.698132,-0.174533,-0.174533,-0.567604,-0.688438,-0.143472,-0.190783,0.0371564,-0.271412,-0.465913,0.243753
23,45,-0.567232,-0.698132,-0.174533,-0.174533,-0.567604,-0.688438,-0.143472,-0.190783,0.0371564,-0.271412,-0.465913,0.243753
23,45,-0.567232,-0.698132,-0.174533,-0.174533,-0.567604,-0.688438,-0.143472,-0.190783,0.0371564,-0.271412,-0.465913,0.243753
23,45,-0.567232,-0.698132,-0.174533,-0.174533,-0.567604,-0.688438,-0.143472,-0.190783,0.0371564,-0.271412,-0.465913,0.243753
23,45,-0.567232,-0.698132,-0.174533,-0.174533,-0.567604,-0.688438,-0.143472,-0.190783,0.0371564,-0.271412,-0.465913,0.243753
23,45,-0.567232,-0.698132,-0.174533,-0.174533,-0.567604,-0.688438,-0.143472,-0.190783,0.0371564,-0.271412,-0.465913,0.243753
23,45,-0.567232,-0.698132,-0.174533,-0.174533,-0.567604,-0.688438,-0.143472,-0.190783,0.0371564,-0.271412,-0.465913,0.243753
23,45,-0.567232,-0.698132,-0.174533,-0.174533,-0.567604,-0.688438,-0.143472,-0.190783,0.0371564,-0.271412,-0.465913,0.243753
23,45,-0.567232,-0.698132,-0.174533,-0.174533,-0.567604,-0.688438,-0.143472,-0.190783,0.0371564,-0.271412,-0.465913,0.243753
23,45,-0.567232,-0.698132,-0.174533,-0.174533,-0.567604,-0.688438,-0.143472,-0.190783,0.0371564,-0.271412,-0.465913,0.243753
23,45,-0.567232,-0.698132,-0.174533,-0.174533,-0.567604,-0.688438,-0.143472,-0.190783,0.0371564,-0.271412,-0.465913,0.243753
23,45,-0.567232,-0.698132,-0.174533,-0.174533,-0.567604,-0.688438,-0.143472,-0.190783,0.0371564,-0.271412,-0.465913,0.243753
23,45,-0.567232,-0.698132,-0.174533,-0.174533,-0.567604,-0.688438,-0.143472,-0.190783,0.0371564,-0.271412,-0.465913,0.243753
23,45,-0.567232,-0.698132,-0.174533,-0.174533,-0.567604,-0.688438,-0.143472,-0.190783,0.0371564,-0.271412,-0.465913,0.243753
23,45,-0.567232,-0.698132,-0.174533,-0.174533,-0.567604,-0.688438,-0.143472,-0.190783,0.0371564,-0.271412,-0.465913,0.243753
23,45,-0.567232,-0.698132,-0.174533,-0.174533,-0.567604,-0.688438,-0.143472,-0.190783,0.0371564,-0.271412,-0.465913,0.243753
23,45,-0.567232,-0.698132,-0.174533,-0.174533,-0.567604,-0.688438,-0.143472,-0.190783,0.0371564,-0.271412,-0.465913,0.243753
23,45,-0.567232,-0.698132,-0.174533,-0.174533,-0.567604,-0.688438,-0.143472,-0.190783,0.0371564,-0.271412,-0.465913,0.243753
23,45,-0.567232,-0.698132,-0.174533,-0.174533,-0.567604,-0.688438,-0.143472,-0.190783,0.0371564,-0.271412,-0.465913,0.243753
23,45,-0.567232,-0.698132,-0.174533,-0.174533,-0.567604,-0.688438,-0.143472,-0.190783,0.0371564,-0.271412,-0.465913,0.243753
23,45,-0.567232,-0.698132,-0.174533,-0.174533,-0.567604,-0.688438,-0.143472,-0.190783,0.0371564,-0.271412,-0.465913,0.243753
23,45,-0.567232,-0.698132,-0.174533,-0.174533,-0.567604,-0.688438,-0.143472,-0.190783,0.0371564,-0.271412,-0.465913,0.243753
23,45,-0.567232,-0.698132,-0.174533,-0.174533,-0.567604,-0.688438,-0.143472,-0.190783,0.0371564,-0.271412,-0.465913,0.243753
23,45,-0.567232,-0.698132,-0.174533,-0.174533,-0.567604,-0.688438,-0.143472,-0.190783,0.0371564,-0.271412,-0.465913,0.243753
23,45,-0.567232,-0.698132,-0.174533,-0.174533,-0.567604,-0.688438,-0.143472,-0.190783,0.0371564,-0.271412,-0.465913,0.243753
23,45,-0.567232,-0.698132,-0.174533,-0.174533,-0.567604,-0.688438,-0.143472,-0.190783,0.0371564,-0.271412,-0.465913,0.243753
23,45,-0.567232,-0.698132,-0.174533,-0.174533,-0.567604,-0.688438,-0.143472,-0.190783,0.0371564,-0.271412,-0.465913,0.243753
23,45,-0.567232,-0.698132,-0.174533,-0.174533,-0.567604,-0.688438,-0.143472,-0.190783,0.0371564,-0.271412,-0.465913,0.243753
23,45,-0.567232,-0.698132,-0.174533,-0.174533,-0.567604,-0.688438,-0.143472,-0.190783,0.0371564,-0.271412,-0.465913,0.243753
23,45,-0.567232,-0.698132,-0.174533,-0.174533,-0.567604,-0.688438,-0.143472,-0.190783,0.0371564,-0.271412,-0.465913,0.243753
23,45,-0.567232,-0.698132,-0.174533,-0.174533,-0.567604,-0.688438,-0.143472,-0.190783,0.0371564,-0.271412,-0.465913,0.243753
23,45,-0.567232,-0.698132,-0.174533,-0.174533,-0.567604,-0.688438,-0.143472,-0.190783,0.0371564,-0.271412,-0.465913,0.243753
23,45,-0.567232,-0.698132,-0.174533,-0.174533,-0.567604,-0.688438,-0.143472,-0.190783,0.0371564,-0.271412,-0.465913,0.243753
23,45,-0.567232,-0.698132,-0.174533,-0.174533,-0.567604,-0.688438,-0.143472,-0.190783,0.0371564,-0.271412,-0.465913,0.243753
23,45,-0.567232,-0.698132,-0.174533,-0.174533,-0.567604,-0.688438,-0.143472,-0.190783,0.0371564,-0.271412,-0.465913,0.243753
23,45,-0.567232,-0.698132,-0.174533,-0.174533,-0.567604,-0.688438,-0.143472,-0.190783,0.0371564,-0.271412,-0.465913,0.243753
23,45,-0.567232,-0.698132,-0.174533,-0.174533,-0.567604,-0.688438,-0.143472,-0.190783,0.0371564,-0.271412,-0.465913,0.243753
23,45,-0.567232,-0.698132,-0.174533,-0.174533,-0.567604,-0.688438,-0.143472,-0.190783,0.0371564,-0.271412,-0.465913,0.243753
23,45,-0.567232,-0.698132,-0.174533,-0.174533,-0.567604,-0.688438,-0.143472,-0.190783,0.0371564,-0.271412,-0.465913,0.243753
23,45,-0.567232,-0.698132,-0.174533,-0.174533,-0.567604,-0.688438,-0.143472,-0.190783,0.0371564,-0.271412,-0.465913,0.243753
23,45,-0.567232,-0.698132,-0.174533,-0.174533,-0.567604,-0.688438,-0.143472,-0.190783,0.0371564,-0.271412,-0.465913,0.243753
23,45,-0.567232,-0.698132,-0.174533,-0.174533,-0.567604,-0.688438,-0.143472,-0.190783,0.0371564,-0.271412,-0.465913,0.243753
23,45,-0.567232,-0.698132,-0.174533,-0.174533,-0.567604,-0.688438,-0.143472,-0.190783,0.0371564,-0.271412,-0.465913,0.243753
23,45,-0.567232,-0.698132,-0.174533,-0.174533,-0.567604,-0.688438,-0.143472,-0.190783,0.0371564,-0.271412,-0.465913,0.243753
23,45,-0.567232,-0.698132,-0.174533,-0.174533,-0.567604,-0.688438,-0.143472,-0.190783,0.0371564,-0.271412,-0.465913,0.243753
23,45,-0.567232,-0.698132,-0.174533,-0.174533,-0.567604,-0.688438,-0.143472,-0.190783,0.0371564,-0.271412,-0.465913,0.243753
23,45,-0.567232,-0.698132,-0.174533,-0.174533,-0.567604,-0.688438,-0.143472,-0.190783,0.0371564,-0.271412,-0.465913,0.243753
23,45,-0.567232,-0.698132,-0.174533,-0.174533,-0.567604,-0.688438,-0.143472,-0.190783,0.0371564,-0.271412,-0.465913,0.243753
23,45,-0.567232,-0.698132,-0.174533,-0.174533,-0.567604,-0.688438,-0.143472,-0.190783,0.0371564,-0.271412,-0.465913,0.243753
23,45,-0.567232,-0.698132,-0.174533,-0.174533,-0.567604,-0.688438,-0.143472,-0.190783,0.0371564,-0.271412,-0.465913,0.243753
23,45,-0.567232,-0.698132,-0.174533,-0.174533,-0.567604,-0.688438,-0.143472,-0.190783,0.0371564,-0.271412,-0.465913,0.243753
23,45,-0.567232,-0.698132,-0.174533,-0.174533,-0.567604,-0.688438,-0.143472,-0.190783,0.0371564,-0.271412,-0.465913,0.243753
23,45,-0.567232,-0.698132,-0.174533,-0.174533,-0.567604,-0.688438,-0.143472,-0.190783,0.0371564,-0.271412,-0.465913,0.243753
23,45,-0.567232,-0.698132,-0.174533,-0.174533,-0.567604,-0.688438,-0.143472,-0.190783,0.0371564,-0.271412,-0.465913,0.243753
23,45,-0.567232,-0.698132,-0.174533,-0.174533,-0.567604,-0.688438,-0.143472,-0.190783,0.0371564,-0.271412,-0.465913,0.243753
23,45,-0.567232,-0.698132,-0.174533,-0.174533,-0.567604,-0.688438,-0.143472,-0.190783,0.0371564,-0.271412,-0.465913,0.243753
23,45,-0.567232,-0.698132,-0.174533,-0.174533,-0.567604,-0.688438,-0.143472,-0.190783,0.0371564,-0.271412,-0.465913,0.243753
23,45,-0.567232,-0.698132,-0.174533,-0.174533,-0.567604,-0.688438,-0.143472,-0.190783,0.0371564,-0.271412,-0.465913,0.243753
23,45,-0.567232,-0.698132,-0.174533,-0.174533,-0.567604,-0.688438,-0.143472,-0.190783,0.0371564,-0.271412,-0.465913,0.243753
23,45,-0.567232,-0.698132,-0.174533,-0.174533,-0.567604,-0.688438,-0.143472,-0.190783,0.0371564,-0.271412,-0.465913,0.243753
23,45,-0.567232,-0.698132,-0.174533,-0.174533,-0.567604,-0.688438,-0.143472,-0.190783,0.0371564,-0.271412,-0.465913,0.243753
23,45,-0.567232,-0.698132,-0.174533,-0.174533,-0.567604,-0.688438,-0.143472,-0.190783,0.0371564,-0.271412,-0.465913,0.243753
23,45,-0.567232,-0.698132,-0.174533,-0.174533,-0.567604,-0.688438,-0.143472,-0.190783,0.0371564,-0.271412,-0.465913,0.243753
23,45,-0.567232,-0.698132,-0.174533,-0.174533,-0.567604,-0.688438,-0.143472,-0.190783,0.0371564,-0.271412,-0.465913,0.243753
23,45,-0.567232,-0.698132,-0.174533,-0.174533,-0.567604,-0.688438,-0.143472,-0.190783,0.0371564,-0.271412,-0.465913,0.243753
23,45,-0.567232,-0.698132,-0.174533,-0.174533,-0.567604,-0.688438,-0.143472,-0.190783,0.0371564,-0.271412,-0.465913,0.243753
23,45,-0.567232,-0.698132,-0.174533,-0.174533,-0.567604,-0.688438,-0.143472,-0.190783,0.0371564,-0.271412,-0.465913,0.243753
23,45,-0.567232,-0.698132,-0.174533,-0.174533,-0.567604,-0.688438,-0.143472,-0.190783,0.0371564,-0.271412,-0.465913,0.243753
23,45,-0.567232,-0.698132,-0.174533,-0.174533,-0.567604,-0.688438,-0.143472,-0.190783,0.0371564,-0.271412,-0.465913,0.243753
23,45,-0.567232,-0.698132,-0.174533,-0.174533,-0.567604,-0.688438,-0.143472,-0.190783,0.0371564,-0.271412,-0.465913,0.243753
23,45,-0.567232,-0.698132,-0.174533,-0.174533,-0.567604,-0.688438,-0.143472,-0.190783,0.0371564,-0.271412,-0.465913,0.243753
23,45,-0.567232,-0.698132,-0.174533,-0.174533,-0.567604,-0.688438,-0.143472,-0.190783,0.0371564,-0.271412,-0.465913,0.243753
23,45,-0.567232,-0.698132,-0.174533,-0.174533,-0.567604,-0.688438,-0.143472,-0.190783,0.0371564,-0.271412,-0.465913,0.243753
23,45,-0.567232,-0.698132,-0.174533,-0.174533,-0.567604,-0.688438,-0.143472,-0.190783,0.0371564,-0.271412,-0.465913,0.243753
23,45,-0.567232,-0.698132,-0.174533,-0.174533,-0.567604,-0.688438,-0.143472,-0.190783,0.0371564,-0.271412,-0.465913,0.243753
23,45,-0.567232,-0.698132,-0.174533,-0.174533,-0.567604,-0.688438,-0.143472,-0.190783,0.0371564,-0.271412,-0.465913,0.243753
23,45,-0.567232,-0.698132,-0.174533,-0.174533,-0.567604,-0.688438,-0.143472,-0.190783,0.0371564,-0.271412,-0.465913,0.243753
23,45,-0.567232,-0.698132,-0.174533,-0.174533,-0.567604,-0.688438,-0.143472,-0.190783,0.0371564,-0.271412,-0.465913,0.243753
23,45,-0.567232,-0.698132,-0.174533,-0.174533,-0.567604,-0.688438,-0.143472,-0.190783,0.0371564,-0.271412,-0.465913,0.243753
23,45,-0.567232,-0.698132,-0.174533,-0.174533,-0.567604,-0.688438,-0.143472,-0.190783,0.0371564,-0.271412,-0.465913,0.243753
23,45,-0.567232,-0.698132,-0.174533,-0.174533,-0.567604,-0.688438,-0.143472,-0.190783,0.0371564,-0.271412,-0.465913,0.243753
23,45,-0.567232,-0.698132,-0.174533,-0.174533,-0.567604,-0.688438,-0.143472,-0.190783,0.0371564,-0.271412,-0.465913,0.243753
23,45,-0.567232,-0.698132,-0.174533,-0.174533,-0.567604,-0.688438,-0.143472,-0.190783,0.0371564,-0.271412,-0.465913,0.243753
23,45,-0.567232,-0.698132,-0.174533,-0.174533,-0.567604,-0.688438,-0.143472,-0.190783,0.0371564,-0.271412,-0.465913,0.243753
23,45,-0.567232,-0.698132,-0.174533,-0.174533,-0.567604,-0.688438,-0.143472,-0.190783,0.0371564,-0.271412,-0.465913,0.243753
23,45,-0.567232,-0.698132,-0.174533,-0.174533,-0.567604,-0.688438,-0.143472,-0.190783,0.0371564,-0.271412,-0.465913,0.243753
23,45,-0.567232,-0.698132,-0.174533,-0.174533,-0.567604,-0.688438,-0.143472,-0.190783,0.0371564,-0.271412,-0.465913,0.243753
23,45,-0.567232,-0.698132,-0.174533,-0.174533,-0.567604,-0.688438,-0.143472,-0.190783,0.0371564,-0.271412,-0.465913,0.243753
23,45,-0.567232,-0.698132,-0.174533,-0.174533,-0.567604,-0.688438,-0.143472,-0.190783,0.0371564,-0.271412,-0.465913,0.243753
23,45,-0.567232,-0.698132,-0.174533,-0.174533,-0.567604,-0.688438,-0.143472,-0.190783,0.0371564,-0.271412,-0.465913,0.243753
23,45,-0.567232,-0.698132,-0.174533,-0.174533,-0.567604,-0.688438,-0.143472,-0.190783,0.0371564,-0.271412,-0.465913,0.243753
23,45,-0.567232,-0.698132,-0.174533,-0.174533,-0.567604,-0.688438,-0.143472,-0.190783,0.0371564,-0.271412,-0.465913,0.243753
23,45,-0.567232,-0.698132,-0.174533,-0.174533,-0.567604,-0.688438,-0.143472,-0.190783,0.0371564,-0.271412,-0.465913,0.243753
23,45,-0.567232,-0.698132,-0.174533,-0.174533,-0.567604,-0.688438,-0.143472,-0.190783,0.0371564,-0.271412,-0.465913,0.243753
23,45,-0.567232,-0.698132,-0.174533,-0.174533,-0.567604,-0.688438,-0.143472,-0.190783,0.0371564,-0.271412,-0.465913,0.243753
23,45,-0.567232,-0.698132,-0.174533,-0.174533,-0.567604,-0.688438,-0.143472,-0.190783,0.0371564,-0.271412,-0.465913,0.243753
23,45,-0.567232,-0.698132,-0.174533,-0.174533,-0.567604,-0.688438,-0.143472,-0.190783,0.0371564,-0.271412,-0.465913,0.243753
23,45,-0.567232,-0.698132,-0.174533,-0.174533,-0.567604,-0.688438,-0.143472,-0.190783,0.0371564,-0.271412,-0.465913,0.243753
23,45,-0.567232,-0.698132,-0.174533,-0.174533,-0.567604,-0.688438,-0.143472,-0.190783,0.0371564,-0.271412,-0.465913,0.243753
23,45,-0.567232,-0.698132,-0.174533,-0.174533,-0.567604,-0.688438,-0.143472,-0.190783,0.0371564,-0.271412,-0.465913,0.243753
23,45,-0.567232,-0.698132,-0.174533,-0.174533,-0.567604,-0.688438,-0.143472,-0.190783,0.0371564,-0.271412,-0.465913,0.243753
23,45,-0.567232,-0.698132,-0.174533,-0.174533,-0.567604,-0.688438,-0.143472,-0.190783,0.0371564,-0.271412,-0.465913,0.243753
23,45,-0.567232,-0.698132,-0.174533,-0.174533,-0.567604,-0.688438,-0.143472,-0.190783,0.0371564,-0.271412,-0.465913,0.243753
23,45,-0.567232,-0.698132,-0.174533,-0.174533,-0.567604,-0.688438,-0.143472,-0.190783,0.0371564,-0.271412,-0.465913,0.243753
23,45,-0.567232,-0.698132,-0.174533,-0.174533,-0.567604,-0.688438,-0.143472,-0.190783,0.0371564,-0.271412,-0.465913,0.243753
23,45,-0.567232,-0.698132,-0.174533,-0.174533,-0.567604,-0.688438,-0.143472,-0.190783,0.0371564,-0.271412,-0.465913,0.243753
23,45,-0.567232,-0.698132,-0.174533,-0.174533,-0.567604,-0.688438,-0.143472,-0.190783,0.0371564,-0.271412,-0.465913,0.243753
23,45,-0.567232,-0.698132,-0.174533,-0.174533,-0.567604,-0.688438,-0.143472,-0.190783,0.0371564,-0.271412,-0.465913,0.243753
23,45,-0.567232,-0.698132,-0.174533,-0.174533,-0.567604,-0.688438,-0.143472,-0.190783,0.0371564,-0.271412,-0.465913,0.243753
23,45,-0.567232,-0.698132,-0.174533,-0.174533,-0.567604,-0.688438,-0.143472,-0.190783,0.0371564,-0.271412,-0.465913,0.243753
23,45,-0.567232,-0.698132,-0.174533,-0.174533,-0.567604,-0.688438,-0.143472,-0.190783,0.0371564,-0.271412,-0.465913,0.243753
23,45,-0.567232,-0.698132,-0.174533,-0.174533,-0.567604,-0.688438,-0.143472,-0.190783,0.0371564,-0.271412,-0.465913,0.243753
23,45,-0.567232,-0.698132,-0.174533,-0.174533,-0.567604,-0.688438,-0.143472,-0.190783,0.0371564,-0.271412,-0.465913,0.243753
23,45,-0.567232,-0.698132,-0.174533,-0.174533,-0.567604,-0.688438,-0.143472,-0.190783,0.0371564,-0.271412,-0.465913,0.243753
23,45,-0.567232,-0.698132,-0.174533,-0.174533,-0.567604,-0.688438,-0.143472,-0.190783,0.0371564,-0.271412,-0.465913,0.243753
23,45,-0.567232,-0.698132,-0.174533,-0.174533,-0.567604,-0.688438,-0.143472,-0.190783,0.0371564,-0.271412,-0.465913,0.243753
23,45,-0.567232,-0.698132,-0.174533,-0.174533,-0.567604,-0.688438,-0.143472,-0.190783,0.0371564,-0.271412,-0.465913,0.243753
23,45,-0.567232,-0.698132,-0.174533,-0.174533,-0.567604,-0.688438,-0.143472,-0.190783,0.0371564,-0.271412,-0.465913,0.243753
23,45,-0.567232,-0.698132,-0.174533,-0.174533,-0.567604,-0.688438,-0.14347,-0.190724,0.0371564,-0.271412,-0.465942,0.242864
23,45,-0.567232,-0.698132,-0.174533,-0.174533,-0.567604,-0.688438,-0.14347,-0.190724,0.0371564,-0.271412,-0.465942,0.242864
23,45,-0.567232,-0.698132,-0.174533,-0.174533,-0.567604,-0.688438,-0.14347,-0.190724,0.0371564,-0.271412,-0.465942,0.242864
23,45,-0.567232,-0.698132,-0.174533,-0.174533,-0.567604,-0.688438,-0.14347,-0.190724,0.0371564,-0.271412,-0.465942,0.242864
23,45,-0.567232,-0.698132,-0.174533,-0.174533,-0.567604,-0.688438,-0.14347,-0.190724,0.0371564,-0.271412,-0.465942,0.242864
23,45,-0.567232,-0.698132,-0.174533,-0.174533,-0.567604,-0.688438,-0.14347,-0.190724,0.0371564,-0.271412,-0.465942,0.242864
23,45,-0.567232,-0.698132,-0.174533,-0.174533,-0.567604,-0.688438,-0.14347,-0.190724,0.0371564,-0.271412,-0.465942,0.242864
23,45,-0.567232,-0.698132,-0.174533,-0.174533,-0.567604,-0.688438,-0.14347,-0.190724,0.0371564,-0.271412,-0.465942,0.242864
23,45,-0.567232,-0.698132,-0.174533,-0.174533,-0.567604,-0.688438,-0.14347,-0.190724,0.0371564,-0.271412,-0.465942,0.242864
23,45,-0.567232,-0.698132,-0.174533,-0.174533,-0.567604,-0.688438,-0.14347,-0.190724,0.0371564,-0.271412,-0.465942,0.242864
23,45,-0.567232,-0.698132,-0.174533,-0.174533,-0.567604,-0.688438,-0.14347,-0.190724,0.0371564,-0.271412,-0.465942,0.242864
23,45,-0.567232,-0.698132,-0.174533,-0.174533,-0.567604,-0.688438,-0.14347,-0.190724,0.0371564,-0.271412,-0.465942,0.242864
23,45,-0.567232,-0.698132,-0.174533,-0.174533,-0.567604,-0.688438,-0.14347,-0.190724,0.0371564,-0.271412,-0.465942,0.242864
23,45,-0.567232,-0.698132,-0.174533,-0.174533,-0.567604,-0.688438,-0.14347,-0.190724,0.0371564,-0.271412,-0.465942,0.242864
23,45,-0.567232,-0.698132,-0.174533,-0.174533,-0.567604,-0.688438,-0.14347,-0.190724,0.0371564,-0.271412,-0.465942,0.242864
23,45,-0.567232,-0.698132,-0.174533,-0.174533,-0.567604,-0.688438,-0.14347,-0.190724,0.0371564,-0.271412,-0.465942,0.242864
23,45,-0.567232,-0.698132,-0.174533,-0.174533,-0.567604,-0.688438,-0.14347,-0.190724,0.0371564,-0.271412,-0.465942,0.242864
23,45,-0.567232,-0.698132,-0.174533,-0.174533,-0.567604,-0.688438,-0.14347,-0.190724,0.0371564,-0.271412,-0.465942,0.242864
23,45,-0.567232,-0.698132,-0.174533,-0.174533,-0.567604,-0.688438,-0.14347,-0.190724,0.0371564,-0.271412,-0.465942,0.242864
23,45,-0.567232,-0.698132,-0.174533,-0.174533,-0.567604,-0.688438,-0.14347,-0.190724,0.0371564,-0.271412,-0.465942,0.242864
23,45,-0.567232,-0.698132,-0.174533,-0.174533,-0.567604,-0.688438,-0.14347,-0.190724,0.0371564,-0.271412,-0.465942,0.242864
23,45,-0.567232,-0.698132,-0.174533,-0.174533,-0.567604,-0.688438,-0.14347,-0.190724,0.0371564,-0.271412,-0.465942,0.242864
23,45,-0.567232,-0.698132,-0.174533,-0.174533,-0.567604,-0.688438,-0.14347,-0.190724,0.0371564,-0.271412,-0.465942,0.242864
23,45,-0.567232,-0.698132,-0.174533,-0.174533,-0.567604,-0.688438,-0.14347,-0.190724,0.0371564,-0.271412,-0.465942,0.242864
23,45,-0.567232,-0.698132,-0.174533,-0.174533,-0.567604,-0.688438,-0.14347,-0.190724,0.0371564,-0.271412,-0.465942,0.242864
23,45,-0.567232,-0.698132,-0.174533,-0.174533,-0.567604,-0.688438,-0.14347,-0.190724,0.0371564,-0.271412,-0.465942,0.242864
23,45,-0.567232,-0.698132,-0.174533,-0.174533,-0.567604,-0.688438,-0.14347,-0.190724,0.0371564,-0.271412,-0.465942,0.242864
23,45,-0.567232,-0.698132,-0.174533,-0.174533,-0.567604,-0.688438,-0.14347,-0.190724,0.0371564,-0.271412,-0.465942,0.242864
23,45,-0.567232,-0.698132,-0.174533,-0.174533,-0.567604,-0.688438,-0.14347,-0.190724,0.0371564,-0.271412,-0.465942,0.242864
23,45,-0.567232,-0.698132,-0.174533,-0.174533,-0.567604,-0.688438,-0.14347,-0.190724,0.0371564,-0.271412,-0.465942,0.242864
23,45,-0.567232,-0.698132,-0.174533,-0.174533,-0.567604,-0.688438,-0.14347,-0.190724,0.0371564,-0.271412,-0.465942,0.242864
23,45,-0.567232,-0.698132,-0.174533,-0.174533,-0.567604,-0.688438,-0.14347,-0.190724,0.0371564,-0.271412,-0.465942,0.242864
23,45,-0.567232,-0.698132,-0.174533,-0.174533,-0.567604,-0.688438,-0.14347,-0.190724,0.0371564,-0.271412,-0.465942,0.242864
23,45,-0.567232,-0.698132,-0.174533,-0.174533,-0.567604,-0.688438,-0.14347,-0.190724,0.0371564,-0.271412,-0.465942,0.242864
23,45,-0.567232,-0.698132,-0.174533,-0.174533,-0.567604,-0.688438,-0.14347,-0.190724,0.0371564,-0.271412,-0.465942,0.242864
23,45,-0.567232,-0.698132,-0.174533,-0.174533,-0.567604,-0.688438,-0.14347,-0.190724,0.0371564,-0.271412,-0.465942,0.242864
23,45,-0.567232,-0.698132,-0.174533,-0.174533,-0.567604,-0.688438,-0.14347,-0.190724,0.0371564,-0.271412,-0.465942,0.242864
23,45,-0.567232,-0.698132,-0.174533,-0.174533,-0.567604,-0.688438,-0.14347,-0.190724,0.0371564,-0.271412,-0.465942,0.242864
23,45,-0.567232,-0.698132,-0.174533,-0.174533,-0.567604,-0.688438,-0.14347,-0.190724,0.0371564,-0.271412,-0.465942,0.242864
23,45,-0.567232,-0.698132,-0.174533,-0.174533,-0.567604,-0.688438,-0.14347,-0.190724,0.0371564,-0.271412,-0.465942,0.242864
23,45,-0.567232,-0.698132,-0.174533,-0.174533,-0.567604,-0.688438,-0.14347,-0.190724,0.0371564,-0.271412,-0.465942,0.242864
23,45,-0.567232,-0.698132,-0.174533,-0.174533,-0.567604,-0.688438,-0.14347,-0.190724,0.0371564,-0.271412,-0.465942,0.242864
23,45,-0.567232,-0.698132,-0.174533,-0.174533,-0.567604,-0.688438,-0.14347,-0.190724,0.0371564,-0.271412,-0.465942,0.242864
23,45,-0.567232,-0.698132,-0.174533,-0.174533,-0.567604,-0.688438,-0.14347,-0.190724,0.0371564,-0.271412,-0.465942,0.242864
23,45,-0.567232,-0.698132,-0.174533,-0.174533,-0.567604,-0.688438,-0.14347,-0.190724,0.0371564,-0.271412,-0.465942,0.242864
23,45,-0.567232,-0.698132,-0.174533,-0.174533,-0.567604,-0.688438,-0.14347,-0.190724,0.0371564,-0.271412,-0.465942,0.242864
23,45,-0.567232,-0.698132,-0.174533,-0.174533,-0.567604,-0.688438,-0.14347,-0.190724,0.0371564,-0.271412,-0.465942,0.242864
23,45,-0.567232,-0.698132,-0.174533,-0.174533,-0.567604,-0.688438,-0.14347,-0.190724,0.0371564,-0.271412,-0.465942,0.242864
23,45,-0.567232,-0.698132,-0.174533,-0.174533,-0.567604,-0.688438,-0.14347,-0.190724,0.0371564,-0.271412,-0.465942,0.242864
23,45,-0.567232,-0.698132,-0.174533,-0.174533,-0.567604,-0.688438,-0.14347,-0.190724,0.0371564,-0.271412,-0.465942,0.242864
23,45,-0.567232,-0.698132,-0.174533,-0.174533,-0.567604,-0.688438,-0.14347,-0.190724,0.0371564,-0.271412,-0.465942,0.242864
23,45,-0.567232,-0.698132,-0.174533,-0.174533,-0.567604,-0.688438,-0.14347,-0.190724,0.0371564,-0.271412,-0.465942,0.242864
23,45,-0.567232,-0.698132,-0.174533,-0.174533,-0.567604,-0.688438,-0.14347,-0.190724,0.0371564,-0.271412,-0.465942,0.242864
23,45,-0.567232,-0.698132,-0.174533,-0.174533,-0.567604,-0.688438,-0.14347,-0.190724,0.0371564,-0.271412,-0.465942,0.242864
23,45,-0.567232,-0.698132,-0.174533,-0.174533,-0.567604,-0.688438,-0.14347,-0.190724,0.0371564,-0.271412,-0.465942,0.242864
23,45,-0.567232,-0.698132,-0.174533,-0.174533,-0.567604,-0.688438,-0.14347,-0.190724,0.0371564,-0.271412,-0.465942,0.242864
23,45,-0.567232,-0.698132,-0.174533,-0.174533,-0.567604,-0.688438,-0.14347,-0.190724,0.0371564,-0.271412,-0.465942,0.242864
23,45,-0.567232,-0.698132,-0.174533,-0.174533,-0.567604,-0.688438,-0.14347,-0.190724,0.0371564,-0.271412,-0.465942,0.242864
23,45,-0.567232,-0.698132,-0.174533,-0.174533,-0.567604,-0.688438,-0.14347,-0.190724,0.0371564,-0.271412,-0.465942,0.242864
23,45,-0.567232,-0.698132,-0.174533,-0.174533,-0.567604,-0.688438,-0.14347,-0.190724,0.0371564,-0.271412,-0.465942,0.242864
23,45,-0.567232,-0.698132,-0.174533,-0.174533,-0.567604,-0.688438,-0.14347,-0.190724,0.0371564,-0.271412,-0.465942,0.242864
23,45,-0.567232,-0.698132,-0.174533,-0.174533,-0.567604,-0.688438,-0.14347,-0.190724,0.0371564,-0.271412,-0.465942,0.242864
23,45,-0.567232,-0.698132,-0.174533,-0.174533,-0.567604,-0.688438,-0.14347,-0.190724,0.0371564,-0.271412,-0.465942,0.242864
23,45,-0.567232,-0.698132,-0.174533,-0.174533,-0.567604,-0.688438,-0.14347,-0.190724,0.0371564,-0.271412,-0.465942,0.242864
23,45,-0.567232,-0.698132,-0.174533,-0.174533,-0.567604,-0.688438,-0.14347,-0.190724,0.0371564,-0.271412,-0.465942,0.242864
23,45,-0.567232,-0.698132,-0.174533,-0.174533,-0.567604,-0.688438,-0.14347,-0.190724,0.0371564,-0.271412,-0.465942,0.242864
23,45,-0.567232,-0.698132,-0.174533,-0.174533,-0.567604,-0.688438,-0.14347,-0.190724,0.0371564,-0.271412,-0.465942,0.242864
23,45,-0.567232,-0.698132,-0.174533,-0.174533,-0.567604,-0.688438,-0.14347,-0.190724,0.0371564,-0.271412,-0.465942,0.242864
23,45,-0.567232,-0.698132,-0.174533,-0.174533,-0.567604,-0.688438,-0.14347,-0.190724,0.0371564,-0.271412,-0.465942,0.242864
23,45,-0.567232,-0.698132,-0.174533,-0.174533,-0.567604,-0.688438,-0.14347,-0.190724,0.0371564,-0.271412,-0.465942,0.242864
23,45,-0.567232,-0.698132,-0.174533,-0.174533,-0.567604,-0.688438,-0.14347,-0.190724,0.0371564,-0.271412,-0.465942,0.242864
23,45,-0.567232,-0.698132,-0.174533,-0.174533,-0.567604,-0.688438,-0.14347,-0.190724,0.0371564,-0.271412,-0.465942,0.242864
23,45,-0.567232,-0.698132,-0.174533,-0.174533,-0.567604,-0.688438,-0.14347,-0.190724,0.0371564,-0.271412,-0.465942,0.242864
23,45,-0.567232,-0.698132,-0.174533,-0.174533,-0.567604,-0.688438,-0.14347,-0.190724,0.0371564,-0.271412,-0.465942,0.242864
23,45,-0.567232,-0.698132,-0.174533,-0.174533,-0.567604,-0.688438,-0.14347,-0.190724,0.0371564,-0.271412,-0.465942,0.242864
23,45,-0.567232,-0.698132,-0.174533,-0.174533,-0.567604,-0.688438,-0.14347,-0.190724,0.0371564,-0.271412,-0.465942,0.242864
23,45,-0.567232,-0.698132,-0.174533,-0.174533,-0.567604,-0.688438,-0.14347,-0.190724,0.0371564,-0.271412,-0.465942,0.242864
23,45,-0.567232,-0.698132,-0.174533,-0.174533,-0.567604,-0.688438,-0.14347,-0.190724,0.0371564,-0.271412,-0.465942,0.242864
23,45,-0.567232,-0.698132,-0.174533,-0.174533,-0.567604,-0.688438,-0.14347,-0.190724,0.0371564,-0.271412,-0.465942,0.242864
23,45,-0.567232,-0.698132,-0.174533,-0.174533,-0.567604,-0.688438,-0.14347,-0.190724,0.0371564,-0.271412,-0.465942,0.242864
23,45,-0.567232,-0.698132,-0.174533,-0.174533,-0.567604,-0.688438,-0.14347,-0.190724,0.0371564,-0.271412,-0.465942,0.242864
23,45,-0.567232,-0.698132,-0.174533,-0.174533,-0.567604,-0.688438,-0.14347,-0.190724,0.0371564,-0.271412,-0.465942,0.242864
23,45,-0.567232,-0.698132,-0.174533,-0.174533,-0.567604,-0.688438,-0.14347,-0.190724,0.0371564,-0.271412,-0.465942,0.242864
23,45,-0.567232,-0.698132,-0.174533,-0.174533,-0.567604,-0.688438,-0.14347,-0.190724,0.0371564,-0.271412,-0.465942,0.242864
23,45,-0.567232,-0.698132,-0.174533,-0.174533,-0.567604,-0.688438,-0.14347,-0.190724,0.0371564,-0.271412,-0.465942,0.242864
23,45,-0.567232,-0.698132,-0.174533,-0.174533,-0.567604,-0.688438,-0.14347,-0.190724,0.0371564,-0.271412,-0.465942,0.242864
23,45,-0.567232,-0.698132,-0.174533,-0.174533,-0.567604,-0.688438,-0.14347,-0.190724,0.0371564,-0.271412,-0.465942,0.242864
23,45,-0.567232,-0.698132,-0.174533,-0.174533,-0.567604,-0.688438,-0.14347,-0.190724,0.0371564,-0.271412,-0.465942,0.242864
23,45,-0.567232,-0.698132,-0.174533,-0.174533,-0.567604,-0.688438,-0.14347,-0.190724,0.0371564,-0.271412,-0.465942,0.242864
23,45,-0.567232,-0.698132,-0.174533,-0.174533,-0.567604,-0.688438,-0.14347,-0.190724,0.0371564,-0.271412,-0.465942,0.242864
23,45,-0.567232,-0.698132,-0.174533,-0.174533,-0.567604,-0.688438,-0.14347,-0.190724,0.0371564,-0.271412,-0.465942,0.242864
23,45,-0.567232,-0.698132,-0.174533,-0.174533,-0.567604,-0.688438,-0.14347,-0.190724,0.0371564,-0.271412,-0.465942,0.242864
23,45,-0.567232,-0.698132,-0.174533,-0.174533,-0.567604,-0.688438,-0.14347,-0.190724,0.0371564,-0.271412,-0.465942,0.242864
23,45,-0.567232,-0.698132,-0.174533,-0.174533,-0.567604,-0.688438,-0.14347,-0.190724,0.0371564,-0.271412,-0.465942,0.242864
23,45,-0.567232,-0.698132,-0.174533,-0.174533,-0.567604,-0.688438,-0.14347,-0.190724,0.0371564,-0.271412,-0.465942,0.242864
23,45,-0.567232,-0.698132,-0.174533,-0.174533,-0.567604,-0.688438,-0.14347,-0.190724,0.0371564,-0.271412,-0.465942,0.242864
23,45,-0.567232,-0.698132,-0.174533,-0.174533,-0.567604,-0.688438,-0.14347,-0.190724,0.0371564,-0.271412,-0.465942,0.242864
23,45,-0.567232,-0.698132,-0.174533,-0.174533,-0.567604,-0.688438,-0.14347,-0.190724,0.0371564,-0.271412,-0.465942,0.242864
23,45,-0.567232,-0.698132,-0.174533,-0.174533,-0.567604,-0.688438,-0.14347,-0.190724,0.0371564,-0.271412,-0.465942,0.242864
23,45,-0.567232,-0.698132,-0.174533,-0.174533,-0.567604,-0.688438,-0.14347,-0.190724,0.0371564,-0.271412,-0.465942,0.242864
23,45,-0.567232,-0.698132,-0.174533,-0.174533,-0.567604,-0.688438,-0.14347,-0.190724,0.0371564,-0.271412,-0.465942,0.242864
23,45,-0.567232,-0.698132,-0.174533,-0.174533,-0.567604,-0.688438,-0.14347,-0.190724,0.0371564,-0.271412,-0.465942,0.242864
23,45,-0.567232,-0.698132,-0.174533,-0.174533,-0.567604,-0.688438,-0.14347,-0.190724,0.0371564,-0.271412,-0.465942,0.242864
23,45,-0.567232,-0.698132,-0.174533,-0.174533,-0.567604,-0.688438,-0.14347,-0.190724,0.0371564,-0.271412,-0.465942,0.242864
23,45,-0.567232,-0.698132,-0.174533,-0.174533,-0.567604,-0.688438,-0.14347,-0.190724,0.0371564,-0.271412,-0.465942,0.242864
23,45,-0.567232,-0.698132,-0.174533,-0.174533,-0.567604,-0.688489,-0.14347,-0.190724,0.0371564,-0.269988,-0.465942,0.242864
23,45,-0.567232,-0.698132,-0.174533,-0.174533,-0.567604,-0.688489,-0.14347,-0.190724,0.0371564,-0.269988,-0.465942,0.242864
23,45,-0.567232,-0.698132,-0.174533,-0.174533,-0.567604,-0.688489,-0.14347,-0.190724,0.0371564,-0.269988,-0.465942,0.242864
23,45,-0.567232,-0.698132,-0.174533,-0.174533,-0.567604,-0.688489,-0.14347,-0.190724,0.0371564,-0.269988,-0.465942,0.242864
23,45,-0.567232,-0.698132,-0.174533,-0.174533,-0.567604,-0.688489,-0.14347,-0.190724,0.0371564,-0.269988,-0.465942,0.242864
23,45,-0.567232,-0.698132,-0.174533,-0.174533,-0.567604,-0.688489,-0.14347,-0.190724,0.0371564,-0.269988,-0.465942,0.242864
23,45,-0.567232,-0.698132,-0.174533,-0.174533,-0.567604,-0.688489,-0.14347,-0.190724,0.0371564,-0.269988,-0.465942,0.242864
23,45,-0.567232,-0.698132,-0.174533,-0.174533,-0.567604,-0.688489,-0.14347,-0.190724,0.0371564,-0.269988,-0.465942,0.242864
23,45,-0.567232,-0.698132,-0.174533,-0.174533,-0.567604,-0.688489,-0.14347,-0.190724,0.0371564,-0.269988,-0.465942,0.242864
23,45,-0.567232,-0.698132,-0.174533,-0.174533,-0.567604,-0.688489,-0.14347,-0.190724,0.0371564,-0.269988,-0.465942,0.242864
23,45,-0.567232,-0.698132,-0.174533,-0.174533,-0.567604,-0.688489,-0.14347,-0.190724,0.0371564,-0.269988,-0.465942,0.242864
23,45,-0.567232,-0.698132,-0.174533,-0.174533,-0.567604,-0.688489,-0.14347,-0.190724,0.0371564,-0.269988,-0.465942,0.242864
23,45,-0.567232,-0.698132,-0.174533,-0.174533,-0.567604,-0.688489,-0.14347,-0.190724,0.0371564,-0.269988,-0.465942,0.242864
23,45,-0.567232,-0.698132,-0.174533,-0.174533,-0.567604,-0.688489,-0.14347,-0.190724,0.0371564,-0.269988,-0.465942,0.242864
23,45,-0.567232,-0.698132,-0.174533,-0.174533,-0.567604,-0.688489,-0.14347,-0.190724,0.0371564,-0.269988,-0.465942,0.242864
23,45,-0.567232,-0.698132,-0.174533,-0.174533,-0.567604,-0.688489,-0.14347,-0.190724,0.0371564,-0.269988,-0.465942,0.242864
23,45,-0.567232,-0.698132,-0.174533,-0.174533,-0.567604,-0.688489,-0.14347,-0.190724,0.0371564,-0.269988,-0.465942,0.242864
23,45,-0.567232,-0.698132,-0.174533,-0.174533,-0.567604,-0.688489,-0.14347,-0.190724,0.0371564,-0.269988,-0.465942,0.242864
23,45,-0.567232,-0.698132,-0.174533,-0.174533,-0.567604,-0.688489,-0.14347,-0.190724,0.0371564,-0.269988,-0.465942,0.242864
23,45,-0.567232,-0.698132,-0.174533,-0.174533,-0.567604,-0.688489,-0.14347,-0.190724,0.0371564,-0.269988,-0.465942,0.242864
23,45,-0.567232,-0.698132,-0.174533,-0.174533,-0.567604,-0.688489,-0.14347,-0.190724,0.0371564,-0.269988,-0.465942,0.242864
23,45,-0.567232,-0.698132,-0.174533,-0.174533,-0.567604,-0.688489,-0.14347,-0.190724,0.0371564,-0.269988,-0.465942,0.242864
23,45,-0.567232,-0.698132,-0.174533,-0.174533,-0.567604,-0.688489,-0.14347,-0.190724,0.0371564,-0.269988,-0.465942,0.242864
23,45,-0.567232,-0.698132,-0.174533,-0.174533,-0.567604,-0.688489,-0.14347,-0.190724,0.0371564,-0.269988,-0.465942,0.242864
23,45,-0.567232,-0.698132,-0.174533,-0.174533,-0.567604,-0.688489,-0.14347,-0.190724,0.0371564,-0.269988,-0.465942,0.242864
23,45,-0.567232,-0.698132,-0.174533,-0.174533,-0.567604,-0.688489,-0.14347,-0.190724,0.0371564,-0.269988,-0.465942,0.242864
23,45,-0.567232,-0.698132,-0.174533,-0.174533,-0.567604,-0.688489,-0.14347,-0.190724,0.0371564,-0.269988,-0.465942,0.242864
23,45,-0.567232,-0.698132,-0.174533,-0.174533,-0.567604,-0.688489,-0.14347,-0.190724,0.0371564,-0.269988,-0.465942,0.242864
23,45,-0.567232,-0.698132,-0.174533,-0.174533,-0.567604,-0.688489,-0.14347,-0.190724,0.0371564,-0.269988,-0.465942,0.242864
23,45,-0.567232,-0.698132,-0.174533,-0.174533,-0.567604,-0.688489,-0.14347,-0.190724,0.0371564,-0.269988,-0.465942,0.242864
23,45,-0.567232,-0.698132,-0.174533,-0.174533,-0.567604,-0.688489,-0.14347,-0.190724,0.0371564,-0.269988,-0.465942,0.242864
23,45,-0.567232,-0.698132,-0.174533,-0.174533,-0.567604,-0.688489,-0.14347,-0.190724,0.0371564,-0.269988,-0.465942,0.242864
23,45,-0.567232,-0.698132,-0.174533,-0.174533,-0.567604,-0.688489,-0.14347,-0.190724,0.0371564,-0.269988,-0.465942,0.242864
23,45,-0.567232,-0.698132,-0.174533,-0.174533,-0.567604,-0.688489,-0.14347,-0.190724,0.0371564,-0.269988,-0.465942,0.242864
23,45,-0.567232,-0.698132,-0.174533,-0.174533,-0.567604,-0.688489,-0.14347,-0.190724,0.0371564,-0.269988,-0.465942,0.242864
23,45,-0.567232,-0.698132,-0.174533,-0.174533,-0.567604,-0.688489,-0.14347,-0.190724,0.0371564,-0.269988,-0.465942,0.242864
23,45,-0.567232,-0.698132,-0.174533,-0.174533,-0.567604,-0.688489,-0.14347,-0.190724,0.0371564,-0.269988,-0.465942,0.242864
23,45,-0.567232,-0.698132,-0.174533,-0.174533,-0.567604,-0.688489,-0.14347,-0.190724,0.0371564,-0.269988,-0.465942,0.242864
23,45,-0.567232,-0.698132,-0.174533,-0.174533,-0.567604,-0.688489,-0.14347,-0.190724,0.0371564,-0.269988,-0.465942,0.242864
23,45,-0.567232,-0.698132,-0.174533,-0.174533,-0.567604,-0.688489,-0.14347,-0.190724,0.0371564,-0.269988,-0.465942,0.242864
23,45,-0.567232,-0.698132,-0.174533,-0.174533,-0.567604,-0.688489,-0.14347,-0.190724,0.0371564,-0.269988,-0.465942,0.242864
23,45,-0.567232,-0.698132,-0.174533,-0.174533,-0.567604,-0.688489,-0.14347,-0.190724,0.0371564,-0.269988,-0.465942,0.242864
23,45,-0.567232,-0.698132,-0.174533,-0.174533,-0.567604,-0.688489,-0.14347,-0.190724,0.0371564,-0.269988,-0.465942,0.242864
23,45,-0.567232,-0.698132,-0.174533,-0.174533,-0.567604,-0.688489,-0.14347,-0.190724,0.0371564,-0.269988,-0.465942,0.242864
23,45,-0.567232,-0.698132,-0.174533,-0.174533,-0.567604,-0.688489,-0.14347,-0.190724,0.0371564,-0.269988,-0.465942,0.242864
23,45,-0.567232,-0.698132,-0.174533,-0.174533,-0.567604,-0.688489,-0.14347,-0.190724,0.0371564,-0.269988,-0.465942,0.242864
23,45,-0.567232,-0.698132,-0.174533,-0.174533,-0.567604,-0.688489,-0.14347,-0.190724,0.0371564,-0.269988,-0.465942,0.242864
23,45,-0.567232,-0.698132,-0.174533,-0.174533,-0.567604,-0.688489,-0.14347,-0.190724,0.0371564,-0.269988,-0.465942,0.242864
23,45,-0.567232,-0.698132,-0.174533,-0.174533,-0.567604,-0.688489,-0.14347,-0.190724,0.0371564,-0.269988,-0.465942,0.242864
23,45,-0.567232,-0.698132,-0.174533,-0.174533,-0.567604,-0.688489,-0.14347,-0.190724,0.0371564,-0.269988,-0.465942,0.242864
23,45,-0.567232,-0.698132,-0.174533,-0.174533,-0.567604,-0.688489,-0.14347,-0.190724,0.0371564,-0.269988,-0.465942,0.242864
23,45,-0.567232,-0.698132,-0.174533,-0.174533,-0.567604,-0.688489,-0.14347,-0.190724,0.0371564,-0.269988,-0.465942,0.242864
23,45,-0.567232,-0.698132,-0.174533,-0.174533,-0.567604,-0.688489,-0.14347,-0.190724,0.0371564,-0.269988,-0.465942,0.242864
23,45,-0.567232,-0.698132,-0.174533,-0.174533,-0.567604,-0.688489,-0.14347,-0.190724,0.0371564,-0.269988,-0.465942,0.242864
23,45,-0.567232,-0.698132,-0.174533,-0.174533,-0.567604,-0.688489,-0.14347,-0.190724,0.0371564,-0.269988,-0.465942,0.242864
23,45,-0.567232,-0.698132,-0.174533,-0.174533,-0.567604,-0.688489,-0.14347,-0.190724,0.0371564,-0.269988,-0.465942,0.242864
23,45,-0.567232,-0.698132,-0.174533,-0.174533,-0.567604,-0.688489,-0.14347,-0.190724,0.0371564,-0.269988,-0.465942,0.242864
23,45,-0.567232,-0.698132,-0.174533,-0.174533,-0.567604,-0.688489,-0.14347,-0.190724,0.0371564,-0.269988,-0.465942,0.242864
23,45,-0.567232,-0.698132,-0.174533,-0.174533,-0.567604,-0.688489,-0.14347,-0.190724,0.0371564,-0.269988,-0.465942,0.242864
23,45,-0.567232,-0.698132,-0.174533,-0.174533,-0.567604,-0.688489,-0.14347,-0.190724,0.0371564,-0.269988,-0.465942,0.242864
23,45,-0.567232,-0.698132,-0.174533,-0.174533,-0.567604,-0.688489,-0.14347,-0.190724,0.0371564,-0.269988,-0.465942,0.242864
23,45,-0.567232,-0.698132,-0.174533,-0.174533,-0.567604,-0.688489,-0.14347,-0.190724,0.0371564,-0.269988,-0.465942,0.242864
23,45,-0.567232,-0.698132,-0.174533,-0.174533,-0.567604,-0.688489,-0.14347,-0.190724,0.0371564,-0.269988,-0.465942,0.242864
23,45,-0.567232,-0.698132,-0.174533,-0.174533,-0.567604,-0.688489,-0.14347,-0.190724,0.0371564,-0.269988,-0.465942,0.242864
23,45,-0.567232,-0.698132,-0.174533,-0.174533,-0.567604,-0.688489,-0.14347,-0.190724,0.0371564,-0.269988,-0.465942,0.242864
23,45,-0.567232,-0.698132,-0.174533,-0.174533,-0.567604,-0.688489,-0.14347,-0.190724,0.0371564,-0.269988,-0.465942,0.242864
23,45,-0.567232,-0.698132,-0.174533,-0.174533,-0.567604,-0.688489,-0.14347,-0.190724,0.0371564,-0.269988,-0.465942,0.242864
23,45,-0.567232,-0.698132,-0.174533,-0.174533,-0.567604,-0.688489,-0.14347,-0.190724,0.0371564,-0.269988,-0.465942,0.242864
23,45,-0.567232,-0.698132,-0.174533,-0.174533,-0.567604,-0.688489,-0.14347,-0.190724,0.0371564,-0.269988,-0.465942,0.242864
23,45,-0.567232,-0.698132,-0.174533,-0.174533,-0.567604,-0.688489,-0.14347,-0.190724,0.0371564,-0.269988,-0.465942,0.242864
23,45,-0.567232,-0.698132,-0.174533,-0.174533,-0.567604,-0.688489,-0.14347,-0.190724,0.0371564,-0.269988,-0.465942,0.242864
23,45,-0.567232,-0.698132,-0.174533,-0.174533,-0.567604,-0.688489,-0.14347,-0.190724,0.0371564,-0.269988,-0.465942,0.242864
23,45,-0.567232,-0.698132,-0.174533,-0.174533,-0.567604,-0.688489,-0.14347,-0.190724,0.0371564,-0.269988,-0.465942,0.242864
23,45,-0.567232,-0.698132,-0.174533,-0.174533,-0.567604,-0.688489,-0.14347,-0.190724,0.0371564,-0.269988,-0.465942,0.242864
23,45,-0.567232,-0.698132,-0.174533,-0.174533,-0.567604,-0.688489,-0.14347,-0.190724,0.0371564,-0.269988,-0.465942,0.242864
