stim_pw [us],stim_amp [mA],com_elbow_fe [rad],com_forearm_ps [rad],com_wrist_fe [rad],com_wrist_ru [rad],act_elbow_fe [rad],act_forearm_ps [rad],act_wrist_fe [rad],act_wrist_ru [rad],elbow_fe_trq [Nm],forearm_ps_trq [Nm],wrist_fe_trq [Nm],wrist_ru_trq [Nm]
23,45,-0.567232,-0.698132,0.174533,-0.174533,-0.565026,-0.68249,0.179972,-0.194018,-0.220552,-0.437967,-0.0815905,0.292281
23,45,-0.567232,-0.698132,0.174533,-0.174533,-0.565026,-0.68249,0.179972,-0.194018,-0.220552,-0.437967,-0.0815905,0.292281
23,45,-0.567232,-0.698132,0.174533,-0.174533,-0.565026,-0.68249,0.179972,-0.194018,-0.220552,-0.437967,-0.0815905,0.292281
23,45,-0.567232,-0.698132,0.174533,-0.174533,-0.565026,-0.68249,0.179972,-0.194018,-0.220552,-0.437967,-0.0815905,0.292281
23,45,-0.567232,-0.698132,0.174533,-0.174533,-0.565026,-0.68249,0.179972,-0.194018,-0.220552,-0.437967,-0.0815905,0.292281
23,45,-0.567232,-0.698132,0.174533,-0.174533,-0.565026,-0.68249,0.179972,-0.194018,-0.220552,-0.437967,-0.0815905,0.292281
23,45,-0.567232,-0.698132,0.174533,-0.174533,-0.565026,-0.68249,0.179972,-0.194018,-0.220552,-0.437967,-0.0815905,0.292281
23,45,-0.567232,-0.698132,0.174533,-0.174533,-0.565026,-0.68249,0.179972,-0.194018,-0.220552,-0.437967,-0.0815905,0.292281
23,45,-0.567232,-0.698132,0.174533,-0.174533,-0.565026,-0.68249,0.179972,-0.194018,-0.220552,-0.437967,-0.0815905,0.292281
23,45,-0.567232,-0.698132,0.174533,-0.174533,-0.565026,-0.68249,0.179972,-0.194018,-0.220552,-0.437967,-0.0815905,0.292281
23,45,-0.567232,-0.698132,0.174533,-0.174533,-0.565026,-0.68249,0.179972,-0.194018,-0.220552,-0.437967,-0.0815905,0.292281
23,45,-0.567232,-0.698132,0.174533,-0.174533,-0.565026,-0.68249,0.179972,-0.194018,-0.220552,-0.437967,-0.0815905,0.292281
23,45,-0.567232,-0.698132,0.174533,-0.174533,-0.565026,-0.68249,0.179972,-0.194018,-0.220552,-0.437967,-0.0815905,0.292281
23,45,-0.567232,-0.698132,0.174533,-0.174533,-0.565026,-0.68249,0.179972,-0.194018,-0.220552,-0.437967,-0.0815905,0.292281
23,45,-0.567232,-0.698132,0.174533,-0.174533,-0.565026,-0.68249,0.179972,-0.194018,-0.220552,-0.437967,-0.0815905,0.292281
23,45,-0.567232,-0.698132,0.174533,-0.174533,-0.565026,-0.68249,0.179972,-0.194018,-0.220552,-0.437967,-0.0815905,0.292281
23,45,-0.567232,-0.698132,0.174533,-0.174533,-0.565026,-0.68249,0.179972,-0.194018,-0.220552,-0.437967,-0.0815905,0.292281
23,45,-0.567232,-0.698132,0.174533,-0.174533,-0.565026,-0.68249,0.179972,-0.194018,-0.220552,-0.437967,-0.0815905,0.292281
23,45,-0.567232,-0.698132,0.174533,-0.174533,-0.565026,-0.68249,0.179972,-0.194018,-0.220552,-0.437967,-0.0815905,0.292281
23,45,-0.567232,-0.698132,0.174533,-0.174533,-0.565026,-0.68249,0.179972,-0.194018,-0.220552,-0.437967,-0.0815905,0.292281
23,45,-0.567232,-0.698132,0.174533,-0.174533,-0.565026,-0.68249,0.179972,-0.194018,-0.220552,-0.437967,-0.0815905,0.292281
23,45,-0.567232,-0.698132,0.174533,-0.174533,-0.565026,-0.68249,0.179972,-0.194018,-0.220552,-0.437967,-0.0815905,0.292281
23,45,-0.567232,-0.698132,0.174533,-0.174533,-0.565026,-0.68249,0.179972,-0.194018,-0.220552,-0.437967,-0.0815905,0.292281
23,45,-0.567232,-0.698132,0.174533,-0.174533,-0.565026,-0.68249,0.179972,-0.194018,-0.220552,-0.437967,-0.0815905,0.292281
23,45,-0.567232,-0.698132,0.174533,-0.174533,-0.565026,-0.68249,0.179972,-0.194018,-0.220552,-0.437967,-0.0815905,0.292281
23,45,-0.567232,-0.698132,0.174533,-0.174533,-0.565026,-0.68249,0.179972,-0.194018,-0.220552,-0.437967,-0.0815905,0.292281
23,45,-0.567232,-0.698132,0.174533,-0.174533,-0.565026,-0.68249,0.179972,-0.194018,-0.220552,-0.437967,-0.0815905,0.292281
23,45,-0.567232,-0.698132,0.174533,-0.174533,-0.565026,-0.68249,0.179972,-0.194018,-0.220552,-0.437967,-0.0815905,0.292281
23,45,-0.567232,-0.698132,0.174533,-0.174533,-0.565026,-0.68249,0.179972,-0.194018,-0.220552,-0.437967,-0.0815905,0.292281
23,45,-0.567232,-0.698132,0.174533,-0.174533,-0.565026,-0.68249,0.179972,-0.194018,-0.220552,-0.437967,-0.0815905,0.292281
23,45,-0.567232,-0.698132,0.174533,-0.174533,-0.565026,-0.68249,0.179972,-0.194018,-0.220552,-0.437967,-0.0815905,0.292281
23,45,-0.567232,-0.698132,0.174533,-0.174533,-0.565026,-0.68249,0.179972,-0.194018,-0.220552,-0.437967,-0.0815905,0.292281
23,45,-0.567232,-0.698132,0.174533,-0.174533,-0.565026,-0.68249,0.179972,-0.194018,-0.220552,-0.437967,-0.0815905,0.292281
23,45,-0.567232,-0.698132,0.174533,-0.174533,-0.565026,-0.68249,0.179972,-0.194018,-0.220552,-0.437967,-0.0815905,0.292281
23,45,-0.567232,-0.698132,0.174533,-0.174533,-0.565026,-0.68249,0.179972,-0.194018,-0.220552,-0.437967,-0.0815905,0.292281
23,45,-0.567232,-0.698132,0.174533,-0.174533,-0.565026,-0.68249,0.179972,-0.194018,-0.220552,-0.437967,-0.0815905,0.292281
23,45,-0.567232,-0.698132,0.174533,-0.174533,-0.565026,-0.68249,0.179972,-0.194018,-0.220552,-0.437967,-0.0815905,0.292281
23,45,-0.567232,-0.698132,0.174533,-0.174533,-0.565026,-0.68249,0.179972,-0.194018,-0.220552,-0.437967,-0.0815905,0.292281
23,45,-0.567232,-0.698132,0.174533,-0.174533,-0.565026,-0.68249,0.179972,-0.194018,-0.220552,-0.437967,-0.0815905,0.292281
23,45,-0.567232,-0.698132,0.174533,-0.174533,-0.565026,-0.68249,0.179972,-0.194018,-0.220552,-0.437967,-0.0815905,0.292281
23,45,-0.567232,-0.698132,0.174533,-0.174533,-0.565026,-0.68249,0.179972,-0.194018,-0.220552,-0.437967,-0.0815905,0.292281
23,45,-0.567232,-0.698132,0.174533,-0.174533,-0.565026,-0.68249,0.179972,-0.194018,-0.220552,-0.437967,-0.0815905,0.292281
23,45,-0.567232,-0.698132,0.174533,-0.174533,-0.565026,-0.68249,0.179972,-0.194018,-0.220552,-0.437967,-0.0815905,0.292281
23,45,-0.567232,-0.698132,0.174533,-0.174533,-0.565026,-0.68249,0.179972,-0.194018,-0.220552,-0.437967,-0.0815905,0.292281
23,45,-0.567232,-0.698132,0.174533,-0.174533,-0.565026,-0.68249,0.179972,-0.194018,-0.220552,-0.437967,-0.0815905,0.292281
23,45,-0.567232,-0.698132,0.174533,-0.174533,-0.565026,-0.68249,0.179972,-0.194018,-0.220552,-0.437967,-0.0815905,0.292281
23,45,-0.567232,-0.698132,0.174533,-0.174533,-0.565026,-0.68249,0.179972,-0.194018,-0.220552,-0.437967,-0.0815905,0.292281
23,45,-0.567232,-0.698132,0.174533,-0.174533,-0.565026,-0.68249,0.179972,-0.194018,-0.220552,-0.437967,-0.0815905,0.292281
23,45,-0.567232,-0.698132,0.174533,-0.174533,-0.565026,-0.68249,0.179972,-0.194018,-0.220552,-0.437967,-0.0815905,0.292281
23,45,-0.567232,-0.698132,0.174533,-0.174533,-0.565026,-0.68249,0.179972,-0.194018,-0.220552,-0.437967,-0.0815905,0.292281
23,45,-0.567232,-0.698132,0.174533,-0.174533,-0.565026,-0.68249,0.179972,-0.194018,-0.220552,-0.437967,-0.0815905,0.292281
23,45,-0.567232,-0.698132,0.174533,-0.174533,-0.565026,-0.68249,0.179972,-0.194018,-0.220552,-0.437967,-0.0815905,0.292281
23,45,-0.567232,-0.698132,0.174533,-0.174533,-0.565026,-0.68249,0.179972,-0.194018,-0.220552,-0.437967,-0.0815905,0.292281
23,45,-0.567232,-0.698132,0.174533,-0.174533,-0.565026,-0.68249,0.179972,-0.194018,-0.220552,-0.437967,-0.0815905,0.292281
23,45,-0.567232,-0.698132,0.174533,-0.174533,-0.565026,-0.68249,0.179972,-0.194018,-0.220552,-0.437967,-0.0815905,0.292281
23,45,-0.567232,-0.698132,0.174533,-0.174533,-0.565026,-0.68249,0.179972,-0.194018,-0.220552,-0.437967,-0.0815905,0.292281
23,45,-0.567232,-0.698132,0.174533,-0.174533,-0.565026,-0.68249,0.179972,-0.194018,-0.220552,-0.437967,-0.0815905,0.292281
23,45,-0.567232,-0.698132,0.174533,-0.174533,-0.565026,-0.68249,0.179972,-0.194018,-0.220552,-0.437967,-0.0815905,0.292281
23,45,-0.567232,-0.698132,0.174533,-0.174533,-0.565026,-0.68249,0.179972,-0.194018,-0.220552,-0.437967,-0.0815905,0.292281
23,45,-0.567232,-0.698132,0.174533,-0.174533,-0.565026,-0.68249,0.179972,-0.194018,-0.220552,-0.437967,-0.0815905,0.292281
23,45,-0.567232,-0.698132,0.174533,-0.174533,-0.565026,-0.68249,0.179972,-0.194018,-0.220552,-0.437967,-0.0815905,0.292281
23,45,-0.567232,-0.698132,0.174533,-0.174533,-0.565026,-0.68249,0.179972,-0.194018,-0.220552,-0.437967,-0.0815905,0.292281
23,45,-0.567232,-0.698132,0.174533,-0.174533,-0.565026,-0.68249,0.179972,-0.194018,-0.220552,-0.437967,-0.0815905,0.292281
23,45,-0.567232,-0.698132,0.174533,-0.174533,-0.565026,-0.68249,0.179972,-0.194018,-0.220552,-0.437967,-0.0815905,0.292281
23,45,-0.567232,-0.698132,0.174533,-0.174533,-0.565026,-0.68249,0.179972,-0.194018,-0.220552,-0.437967,-0.0815905,0.292281
23,45,-0.567232,-0.698132,0.174533,-0.174533,-0.565026,-0.68249,0.179972,-0.194018,-0.220552,-0.437967,-0.0815905,0.292281
23,45,-0.567232,-0.698132,0.174533,-0.174533,-0.565026,-0.68249,0.179972,-0.194018,-0.220552,-0.437967,-0.0815905,0.292281
23,45,-0.567232,-0.698132,0.174533,-0.174533,-0.565026,-0.68249,0.179972,-0.194018,-0.220552,-0.437967,-0.0815905,0.292281
23,45,-0.567232,-0.698132,0.174533,-0.174533,-0.565026,-0.68249,0.179972,-0.194018,-0.220552,-0.437967,-0.0815905,0.292281
23,45,-0.567232,-0.698132,0.174533,-0.174533,-0.565026,-0.68249,0.179972,-0.194018,-0.220552,-0.437967,-0.0815905,0.292281
23,45,-0.567232,-0.698132,0.174533,-0.174533,-0.565026,-0.68249,0.179972,-0.194018,-0.220552,-0.437967,-0.0815905,0.292281
23,45,-0.567232,-0.698132,0.174533,-0.174533,-0.565026,-0.68249,0.179972,-0.194018,-0.220552,-0.437967,-0.0815905,0.292281
23,45,-0.567232,-0.698132,0.174533,-0.174533,-0.565026,-0.68249,0.179972,-0.194018,-0.220552,-0.437967,-0.0815905,0.292281
23,45,-0.567232,-0.698132,0.174533,-0.174533,-0.565026,-0.68249,0.179972,-0.194018,-0.220552,-0.437967,-0.0815905,0.292281
23,45,-0.567232,-0.698132,0.174533,-0.174533,-0.565026,-0.68249,0.179972,-0.194018,-0.220552,-0.437967,-0.0815905,0.292281
23,45,-0.567232,-0.698132,0.174533,-0.174533,-0.565026,-0.68249,0.179972,-0.194018,-0.220552,-0.437967,-0.0815905,0.292281
23,45,-0.567232,-0.698132,0.174533,-0.174533,-0.565026,-0.68249,0.179972,-0.194018,-0.220552,-0.437967,-0.0815905,0.292281
23,45,-0.567232,-0.698132,0.174533,-0.174533,-0.565026,-0.68249,0.179972,-0.194018,-0.220552,-0.437967,-0.0815905,0.292281
23,45,-0.567232,-0.698132,0.174533,-0.174533,-0.565026,-0.68249,0.179972,-0.194018,-0.220552,-0.437967,-0.0815905,0.292281
23,45,-0.567232,-0.698132,0.174533,-0.174533,-0.565026,-0.68249,0.179972,-0.194018,-0.220552,-0.437967,-0.0815905,0.292281
23,45,-0.567232,-0.698132,0.174533,-0.174533,-0.565026,-0.68249,0.179972,-0.194018,-0.220552,-0.437967,-0.0815905,0.292281
23,45,-0.567232,-0.698132,0.174533,-0.174533,-0.565026,-0.68249,0.179972,-0.194018,-0.220552,-0.437967,-0.0815905,0.292281
23,45,-0.567232,-0.698132,0.174533,-0.174533,-0.565026,-0.68249,0.179972,-0.194018,-0.220552,-0.437967,-0.0815905,0.292281
23,45,-0.567232,-0.698132,0.174533,-0.174533,-0.565026,-0.68249,0.179972,-0.194018,-0.220552,-0.437967,-0.0815905,0.292281
23,45,-0.567232,-0.698132,0.174533,-0.174533,-0.565026,-0.68249,0.179972,-0.194018,-0.220552,-0.437967,-0.0815905,0.292281
23,45,-0.567232,-0.698132,0.174533,-0.174533,-0.565026,-0.68249,0.179972,-0.194018,-0.220552,-0.437967,-0.0815905,0.292281
23,45,-0.567232,-0.698132,0.174533,-0.174533,-0.565026,-0.68249,0.179972,-0.194018,-0.220552,-0.437967,-0.0815905,0.292281
23,45,-0.567232,-0.698132,0.174533,-0.174533,-0.565026,-0.68249,0.179972,-0.194018,-0.220552,-0.437967,-0.0815905,0.292281
23,45,-0.567232,-0.698132,0.174533,-0.174533,-0.565026,-0.68249,0.179972,-0.194018,-0.220552,-0.437967,-0.0815905,0.292281
23,45,-0.567232,-0.698132,0.174533,-0.174533,-0.565026,-0.68249,0.179972,-0.194018,-0.220552,-0.437967,-0.0815905,0.292281
23,45,-0.567232,-0.698132,0.174533,-0.174533,-0.565026,-0.68249,0.179972,-0.194018,-0.220552,-0.437967,-0.0815905,0.292281
23,45,-0.567232,-0.698132,0.174533,-0.174533,-0.565026,-0.68249,0.179898,-0.193989,-0.220552,-0.437967,-0.0804776,0.291834
23,45,-0.567232,-0.698132,0.174533,-0.174533,-0.565026,-0.68249,0.179898,-0.193989,-0.220552,-0.437967,-0.0804776,0.291834
23,45,-0.567232,-0.698132,0.174533,-0.174533,-0.565026,-0.68249,0.179898,-0.193989,-0.220552,-0.437967,-0.0804776,0.291834
23,45,-0.567232,-0.698132,0.174533,-0.174533,-0.565026,-0.68249,0.179898,-0.193989,-0.220552,-0.437967,-0.0804776,0.291834
23,45,-0.567232,-0.698132,0.174533,-0.174533,-0.565026,-0.68249,0.179898,-0.193989,-0.220552,-0.437967,-0.0804776,0.291834
23,45,-0.567232,-0.698132,0.174533,-0.174533,-0.565026,-0.68249,0.179898,-0.193989,-0.220552,-0.437967,-0.0804776,0.291834
23,45,-0.567232,-0.698132,0.174533,-0.174533,-0.565026,-0.68249,0.179898,-0.193989,-0.220552,-0.437967,-0.0804776,0.291834
23,45,-0.567232,-0.698132,0.174533,-0.174533,-0.565026,-0.68249,0.179898,-0.193989,-0.220552,-0.437967,-0.0804776,0.291834
23,45,-0.567232,-0.698132,0.174533,-0.174533,-0.565026,-0.68249,0.179898,-0.193989,-0.220552,-0.437967,-0.0804776,0.291834
23,45,-0.567232,-0.698132,0.174533,-0.174533,-0.565026,-0.68249,0.179898,-0.193989,-0.220552,-0.437967,-0.0804776,0.291834
23,45,-0.567232,-0.698132,0.174533,-0.174533,-0.565026,-0.68249,0.179898,-0.193989,-0.220552,-0.437967,-0.0804776,0.291834
23,45,-0.567232,-0.698132,0.174533,-0.174533,-0.565026,-0.68249,0.179898,-0.193989,-0.220552,-0.437967,-0.0804776,0.291834
23,45,-0.567232,-0.698132,0.174533,-0.174533,-0.565026,-0.68249,0.179898,-0.193989,-0.220552,-0.437967,-0.0804776,0.291834
23,45,-0.567232,-0.698132,0.174533,-0.174533,-0.565026,-0.68249,0.179898,-0.193989,-0.220552,-0.437967,-0.0804776,0.291834
23,45,-0.567232,-0.698132,0.174533,-0.174533,-0.565026,-0.68249,0.179898,-0.193989,-0.220552,-0.437967,-0.0804776,0.291834
23,45,-0.567232,-0.698132,0.174533,-0.174533,-0.565026,-0.68249,0.179898,-0.193989,-0.220552,-0.437967,-0.0804776,0.291834
23,45,-0.567232,-0.698132,0.174533,-0.174533,-0.565026,-0.68249,0.179898,-0.193989,-0.220552,-0.437967,-0.0804776,0.291834
23,45,-0.567232,-0.698132,0.174533,-0.174533,-0.565026,-0.68249,0.179898,-0.193989,-0.220552,-0.437967,-0.0804776,0.291834
23,45,-0.567232,-0.698132,0.174533,-0.174533,-0.565026,-0.68249,0.179898,-0.193989,-0.220552,-0.437967,-0.0804776,0.291834
23,45,-0.567232,-0.698132,0.174533,-0.174533,-0.565026,-0.68249,0.179898,-0.193989,-0.220552,-0.437967,-0.0804776,0.291834
23,45,-0.567232,-0.698132,0.174533,-0.174533,-0.565026,-0.68249,0.179898,-0.193989,-0.220552,-0.437967,-0.0804776,0.291834
23,45,-0.567232,-0.698132,0.174533,-0.174533,-0.565026,-0.68249,0.179898,-0.193989,-0.220552,-0.437967,-0.0804776,0.291834
23,45,-0.567232,-0.698132,0.174533,-0.174533,-0.565026,-0.68249,0.179898,-0.193989,-0.220552,-0.437967,-0.0804776,0.291834
23,45,-0.567232,-0.698132,0.174533,-0.174533,-0.565026,-0.68249,0.179898,-0.193989,-0.220552,-0.437967,-0.0804776,0.291834
23,45,-0.567232,-0.698132,0.174533,-0.174533,-0.565026,-0.68249,0.179824,-0.193959,-0.220552,-0.437967,-0.0793648,0.291388
23,45,-0.567232,-0.698132,0.174533,-0.174533,-0.565026,-0.68249,0.179824,-0.193959,-0.220552,-0.437967,-0.0793648,0.291388
23,45,-0.567232,-0.698132,0.174533,-0.174533,-0.565026,-0.68249,0.179824,-0.193959,-0.220552,-0.437967,-0.0793648,0.291388
23,45,-0.567232,-0.698132,0.174533,-0.174533,-0.565026,-0.68249,0.179824,-0.193959,-0.220552,-0.437967,-0.0793648,0.291388
23,45,-0.567232,-0.698132,0.174533,-0.174533,-0.565026,-0.68249,0.179824,-0.193959,-0.220552,-0.437967,-0.0793648,0.291388
23,45,-0.567232,-0.698132,0.174533,-0.174533,-0.565026,-0.68249,0.179824,-0.193959,-0.220552,-0.437967,-0.0793648,0.291388
23,45,-0.567232,-0.698132,0.174533,-0.174533,-0.565026,-0.68249,0.179824,-0.193959,-0.220552,-0.437967,-0.0793648,0.291388
23,45,-0.567232,-0.698132,0.174533,-0.174533,-0.565026,-0.68249,0.179824,-0.193959,-0.220552,-0.437967,-0.0793648,0.291388
23,45,-0.567232,-0.698132,0.174533,-0.174533,-0.565026,-0.68249,0.179824,-0.193959,-0.220552,-0.437967,-0.0793648,0.291388
23,45,-0.567232,-0.698132,0.174533,-0.174533,-0.565026,-0.68249,0.179824,-0.193959,-0.220552,-0.437967,-0.0793648,0.291388
23,45,-0.567232,-0.698132,0.174533,-0.174533,-0.565026,-0.68249,0.179824,-0.193959,-0.220552,-0.437967,-0.0793648,0.291388
23,45,-0.567232,-0.698132,0.174533,-0.174533,-0.565026,-0.68249,0.179824,-0.193959,-0.220552,-0.437967,-0.0793648,0.291388
23,45,-0.567232,-0.698132,0.174533,-0.174533,-0.565026,-0.68249,0.179824,-0.193959,-0.220552,-0.437967,-0.0793648,0.291388
23,45,-0.567232,-0.698132,0.174533,-0.174533,-0.565026,-0.68249,0.179824,-0.193959,-0.220552,-0.437967,-0.0793648,0.291388
23,45,-0.567232,-0.698132,0.174533,-0.174533,-0.565026,-0.68249,0.179824,-0.193959,-0.220552,-0.437967,-0.0793648,0.291388
23,45,-0.567232,-0.698132,0.174533,-0.174533,-0.565026,-0.68249,0.179824,-0.193959,-0.220552,-0.437967,-0.0793648,0.291388
23,45,-0.567232,-0.698132,0.174533,-0.174533,-0.565026,-0.68249,0.179824,-0.193959,-0.220552,-0.437967,-0.0793648,0.291388
23,45,-0.567232,-0.698132,0.174533,-0.174533,-0.565026,-0.68249,0.179824,-0.193959,-0.220552,-0.437967,-0.0793648,0.291388
23,45,-0.567232,-0.698132,0.174533,-0.174533,-0.565026,-0.68249,0.179824,-0.193959,-0.220552,-0.437967,-0.0793648,0.291388
23,45,-0.567232,-0.698132,0.174533,-0.174533,-0.565026,-0.68249,0.17975,-0.193929,-0.220552,-0.437967,-0.0782522,0.290942
23,45,-0.567232,-0.698132,0.174533,-0.174533,-0.565026,-0.68249,0.17975,-0.193929,-0.220552,-0.437967,-0.0782522,0.290942
23,45,-0.567232,-0.698132,0.174533,-0.174533,-0.565026,-0.68249,0.17975,-0.193929,-0.220552,-0.437967,-0.0782522,0.290942
23,45,-0.567232,-0.698132,0.174533,-0.174533,-0.565026,-0.68249,0.17975,-0.193929,-0.220552,-0.437967,-0.0782522,0.290942
23,45,-0.567232,-0.698132,0.174533,-0.174533,-0.565026,-0.68249,0.17975,-0.193929,-0.220552,-0.437967,-0.0782522,0.290942
23,45,-0.567232,-0.698132,0.174533,-0.174533,-0.565026,-0.68249,0.17975,-0.193929,-0.220552,-0.437967,-0.0782522,0.290942
23,45,-0.567232,-0.698132,0.174533,-0.174533,-0.565026,-0.68249,0.17975,-0.193929,-0.220552,-0.437967,-0.0782522,0.290942
23,45,-0.567232,-0.698132,0.174533,-0.174533,-0.565026,-0.68249,0.17975,-0.193929,-0.220552,-0.437967,-0.0782522,0.290942
23,45,-0.567232,-0.698132,0.174533,-0.174533,-0.565026,-0.68249,0.17975,-0.193929,-0.220552,-0.437967,-0.0782522,0.290942
23,45,-0.567232,-0.698132,0.174533,-0.174533,-0.565026,-0.68249,0.179676,-0.193899,-0.220552,-0.437967,-0.0771397,0.290495
23,45,-0.567232,-0.698132,0.174533,-0.174533,-0.565026,-0.68249,0.179676,-0.193899,-0.220552,-0.437967,-0.0771397,0.290495
23,45,-0.567232,-0.698132,0.174533,-0.174533,-0.565026,-0.68249,0.179676,-0.193899,-0.220552,-0.437967,-0.0771397,0.290495
23,45,-0.567232,-0.698132,0.174533,-0.174533,-0.565026,-0.68249,0.179676,-0.193899,-0.220552,-0.437967,-0.0771397,0.290495
23,45,-0.567232,-0.698132,0.174533,-0.174533,-0.565026,-0.68249,0.179676,-0.193899,-0.220552,-0.437967,-0.0771397,0.290495
23,45,-0.567232,-0.698132,0.174533,-0.174533,-0.565026,-0.68249,0.179676,-0.193899,-0.220552,-0.437967,-0.0771397,0.290495
23,45,-0.567232,-0.698132,0.174533,-0.174533,-0.565026,-0.68249,0.179676,-0.193899,-0.220552,-0.437967,-0.0771397,0.290495
23,45,-0.567232,-0.698132,0.174533,-0.174533,-0.565026,-0.68249,0.179601,-0.19387,-0.220552,-0.437967,-0.0759768,0.290029
23,45,-0.567232,-0.698132,0.174533,-0.174533,-0.565026,-0.68249,0.179601,-0.19387,-0.220552,-0.437967,-0.0759768,0.290029
23,45,-0.567232,-0.698132,0.174533,-0.174533,-0.565026,-0.68249,0.179601,-0.19387,-0.220552,-0.437967,-0.0759768,0.290029
23,45,-0.567232,-0.698132,0.174533,-0.174533,-0.565026,-0.68249,0.179601,-0.19387,-0.220552,-0.437967,-0.0759768,0.290029
23,45,-0.567232,-0.698132,0.174533,-0.174533,-0.565026,-0.68249,0.179601,-0.19387,-0.220552,-0.437967,-0.0759768,0.290029
23,45,-0.567232,-0.698132,0.174533,-0.174533,-0.565026,-0.68249,0.179601,-0.19387,-0.220552,-0.437967,-0.0759768,0.290029
23,45,-0.567232,-0.698132,0.174533,-0.174533,-0.565026,-0.68249,0.179601,-0.19387,-0.220552,-0.437967,-0.0759768,0.290029
23,45,-0.567232,-0.698132,0.174533,-0.174533,-0.565026,-0.68249,0.179527,-0.19384,-0.220552,-0.437967,-0.0748453,0.289575
23,45,-0.567232,-0.698132,0.174533,-0.174533,-0.565026,-0.68249,0.179527,-0.19384,-0.220552,-0.437967,-0.0748453,0.289575
23,45,-0.567232,-0.698132,0.174533,-0.174533,-0.565026,-0.68249,0.179527,-0.19384,-0.220552,-0.437967,-0.0748453,0.289575
23,45,-0.567232,-0.698132,0.174533,-0.174533,-0.565026,-0.68249,0.179527,-0.19384,-0.220552,-0.437967,-0.0748453,0.289575
23,45,-0.567232,-0.698132,0.174533,-0.174533,-0.565026,-0.68249,0.179527,-0.19384,-0.220552,-0.437967,-0.0748453,0.289575
23,45,-0.567232,-0.698132,0.174533,-0.174533,-0.565026,-0.68249,0.179527,-0.19384,-0.220552,-0.437967,-0.0748453,0.289575
23,45,-0.567232,-0.698132,0.174533,-0.174533,-0.565026,-0.68249,0.179527,-0.19384,-0.220552,-0.437967,-0.0748453,0.289575
23,45,-0.567232,-0.698132,0.174533,-0.174533,-0.565026,-0.68249,0.179453,-0.19381,-0.220552,-0.437967,-0.0737036,0.289117
23,45,-0.567232,-0.698132,0.174533,-0.174533,-0.565026,-0.68249,0.179453,-0.19381,-0.220552,-0.437967,-0.0737036,0.289117
23,45,-0.567232,-0.698132,0.174533,-0.174533,-0.565026,-0.68249,0.179453,-0.19381,-0.220552,-0.437967,-0.0737036,0.289117
23,45,-0.567232,-0.698132,0.174533,-0.174533,-0.565026,-0.68249,0.179453,-0.19381,-0.220552,-0.437967,-0.0737036,0.289117
23,45,-0.567232,-0.698132,0.174533,-0.174533,-0.565026,-0.68249,0.179453,-0.19381,-0.220552,-0.437967,-0.0737036,0.289117
23,45,-0.567232,-0.698132,0.174533,-0.174533,-0.565026,-0.68249,0.179453,-0.19381,-0.220552,-0.437967,-0.0737036,0.289117
23,45,-0.567232,-0.698132,0.174533,-0.174533,-0.565026,-0.68249,0.179453,-0.19381,-0.220552,-0.437967,-0.0737036,0.289117
23,45,-0.567232,-0.698132,0.174533,-0.174533,-0.565026,-0.68249,0.179453,-0.19381,-0.220552,-0.437967,-0.0737036,0.289117
23,45,-0.567232,-0.698132,0.174533,-0.174533,-0.565026,-0.68249,0.179453,-0.19381,-0.220552,-0.437967,-0.0737036,0.289117
23,45,-0.567232,-0.698132,0.174533,-0.174533,-0.565026,-0.68249,0.179453,-0.19381,-0.220552,-0.437967,-0.0737036,0.289117
23,45,-0.567232,-0.698132,0.174533,-0.174533,-0.565026,-0.68249,0.179453,-0.19381,-0.220552,-0.437967,-0.0737036,0.289117
23,45,-0.567232,-0.698132,0.174533,-0.174533,-0.565026,-0.68249,0.179453,-0.19381,-0.220552,-0.437967,-0.0737036,0.289117
23,45,-0.567232,-0.698132,0.174533,-0.174533,-0.565026,-0.68249,0.179379,-0.19378,-0.220552,-0.437967,-0.0726012,0.288675
23,45,-0.567232,-0.698132,0.174533,-0.174533,-0.565026,-0.68249,0.179379,-0.19378,-0.220552,-0.437967,-0.0726012,0.288675
23,45,-0.567232,-0.698132,0.174533,-0.174533,-0.565026,-0.68249,0.179379,-0.19378,-0.220552,-0.437967,-0.0726012,0.288675
23,45,-0.567232,-0.698132,0.174533,-0.174533,-0.565026,-0.68249,0.179437,-0.193751,-0.220552,-0.437967,-0.0734706,0.288232
23,45,-0.567232,-0.698132,0.174533,-0.174533,-0.565026,-0.68249,0.179437,-0.193751,-0.220552,-0.437967,-0.0734706,0.288232
23,45,-0.567232,-0.698132,0.174533,-0.174533,-0.565026,-0.68249,0.179437,-0.193751,-0.220552,-0.437967,-0.0734706,0.288232
23,45,-0.567232,-0.698132,0.174533,-0.174533,-0.565026,-0.68249,0.179437,-0.193751,-0.220552,-0.437967,-0.0734706,0.288232
23,45,-0.567232,-0.698132,0.174533,-0.174533,-0.565026,-0.68249,0.179437,-0.193751,-0.220552,-0.437967,-0.0734706,0.288232
23,45,-0.567232,-0.698132,0.174533,-0.174533,-0.565026,-0.68249,0.179363,-0.193721,-0.220552,-0.437967,-0.0723603,0.287786
23,45,-0.567232,-0.698132,0.174533,-0.174533,-0.565026,-0.68249,0.179363,-0.193721,-0.220552,-0.437967,-0.0723603,0.287786
23,45,-0.567232,-0.698132,0.174533,-0.174533,-0.565026,-0.68249,0.179363,-0.193721,-0.220552,-0.437967,-0.0723603,0.287786
23,45,-0.567232,-0.698132,0.174533,-0.174533,-0.565026,-0.68249,0.179363,-0.193721,-0.220552,-0.437967,-0.0723603,0.287786
23,45,-0.567232,-0.698132,0.174533,-0.174533,-0.565026,-0.68249,0.179363,-0.193721,-0.220552,-0.437967,-0.0723603,0.287786
23,45,-0.567232,-0.698132,0.174533,-0.174533,-0.565026,-0.68249,0.179363,-0.193721,-0.220552,-0.437967,-0.0723603,0.287786
23,45,-0.567232,-0.698132,0.174533,-0.174533,-0.565026,-0.68249,0.179363,-0.193721,-0.220552,-0.437967,-0.0723603,0.287786
23,45,-0.567232,-0.698132,0.174533,-0.174533,-0.565026,-0.68249,0.179363,-0.193721,-0.220552,-0.437967,-0.0723603,0.287786
23,45,-0.567232,-0.698132,0.174533,-0.174533,-0.565026,-0.68249,0.179363,-0.193721,-0.220552,-0.437967,-0.0723603,0.287786
23,45,-0.567232,-0.698132,0.174533,-0.174533,-0.565026,-0.68249,0.179363,-0.193721,-0.220552,-0.437967,-0.0723603,0.287786
23,45,-0.567232,-0.698132,0.174533,-0.174533,-0.565026,-0.68249,0.179289,-0.193691,-0.220552,-0.437967,-0.071257,0.287344
23,45,-0.567232,-0.698132,0.174533,-0.174533,-0.565026,-0.68249,0.179289,-0.193691,-0.220552,-0.437967,-0.071257,0.287344
23,45,-0.567232,-0.698132,0.174533,-0.174533,-0.565026,-0.68249,0.179289,-0.193691,-0.220552,-0.437967,-0.071257,0.287344
23,45,-0.567232,-0.698132,0.174533,-0.174533,-0.565026,-0.68249,0.179289,-0.193691,-0.220552,-0.437967,-0.071257,0.287344
23,45,-0.567232,-0.698132,0.174533,-0.174533,-0.565026,-0.68249,0.179289,-0.193691,-0.220552,-0.437967,-0.071257,0.287344
23,45,-0.567232,-0.698132,0.174533,-0.174533,-0.565026,-0.68249,0.179289,-0.193691,-0.220552,-0.437967,-0.071257,0.287344
23,45,-0.567232,-0.698132,0.174533,-0.174533,-0.565026,-0.68249,0.179289,-0.193691,-0.220552,-0.437967,-0.071257,0.287344
23,45,-0.567232,-0.698132,0.174533,-0.174533,-0.565026,-0.68249,0.179289,-0.193691,-0.220552,-0.437967,-0.071257,0.287344
23,45,-0.567232,-0.698132,0.174533,-0.174533,-0.565026,-0.68249,0.179289,-0.193691,-0.220552,-0.437967,-0.071257,0.287344
23,45,-0.567232,-0.698132,0.174533,-0.174533,-0.565026,-0.68249,0.179289,-0.193691,-0.220552,-0.437967,-0.071257,0.287344
23,45,-0.567232,-0.698132,0.174533,-0.174533,-0.565026,-0.68249,0.179289,-0.193691,-0.220552,-0.437967,-0.071257,0.287344
23,45,-0.567232,-0.698132,0.174533,-0.174533,-0.565026,-0.68249,0.179289,-0.193691,-0.220552,-0.437967,-0.071257,0.287344
23,45,-0.567232,-0.698132,0.174533,-0.174533,-0.565026,-0.68249,0.179289,-0.193691,-0.220552,-0.437967,-0.071257,0.287344
23,45,-0.567232,-0.698132,0.174533,-0.174533,-0.565026,-0.68249,0.179289,-0.193691,-0.220552,-0.437967,-0.071257,0.287344
23,45,-0.567232,-0.698132,0.174533,-0.174533,-0.565026,-0.68249,0.179289,-0.193691,-0.220552,-0.437967,-0.071257,0.287344
23,45,-0.567232,-0.698132,0.174533,-0.174533,-0.565026,-0.68249,0.179289,-0.193691,-0.220552,-0.437967,-0.071257,0.287344
23,45,-0.567232,-0.698132,0.174533,-0.174533,-0.565026,-0.68249,0.179289,-0.193691,-0.220552,-0.437967,-0.071257,0.287344
23,45,-0.567232,-0.698132,0.174533,-0.174533,-0.565026,-0.68249,0.179289,-0.193691,-0.220552,-0.437967,-0.071257,0.287344
23,45,-0.567232,-0.698132,0.174533,-0.174533,-0.565026,-0.68249,0.179289,-0.193691,-0.220552,-0.437967,-0.071257,0.287344
23,45,-0.567232,-0.698132,0.174533,-0.174533,-0.565026,-0.68249,0.179289,-0.193691,-0.220552,-0.437967,-0.071257,0.287344
23,45,-0.567232,-0.698132,0.174533,-0.174533,-0.565026,-0.68249,0.179289,-0.193691,-0.220552,-0.437967,-0.071257,0.287344
23,45,-0.567232,-0.698132,0.174533,-0.174533,-0.565026,-0.68249,0.179289,-0.193691,-0.220552,-0.437967,-0.071257,0.287344
23,45,-0.567232,-0.698132,0.174533,-0.174533,-0.565026,-0.68249,0.179289,-0.193691,-0.220552,-0.437967,-0.071257,0.287344
23,45,-0.567232,-0.698132,0.174533,-0.174533,-0.565026,-0.68249,0.179289,-0.193691,-0.220552,-0.437967,-0.071257,0.287344
23,45,-0.567232,-0.698132,0.174533,-0.174533,-0.565026,-0.68249,0.179289,-0.193691,-0.220552,-0.437967,-0.071257,0.287344
23,45,-0.567232,-0.698132,0.174533,-0.174533,-0.565026,-0.68249,0.179289,-0.193691,-0.220552,-0.437967,-0.071257,0.287344
23,45,-0.567232,-0.698132,0.174533,-0.174533,-0.565026,-0.68249,0.179289,-0.193691,-0.220552,-0.437967,-0.071257,0.287344
23,45,-0.567232,-0.698132,0.174533,-0.174533,-0.565026,-0.68249,0.179289,-0.193691,-0.220552,-0.437967,-0.071257,0.287344
23,45,-0.567232,-0.698132,0.174533,-0.174533,-0.565026,-0.68249,0.179289,-0.193691,-0.220552,-0.437967,-0.071257,0.287344
23,45,-0.567232,-0.698132,0.174533,-0.174533,-0.565026,-0.68249,0.179289,-0.193691,-0.220552,-0.437967,-0.071257,0.287344
23,45,-0.567232,-0.698132,0.174533,-0.174533,-0.565026,-0.68249,0.179289,-0.193691,-0.220552,-0.437967,-0.071257,0.287344
23,45,-0.567232,-0.698132,0.174533,-0.174533,-0.565026,-0.68249,0.179289,-0.193691,-0.220552,-0.437967,-0.071257,0.287344
23,45,-0.567232,-0.698132,0.174533,-0.174533,-0.565026,-0.68249,0.179289,-0.193691,-0.220552,-0.437967,-0.071257,0.287344
23,45,-0.567232,-0.698132,0.174533,-0.174533,-0.565026,-0.68249,0.179289,-0.193691,-0.220552,-0.437967,-0.071257,0.287344
23,45,-0.567232,-0.698132,0.174533,-0.174533,-0.565026,-0.68249,0.179289,-0.193691,-0.220552,-0.437967,-0.071257,0.287344
23,45,-0.567232,-0.698132,0.174533,-0.174533,-0.565026,-0.68249,0.179289,-0.193691,-0.220552,-0.437967,-0.071257,0.287344
23,45,-0.567232,-0.698132,0.174533,-0.174533,-0.565026,-0.68249,0.179289,-0.193691,-0.220552,-0.437967,-0.071257,0.287344
23,45,-0.567232,-0.698132,0.174533,-0.174533,-0.565026,-0.68249,0.179289,-0.193691,-0.220552,-0.437967,-0.0712571,0.287344
23,45,-0.567232,-0.698132,0.174533,-0.174533,-0.565026,-0.68249,0.179289,-0.193691,-0.220552,-0.437967,-0.0712592,0.287345
23,45,-0.567232,-0.698132,0.174533,-0.174533,-0.565026,-0.68249,0.179289,-0.193691,-0.220552,-0.437967,-0.0712611,0.287345
23,45,-0.567232,-0.698132,0.174533,-0.174533,-0.565026,-0.68249,0.179289,-0.193691,-0.220552,-0.437967,-0.071263,0.287346
23,45,-0.567232,-0.698132,0.174533,-0.174533,-0.565026,-0.68249,0.179289,-0.193691,-0.220552,-0.437967,-0.0712648,0.287347
23,45,-0.567232,-0.698132,0.174533,-0.174533,-0.565026,-0.68249,0.179289,-0.193691,-0.220552,-0.437967,-0.0712663,0.287347
23,45,-0.567232,-0.698132,0.174533,-0.174533,-0.565026,-0.68249,0.179289,-0.193691,-0.220552,-0.437967,-0.0712679,0.287348
23,45,-0.567232,-0.698132,0.174533,-0.174533,-0.565026,-0.68249,0.179289,-0.193691,-0.220552,-0.437967,-0.0712697,0.287349
23,45,-0.567232,-0.698132,0.174533,-0.174533,-0.565026,-0.68249,0.179289,-0.193691,-0.220552,-0.437967,-0.0712712,0.287349
23,45,-0.567232,-0.698132,0.174533,-0.174533,-0.565026,-0.68249,0.179289,-0.193691,-0.220552,-0.437967,-0.0712726,0.28735
23,45,-0.567232,-0.698132,0.174533,-0.174533,-0.565026,-0.68249,0.179289,-0.193691,-0.220552,-0.437967,-0.071274,0.287351
23,45,-0.567232,-0.698132,0.174533,-0.174533,-0.565026,-0.68249,0.179289,-0.193691,-0.220552,-0.437967,-0.0712753,0.287351
23,45,-0.567232,-0.698132,0.174533,-0.174533,-0.565026,-0.68249,0.179289,-0.193691,-0.220552,-0.437967,-0.0712765,0.287352
23,45,-0.567232,-0.698132,0.174533,-0.174533,-0.565026,-0.68249,0.179289,-0.193691,-0.220552,-0.437967,-0.0712777,0.287352
23,45,-0.567232,-0.698132,0.174533,-0.174533,-0.565026,-0.68249,0.179289,-0.193691,-0.220552,-0.437967,-0.0712789,0.287352
23,45,-0.567232,-0.698132,0.174533,-0.174533,-0.565026,-0.68249,0.179289,-0.193691,-0.220552,-0.437967,-0.07128,0.287353
23,45,-0.567232,-0.698132,0.174533,-0.174533,-0.565026,-0.68249,0.179289,-0.193691,-0.220552,-0.437967,-0.071281,0.287353
23,45,-0.567232,-0.698132,0.174533,-0.174533,-0.565026,-0.68249,0.179289,-0.193691,-0.220552,-0.437967,-0.0712821,0.287354
23,45,-0.567232,-0.698132,0.174533,-0.174533,-0.565026,-0.68249,0.179289,-0.193691,-0.220552,-0.437967,-0.0712831,0.287354
23,45,-0.567232,-0.698132,0.174533,-0.174533,-0.565026,-0.68249,0.179289,-0.193691,-0.220552,-0.437967,-0.071284,0.287355
23,45,-0.567232,-0.698132,0.174533,-0.174533,-0.565026,-0.68249,0.179289,-0.193691,-0.220552,-0.437967,-0.0712849,0.287355
23,45,-0.567232,-0.698132,0.174533,-0.174533,-0.565026,-0.68249,0.179289,-0.193691,-0.220552,-0.437967,-0.0712858,0.287355
23,45,-0.567232,-0.698132,0.174533,-0.174533,-0.565026,-0.68249,0.179289,-0.193691,-0.220552,-0.437967,-0.0712866,0.287356
23,45,-0.567232,-0.698132,0.174533,-0.174533,-0.565026,-0.68249,0.179289,-0.193691,-0.220552,-0.437967,-0.0712875,0.287356
23,45,-0.567232,-0.698132,0.174533,-0.174533,-0.565026,-0.68249,0.179289,-0.193691,-0.220552,-0.437967,-0.0712883,0.287356
23,45,-0.567232,-0.698132,0.174533,-0.174533,-0.565026,-0.68249,0.179289,-0.193691,-0.220552,-0.437967,-0.0712891,0.287357
23,45,-0.567232,-0.698132,0.174533,-0.174533,-0.565026,-0.68249,0.179289,-0.193691,-0.220552,-0.437967,-0.0712898,0.287357
23,45,-0.567232,-0.698132,0.174533,-0.174533,-0.565026,-0.68249,0.179289,-0.193691,-0.220552,-0.437967,-0.0712906,0.287357
23,45,-0.567232,-0.698132,0.174533,-0.174533,-0.565026,-0.68249,0.179289,-0.193691,-0.220552,-0.437967,-0.0712913,0.287357
23,45,-0.567232,-0.698132,0.174533,-0.174533,-0.565026,-0.68249,0.179289,-0.193691,-0.220552,-0.437967,-0.071292,0.287358
23,45,-0.567232,-0.698132,0.174533,-0.174533,-0.565026,-0.68249,0.179289,-0.193691,-0.220552,-0.437967,-0.0712926,0.287358
23,45,-0.567232,-0.698132,0.174533,-0.174533,-0.565026,-0.68249,0.179289,-0.193691,-0.220552,-0.437967,-0.0712933,0.287358
23,45,-0.567232,-0.698132,0.174533,-0.174533,-0.565026,-0.68249,0.179289,-0.193691,-0.220552,-0.437967,-0.0712939,0.287359
23,45,-0.567232,-0.698132,0.174533,-0.174533,-0.565026,-0.68249,0.179289,-0.193691,-0.220552,-0.437967,-0.0712945,0.287359
23,45,-0.567232,-0.698132,0.174533,-0.174533,-0.565026,-0.68249,0.179289,-0.193691,-0.220552,-0.437967,-0.0712951,0.287359
23,45,-0.567232,-0.698132,0.174533,-0.174533,-0.565026,-0.68249,0.179289,-0.193691,-0.220552,-0.437967,-0.0712957,0.287359
23,45,-0.567232,-0.698132,0.174533,-0.174533,-0.565026,-0.68249,0.179289,-0.193691,-0.220552,-0.437967,-0.0712963,0.287359
23,45,-0.567232,-0.698132,0.174533,-0.174533,-0.565026,-0.68249,0.179289,-0.193691,-0.220552,-0.437967,-0.0712968,0.28736
23,45,-0.567232,-0.698132,0.174533,-0.174533,-0.565026,-0.68249,0.179289,-0.193691,-0.220552,-0.437967,-0.0712973,0.28736
23,45,-0.567232,-0.698132,0.174533,-0.174533,-0.565026,-0.68249,0.179289,-0.193691,-0.220552,-0.437967,-0.0712979,0.28736
23,45,-0.567232,-0.698132,0.174533,-0.174533,-0.565026,-0.68249,0.179289,-0.193691,-0.220552,-0.437967,-0.0712984,0.28736
23,45,-0.567232,-0.698132,0.174533,-0.174533,-0.565026,-0.68249,0.179289,-0.193691,-0.220552,-0.437967,-0.0712989,0.287361
23,45,-0.567232,-0.698132,0.174533,-0.174533,-0.565026,-0.68249,0.179289,-0.193691,-0.220552,-0.437967,-0.0712993,0.287361
23,45,-0.567232,-0.698132,0.174533,-0.174533,-0.565026,-0.68249,0.179289,-0.193691,-0.220552,-0.437967,-0.0712998,0.287361
23,45,-0.567232,-0.698132,0.174533,-0.174533,-0.565026,-0.68249,0.179289,-0.193691,-0.220552,-0.437967,-0.0713003,0.287361
23,45,-0.567232,-0.698132,0.174533,-0.174533,-0.565026,-0.68249,0.179289,-0.193691,-0.220552,-0.437967,-0.0713007,0.287361
23,45,-0.567232,-0.698132,0.174533,-0.174533,-0.565026,-0.68249,0.179289,-0.193691,-0.220552,-0.437967,-0.0713011,0.287361
23,45,-0.567232,-0.698132,0.174533,-0.174533,-0.565026,-0.68249,0.179289,-0.193691,-0.220552,-0.437967,-0.0713016,0.287362
23,45,-0.567232,-0.698132,0.174533,-0.174533,-0.565026,-0.68249,0.179289,-0.193691,-0.220552,-0.437967,-0.0713368,0.287376
23,45,-0.567232,-0.698132,0.174533,-0.174533,-0.565026,-0.68249,0.179289,-0.193691,-0.220552,-0.437967,-0.0713368,0.287376
23,45,-0.567232,-0.698132,0.174533,-0.174533,-0.565026,-0.68249,0.179289,-0.193691,-0.220552,-0.437967,-0.0713368,0.287376
23,45,-0.567232,-0.698132,0.174533,-0.174533,-0.565026,-0.68249,0.179289,-0.193691,-0.220552,-0.437967,-0.0713368,0.287376
23,45,-0.567232,-0.698132,0.174533,-0.174533,-0.565026,-0.68249,0.179215,-0.193662,-0.220552,-0.437967,-0.0702252,0.28693
23,45,-0.567232,-0.698132,0.174533,-0.174533,-0.565026,-0.68249,0.179215,-0.193662,-0.220552,-0.437967,-0.0702252,0.28693
23,45,-0.567232,-0.698132,0.174533,-0.174533,-0.565026,-0.68249,0.179273,-0.193632,-0.220552,-0.437967,-0.0710944,0.286486
23,45,-0.567232,-0.698132,0.174533,-0.174533,-0.565026,-0.68249,0.179273,-0.193632,-0.220552,-0.437967,-0.0710944,0.286486
23,45,-0.567232,-0.698132,0.174533,-0.174533,-0.565026,-0.68249,0.179273,-0.193632,-0.220552,-0.437967,-0.0710944,0.286486
23,45,-0.567232,-0.698132,0.174533,-0.174533,-0.565026,-0.68249,0.179273,-0.193632,-0.220552,-0.437967,-0.0710944,0.286486
23,45,-0.567232,-0.698132,0.174533,-0.174533,-0.565026,-0.68249,0.179273,-0.193632,-0.220552,-0.437967,-0.0710944,0.286486
23,45,-0.567232,-0.698132,0.174533,-0.174533,-0.565026,-0.68249,0.179273,-0.193632,-0.220552,-0.437967,-0.0710944,0.286486
23,45,-0.567232,-0.698132,0.174533,-0.174533,-0.565026,-0.68249,0.179273,-0.193632,-0.220552,-0.437967,-0.0710944,0.286486
23,45,-0.567232,-0.698132,0.174533,-0.174533,-0.565026,-0.68249,0.179273,-0.193632,-0.220552,-0.437967,-0.0710944,0.286486
23,45,-0.567232,-0.698132,0.174533,-0.174533,-0.565026,-0.68249,0.179273,-0.193632,-0.220552,-0.437967,-0.0710944,0.286486
23,45,-0.567232,-0.698132,0.174533,-0.174533,-0.565026,-0.68249,0.179273,-0.193632,-0.220552,-0.437967,-0.0710944,0.286486
23,45,-0.567232,-0.698132,0.174533,-0.174533,-0.565026,-0.68249,0.179273,-0.193632,-0.220552,-0.437967,-0.0710944,0.286486
23,45,-0.567232,-0.698132,0.174533,-0.174533,-0.565026,-0.68249,0.179273,-0.193632,-0.220552,-0.437967,-0.0710944,0.286486
23,45,-0.567232,-0.698132,0.174533,-0.174533,-0.565026,-0.68249,0.179273,-0.193632,-0.220552,-0.437967,-0.0710944,0.286486
23,45,-0.567232,-0.698132,0.174533,-0.174533,-0.565026,-0.68249,0.179273,-0.193632,-0.220552,-0.437967,-0.0710944,0.286486
23,45,-0.567232,-0.698132,0.174533,-0.174533,-0.565026,-0.68249,0.179273,-0.193632,-0.220552,-0.437967,-0.0710944,0.286486
23,45,-0.567232,-0.698132,0.174533,-0.174533,-0.565026,-0.68249,0.179198,-0.193602,-0.220552,-0.437967,-0.0699829,0.28604
23,45,-0.567232,-0.698132,0.174533,-0.174533,-0.565026,-0.68249,0.179256,-0.193573,-0.220552,-0.437967,-0.0708521,0.285597
23,45,-0.567232,-0.698132,0.174533,-0.174533,-0.565026,-0.68249,0.179256,-0.193573,-0.220552,-0.437967,-0.0708521,0.285597
23,45,-0.567232,-0.698132,0.174533,-0.174533,-0.565026,-0.68249,0.179256,-0.193573,-0.220552,-0.437967,-0.0708521,0.285597
23,45,-0.567232,-0.698132,0.174533,-0.174533,-0.565026,-0.68249,0.179256,-0.193573,-0.220552,-0.437967,-0.0708521,0.285597
23,45,-0.567232,-0.698132,0.174533,-0.174533,-0.565026,-0.68249,0.179256,-0.193573,-0.220552,-0.437967,-0.0708521,0.285597
23,45,-0.567232,-0.698132,0.174533,-0.174533,-0.565026,-0.68249,0.179256,-0.193573,-0.220552,-0.437967,-0.0708521,0.285597
23,45,-0.567232,-0.698132,0.174533,-0.174533,-0.565026,-0.68249,0.179256,-0.193573,-0.220552,-0.437967,-0.0708521,0.285597
23,45,-0.567232,-0.698132,0.174533,-0.174533,-0.565026,-0.68249,0.179256,-0.193573,-0.220552,-0.437967,-0.0708521,0.285597
23,45,-0.567232,-0.698132,0.174533,-0.174533,-0.565026,-0.68249,0.179256,-0.193573,-0.220552,-0.437967,-0.0708521,0.285597
23,45,-0.567232,-0.698132,0.174533,-0.174533,-0.565026,-0.68249,0.179256,-0.193573,-0.220552,-0.437967,-0.0708521,0.285597
23,45,-0.567232,-0.698132,0.174533,-0.174533,-0.565026,-0.68249,0.179256,-0.193573,-0.220552,-0.437967,-0.0708521,0.285597
23,45,-0.567232,-0.698132,0.174533,-0.174533,-0.565026,-0.68249,0.179256,-0.193573,-0.220552,-0.437967,-0.0708521,0.285597
23,45,-0.567232,-0.698132,0.174533,-0.174533,-0.565026,-0.68249,0.179256,-0.193573,-0.220552,-0.437967,-0.0708521,0.285597
23,45,-0.567232,-0.698132,0.174533,-0.174533,-0.565026,-0.68249,0.179256,-0.193573,-0.220552,-0.437967,-0.0708521,0.285597
23,45,-0.567232,-0.698132,0.174533,-0.174533,-0.565026,-0.68249,0.179256,-0.193573,-0.220552,-0.437967,-0.0708521,0.285597
23,45,-0.567232,-0.698132,0.174533,-0.174533,-0.565026,-0.68249,0.179256,-0.193573,-0.220552,-0.437967,-0.0708521,0.285597
23,45,-0.567232,-0.698132,0.174533,-0.174533,-0.565026,-0.68249,0.179256,-0.193573,-0.220552,-0.437967,-0.0708521,0.285597
23,45,-0.567232,-0.698132,0.174533,-0.174533,-0.565026,-0.68249,0.179256,-0.193573,-0.220552,-0.437967,-0.0708521,0.285597
23,45,-0.567232,-0.698132,0.174533,-0.174533,-0.565026,-0.68249,0.179256,-0.193573,-0.220552,-0.437967,-0.0708521,0.285597
23,45,-0.567232,-0.698132,0.174533,-0.174533,-0.565026,-0.68249,0.179182,-0.193543,-0.220552,-0.437967,-0.0697407,0.285151
23,45,-0.567232,-0.698132,0.174533,-0.174533,-0.565026,-0.68249,0.179182,-0.193543,-0.220552,-0.437967,-0.0697407,0.285151
23,45,-0.567232,-0.698132,0.174533,-0.174533,-0.565026,-0.68249,0.179182,-0.193543,-0.220552,-0.437967,-0.0697407,0.285151
23,45,-0.567232,-0.698132,0.174533,-0.174533,-0.565026,-0.68249,0.179182,-0.193543,-0.220552,-0.437967,-0.0697407,0.285151
23,45,-0.567232,-0.698132,0.174533,-0.174533,-0.565026,-0.68249,0.179182,-0.193543,-0.220552,-0.437967,-0.0697407,0.285151
23,45,-0.567232,-0.698132,0.174533,-0.174533,-0.565026,-0.68249,0.179182,-0.193543,-0.220552,-0.437967,-0.0697407,0.285151
23,45,-0.567232,-0.698132,0.174533,-0.174533,-0.565026,-0.68249,0.179182,-0.193543,-0.220552,-0.437967,-0.0697407,0.285151
23,45,-0.567232,-0.698132,0.174533,-0.174533,-0.565026,-0.68249,0.179182,-0.193543,-0.220552,-0.437967,-0.0697407,0.285151
23,45,-0.567232,-0.698132,0.174533,-0.174533,-0.565026,-0.68249,0.179182,-0.193543,-0.220552,-0.437967,-0.0697407,0.285151
23,45,-0.567232,-0.698132,0.174533,-0.174533,-0.565026,-0.68249,0.179182,-0.193543,-0.220552,-0.437967,-0.0697407,0.285151
23,45,-0.567232,-0.698132,0.174533,-0.174533,-0.565026,-0.68249,0.179182,-0.193543,-0.220552,-0.437967,-0.0697407,0.285151
23,45,-0.567232,-0.698132,0.174533,-0.174533,-0.565026,-0.68249,0.179182,-0.193543,-0.220552,-0.437967,-0.0697407,0.285151
23,45,-0.567232,-0.698132,0.174533,-0.174533,-0.565026,-0.68249,0.179182,-0.193543,-0.220552,-0.437967,-0.0697407,0.285151
23,45,-0.567232,-0.698132,0.174533,-0.174533,-0.565026,-0.68249,0.179182,-0.193543,-0.220552,-0.437967,-0.0697407,0.285151
23,45,-0.567232,-0.698132,0.174533,-0.174533,-0.565026,-0.68249,0.17924,-0.193513,-0.220552,-0.437967,-0.0706099,0.284707
23,45,-0.567232,-0.698132,0.174533,-0.174533,-0.565026,-0.68249,0.17924,-0.193513,-0.220552,-0.437967,-0.0706099,0.284707
23,45,-0.567232,-0.698132,0.174533,-0.174533,-0.565026,-0.68249,0.17924,-0.193513,-0.220552,-0.437967,-0.0706099,0.284707
23,45,-0.567232,-0.698132,0.174533,-0.174533,-0.565026,-0.68249,0.17924,-0.193513,-0.220552,-0.437967,-0.0706099,0.284707
23,45,-0.567232,-0.698132,0.174533,-0.174533,-0.565026,-0.68249,0.17924,-0.193513,-0.220552,-0.437967,-0.0706099,0.284707
23,45,-0.567232,-0.698132,0.174533,-0.174533,-0.565026,-0.68249,0.17924,-0.193513,-0.220552,-0.437967,-0.0706099,0.284707
23,45,-0.567232,-0.698132,0.174533,-0.174533,-0.565026,-0.68249,0.17924,-0.193513,-0.220552,-0.437967,-0.0706099,0.284707
23,45,-0.567232,-0.698132,0.174533,-0.174533,-0.565026,-0.68249,0.179166,-0.193484,-0.220552,-0.437967,-0.0694986,0.284261
23,45,-0.567232,-0.698132,0.174533,-0.174533,-0.565026,-0.68249,0.179166,-0.193484,-0.220552,-0.437967,-0.0694986,0.284261
23,45,-0.567232,-0.698132,0.174533,-0.174533,-0.565026,-0.68249,0.179166,-0.193484,-0.220552,-0.437967,-0.0694986,0.284261
23,45,-0.567232,-0.698132,0.174533,-0.174533,-0.565026,-0.68249,0.179166,-0.193484,-0.220552,-0.437967,-0.0694986,0.284261
23,45,-0.567232,-0.698132,0.174533,-0.174533,-0.565026,-0.68249,0.179166,-0.193484,-0.220552,-0.437967,-0.0694986,0.284261
23,45,-0.567232,-0.698132,0.174533,-0.174533,-0.565026,-0.68249,0.179166,-0.193484,-0.220552,-0.437967,-0.0694986,0.284261
23,45,-0.567232,-0.698132,0.174533,-0.174533,-0.565026,-0.68249,0.179166,-0.193484,-0.220552,-0.437967,-0.0694986,0.284261
23,45,-0.567232,-0.698132,0.174533,-0.174533,-0.565026,-0.68249,0.179166,-0.193484,-0.220552,-0.437967,-0.0694986,0.284261
23,45,-0.567232,-0.698132,0.174533,-0.174533,-0.565026,-0.68249,0.179166,-0.193484,-0.220552,-0.437967,-0.0694986,0.284261
23,45,-0.567232,-0.698132,0.174533,-0.174533,-0.565026,-0.68249,0.179166,-0.193484,-0.220552,-0.437967,-0.0694986,0.284261
23,45,-0.567232,-0.698132,0.174533,-0.174533,-0.565026,-0.68249,0.179166,-0.193484,-0.220552,-0.437967,-0.0694986,0.284261
23,45,-0.567232,-0.698132,0.174533,-0.174533,-0.565026,-0.68249,0.179166,-0.193484,-0.220552,-0.437967,-0.0694986,0.284261
23,45,-0.567232,-0.698132,0.174533,-0.174533,-0.565026,-0.68249,0.179166,-0.193484,-0.220552,-0.437967,-0.0694986,0.284261
23,45,-0.567232,-0.698132,0.174533,-0.174533,-0.565026,-0.68249,0.179166,-0.193484,-0.220552,-0.437967,-0.0694986,0.284261
23,45,-0.567232,-0.698132,0.174533,-0.174533,-0.565026,-0.68249,0.179166,-0.193484,-0.220552,-0.437967,-0.0694986,0.284261
23,45,-0.567232,-0.698132,0.174533,-0.174533,-0.565026,-0.68249,0.179166,-0.193484,-0.220552,-0.437967,-0.0694986,0.284261
23,45,-0.567232,-0.698132,0.174533,-0.174533,-0.565026,-0.68249,0.179166,-0.193484,-0.220552,-0.437967,-0.0694986,0.284261
23,45,-0.567232,-0.698132,0.174533,-0.174533,-0.565026,-0.68249,0.179166,-0.193484,-0.220552,-0.437967,-0.0694986,0.284261
23,45,-0.567232,-0.698132,0.174533,-0.174533,-0.565026,-0.68249,0.179166,-0.193484,-0.220552,-0.437967,-0.0694986,0.284261
23,45,-0.567232,-0.698132,0.174533,-0.174533,-0.565026,-0.68249,0.179166,-0.193484,-0.220552,-0.437967,-0.0694986,0.284261
23,45,-0.567232,-0.698132,0.174533,-0.174533,-0.565026,-0.68249,0.179166,-0.193484,-0.220552,-0.437967,-0.0694986,0.284261
23,45,-0.567232,-0.698132,0.174533,-0.174533,-0.565026,-0.68249,0.179166,-0.193484,-0.220552,-0.437967,-0.0694986,0.284261
23,45,-0.567232,-0.698132,0.174533,-0.174533,-0.565026,-0.68249,0.179166,-0.193484,-0.220552,-0.437967,-0.0694986,0.284261
23,45,-0.567232,-0.698132,0.174533,-0.174533,-0.565026,-0.68249,0.179092,-0.193454,-0.220552,-0.437967,-0.068351,0.283801
23,45,-0.567232,-0.698132,0.174533,-0.174533,-0.565026,-0.68249,0.179079,-0.193396,-0.220552,-0.437967,-0.0681573,0.282936
23,45,-0.567232,-0.698132,0.174533,-0.174533,-0.565026,-0.68249,0.179079,-0.193396,-0.220552,-0.437967,-0.0681573,0.282936
23,45,-0.567232,-0.698132,0.174533,-0.174533,-0.565026,-0.68249,0.179079,-0.193396,-0.220552,-0.437967,-0.0681573,0.282936
23,45,-0.567232,-0.698132,0.174533,-0.174533,-0.565026,-0.68249,0.179079,-0.193396,-0.220552,-0.437967,-0.0681573,0.282936
23,45,-0.567232,-0.698132,0.174533,-0.174533,-0.565026,-0.68249,0.179079,-0.193396,-0.220552,-0.437967,-0.0681573,0.282936
23,45,-0.567232,-0.698132,0.174533,-0.174533,-0.565026,-0.68249,0.179079,-0.193396,-0.220552,-0.437967,-0.0681573,0.282936
23,45,-0.567232,-0.698132,0.174533,-0.174533,-0.565026,-0.68249,0.179079,-0.193396,-0.220552,-0.437967,-0.0681573,0.282936
23,45,-0.567232,-0.698132,0.174533,-0.174533,-0.565026,-0.68249,0.179079,-0.193396,-0.220552,-0.437967,-0.0681573,0.282936
23,45,-0.567232,-0.698132,0.174533,-0.174533,-0.565026,-0.68249,0.179079,-0.193396,-0.220552,-0.437967,-0.0681573,0.282936
23,45,-0.567232,-0.698132,0.174533,-0.174533,-0.565026,-0.68249,0.179079,-0.193396,-0.220552,-0.437967,-0.0681573,0.282936
23,45,-0.567232,-0.698132,0.174533,-0.174533,-0.565026,-0.68249,0.179005,-0.193367,-0.220552,-0.437967,-0.0670431,0.282489
23,45,-0.567232,-0.698132,0.174533,-0.174533,-0.565026,-0.68249,0.179005,-0.193367,-0.220552,-0.437967,-0.0670431,0.282489
23,45,-0.567232,-0.698132,0.174533,-0.174533,-0.565026,-0.68249,0.179005,-0.193367,-0.220552,-0.437967,-0.0670431,0.282489
23,45,-0.567232,-0.698132,0.174533,-0.174533,-0.565026,-0.68249,0.179005,-0.193367,-0.220552,-0.437967,-0.0670431,0.282489
23,45,-0.567232,-0.698132,0.174533,-0.174533,-0.565026,-0.68249,0.179005,-0.193367,-0.220552,-0.437967,-0.0670431,0.282489
23,45,-0.567232,-0.698132,0.174533,-0.174533,-0.565026,-0.68249,0.179005,-0.193367,-0.220552,-0.437967,-0.0670431,0.282489
23,45,-0.567232,-0.698132,0.174533,-0.174533,-0.565026,-0.68249,0.178931,-0.193337,-0.220552,-0.437967,-0.0659234,0.28204
23,45,-0.567232,-0.698132,0.174533,-0.174533,-0.565026,-0.68249,0.178931,-0.193337,-0.220552,-0.437967,-0.0659234,0.28204
23,45,-0.567232,-0.698132,0.174533,-0.174533,-0.565026,-0.68249,0.178931,-0.193337,-0.220552,-0.437967,-0.0659234,0.28204
23,45,-0.567232,-0.698132,0.174533,-0.174533,-0.565026,-0.68249,0.178931,-0.193337,-0.220552,-0.437967,-0.0659234,0.28204
23,45,-0.567232,-0.698132,0.174533,-0.174533,-0.565026,-0.68249,0.178931,-0.193337,-0.220552,-0.437967,-0.0659234,0.28204
23,45,-0.567232,-0.698132,0.174533,-0.174533,-0.565026,-0.68249,0.178931,-0.193337,-0.220552,-0.437967,-0.0659234,0.28204
23,45,-0.567232,-0.698132,0.174533,-0.174533,-0.565026,-0.68249,0.178857,-0.193307,-0.220552,-0.437967,-0.0647966,0.281588
23,45,-0.567232,-0.698132,0.174533,-0.174533,-0.565026,-0.68249,0.178915,-0.193278,-0.220552,-0.437967,-0.0656655,0.281144
23,45,-0.567232,-0.698132,0.174533,-0.174533,-0.565026,-0.68249,0.178915,-0.193278,-0.220552,-0.437967,-0.0656655,0.281144
23,45,-0.567232,-0.698132,0.174533,-0.174533,-0.565026,-0.68249,0.178915,-0.193278,-0.220552,-0.437967,-0.0656655,0.281144
23,45,-0.567232,-0.698132,0.174533,-0.174533,-0.565026,-0.68249,0.178915,-0.193278,-0.220552,-0.437967,-0.0656655,0.281144
23,45,-0.567232,-0.698132,0.174533,-0.174533,-0.565026,-0.68249,0.178841,-0.193248,-0.220552,-0.437967,-0.0645129,0.280681
23,45,-0.567232,-0.698132,0.174533,-0.174533,-0.565026,-0.68249,0.178841,-0.193248,-0.220552,-0.437967,-0.0645129,0.280681
23,45,-0.567232,-0.698132,0.174533,-0.174533,-0.565026,-0.68249,0.178841,-0.193248,-0.220552,-0.437967,-0.0645129,0.280681
23,45,-0.567232,-0.698132,0.174533,-0.174533,-0.565026,-0.68249,0.178767,-0.193218,-0.220552,-0.437967,-0.0633638,0.28022
23,45,-0.567232,-0.698132,0.174533,-0.174533,-0.565026,-0.68249,0.178767,-0.193218,-0.220552,-0.437967,-0.0633638,0.28022
23,45,-0.567232,-0.698132,0.174533,-0.174533,-0.565026,-0.68249,0.178767,-0.193218,-0.220552,-0.437967,-0.0633638,0.28022
23,45,-0.567232,-0.698132,0.174533,-0.174533,-0.565026,-0.68249,0.178767,-0.193218,-0.220552,-0.437967,-0.0633638,0.28022
23,45,-0.567232,-0.698132,0.174533,-0.174533,-0.565026,-0.68249,0.178767,-0.193218,-0.220552,-0.437967,-0.0633638,0.28022
23,45,-0.567232,-0.698132,0.174533,-0.174533,-0.565026,-0.68249,0.178767,-0.193218,-0.220552,-0.437967,-0.0633638,0.28022
23,45,-0.567232,-0.698132,0.174533,-0.174533,-0.565026,-0.68249,0.178693,-0.193188,-0.220552,-0.437967,-0.0622461,0.279772
23,45,-0.567232,-0.698132,0.174533,-0.174533,-0.565026,-0.68249,0.178693,-0.193188,-0.220552,-0.437967,-0.0622461,0.279772
23,45,-0.567232,-0.698132,0.174533,-0.174533,-0.565026,-0.68249,0.178693,-0.193188,-0.220552,-0.437967,-0.0622461,0.279772
23,45,-0.567232,-0.698132,0.174533,-0.174533,-0.565026,-0.68249,0.178693,-0.193188,-0.220552,-0.437967,-0.0622461,0.279772
23,45,-0.567232,-0.698132,0.174533,-0.174533,-0.565026,-0.68249,0.178619,-0.193159,-0.220552,-0.437967,-0.0611225,0.279321
23,45,-0.567232,-0.698132,0.174533,-0.174533,-0.565026,-0.68249,0.178619,-0.193159,-0.220552,-0.437967,-0.0611225,0.279321
23,45,-0.567232,-0.698132,0.174533,-0.174533,-0.565026,-0.68249,0.178619,-0.193159,-0.220552,-0.437967,-0.0611225,0.279321
23,45,-0.567232,-0.698132,0.174533,-0.174533,-0.565026,-0.68249,0.178619,-0.193159,-0.220552,-0.437967,-0.0611225,0.279321
23,45,-0.567232,-0.698132,0.174533,-0.174533,-0.565026,-0.68249,0.178603,-0.193099,-0.220552,-0.437967,-0.0608683,0.278426
23,45,-0.567232,-0.698132,0.174533,-0.174533,-0.565026,-0.68249,0.178603,-0.193099,-0.220552,-0.437967,-0.0608683,0.278426
23,45,-0.567232,-0.698132,0.174533,-0.174533,-0.565026,-0.68249,0.178603,-0.193099,-0.220552,-0.437967,-0.0608683,0.278426
23,45,-0.567232,-0.698132,0.174533,-0.174533,-0.565026,-0.68249,0.178529,-0.19307,-0.220552,-0.437967,-0.0597635,0.277983
23,45,-0.567232,-0.698132,0.174533,-0.174533,-0.565026,-0.68249,0.178529,-0.19307,-0.220552,-0.437967,-0.0597635,0.277983
23,45,-0.567232,-0.698132,0.174533,-0.174533,-0.565026,-0.68249,0.178529,-0.19307,-0.220552,-0.437967,-0.0597635,0.277983
23,45,-0.567232,-0.698132,0.174533,-0.174533,-0.565026,-0.68249,0.178529,-0.19307,-0.220552,-0.437967,-0.0597635,0.277983
23,45,-0.567232,-0.698132,0.174533,-0.174533,-0.565026,-0.68249,0.178529,-0.19307,-0.220552,-0.437967,-0.0597635,0.277983
23,45,-0.567232,-0.698132,0.174533,-0.174533,-0.565026,-0.68249,0.178529,-0.19307,-0.220552,-0.437967,-0.0597635,0.277983
23,45,-0.567232,-0.698132,0.174533,-0.174533,-0.565026,-0.68249,0.178455,-0.19304,-0.220552,-0.437967,-0.0586585,0.277539
23,45,-0.567232,-0.698132,0.174533,-0.174533,-0.565026,-0.68249,0.178455,-0.19304,-0.220552,-0.437967,-0.0586585,0.277539
23,45,-0.567232,-0.698132,0.174533,-0.174533,-0.565026,-0.68249,0.178455,-0.19304,-0.220552,-0.437967,-0.0586585,0.277539
23,45,-0.567232,-0.698132,0.174533,-0.174533,-0.565026,-0.68249,0.178455,-0.19304,-0.220552,-0.437967,-0.0586585,0.277539
23,45,-0.567232,-0.698132,0.174533,-0.174533,-0.565026,-0.68249,0.178513,-0.19301,-0.220552,-0.437967,-0.0595272,0.277095
23,45,-0.567232,-0.698132,0.174533,-0.174533,-0.565026,-0.68249,0.178513,-0.19301,-0.220552,-0.437967,-0.0595272,0.277095
23,45,-0.567232,-0.698132,0.174533,-0.174533,-0.565026,-0.68249,0.178513,-0.19301,-0.220552,-0.437967,-0.0595272,0.277095
23,45,-0.567232,-0.698132,0.174533,-0.174533,-0.565026,-0.68249,0.178439,-0.192981,-0.220552,-0.437967,-0.0584411,0.276659
23,45,-0.567232,-0.698132,0.174533,-0.174533,-0.565026,-0.68249,0.178439,-0.192981,-0.220552,-0.437967,-0.0584411,0.276659
23,45,-0.567232,-0.698132,0.174533,-0.174533,-0.565026,-0.68249,0.178439,-0.192981,-0.220552,-0.437967,-0.0584411,0.276659
23,45,-0.567232,-0.698132,0.174533,-0.174533,-0.565026,-0.68249,0.178439,-0.192981,-0.220552,-0.437967,-0.0584411,0.276659
23,45,-0.567232,-0.698132,0.174533,-0.174533,-0.565026,-0.68249,0.178423,-0.192921,-0.220552,-0.437967,-0.0582014,0.275771
23,45,-0.567232,-0.698132,0.174533,-0.174533,-0.565026,-0.68249,0.178423,-0.192921,-0.220552,-0.437967,-0.0582014,0.275771
23,45,-0.567232,-0.698132,0.174533,-0.174533,-0.565026,-0.68249,0.178423,-0.192921,-0.220552,-0.437967,-0.0582014,0.275771
23,45,-0.567232,-0.698132,0.174533,-0.174533,-0.565026,-0.68249,0.178423,-0.192921,-0.220552,-0.437967,-0.0582014,0.275771
23,45,-0.567232,-0.698132,0.174533,-0.174533,-0.565026,-0.68249,0.178423,-0.192921,-0.220552,-0.437967,-0.0582014,0.275771
23,45,-0.567232,-0.698132,0.174533,-0.174533,-0.565026,-0.68249,0.178423,-0.192921,-0.220552,-0.437967,-0.0582014,0.275771
23,45,-0.567232,-0.698132,0.174533,-0.174533,-0.565026,-0.68249,0.178423,-0.192921,-0.220552,-0.437967,-0.0582014,0.275771
23,45,-0.567232,-0.698132,0.174533,-0.174533,-0.565026,-0.68249,0.178423,-0.192921,-0.220552,-0.437967,-0.0582014,0.275771
23,45,-0.567232,-0.698132,0.174533,-0.174533,-0.565026,-0.68249,0.178423,-0.192921,-0.220552,-0.437967,-0.0582014,0.275771
23,45,-0.567232,-0.698132,0.174533,-0.174533,-0.565026,-0.68249,0.178423,-0.192921,-0.220552,-0.437967,-0.0582014,0.275771
23,45,-0.567232,-0.698132,0.174533,-0.174533,-0.565026,-0.68249,0.178349,-0.192892,-0.220552,-0.437967,-0.0571268,0.275339
23,45,-0.567232,-0.698132,0.174533,-0.174533,-0.565026,-0.68249,0.178407,-0.192862,-0.220552,-0.437967,-0.0580392,0.274873
23,45,-0.567232,-0.698132,0.174533,-0.174533,-0.565026,-0.68249,0.178407,-0.192862,-0.220552,-0.437967,-0.0580392,0.274873
23,45,-0.567232,-0.698132,0.174533,-0.174533,-0.565026,-0.68249,0.178407,-0.192862,-0.220552,-0.437967,-0.0580392,0.274873
23,45,-0.567232,-0.698132,0.174533,-0.174533,-0.565026,-0.68249,0.178407,-0.192862,-0.220552,-0.437967,-0.0580392,0.274873
23,45,-0.567232,-0.698132,0.174533,-0.174533,-0.565026,-0.68249,0.178407,-0.192862,-0.220552,-0.437967,-0.0580392,0.274873
23,45,-0.567232,-0.698132,0.174533,-0.174533,-0.565026,-0.68249,0.178407,-0.192862,-0.220552,-0.437967,-0.0580392,0.274873
23,45,-0.567232,-0.698132,0.174533,-0.174533,-0.565026,-0.68249,0.178407,-0.192862,-0.220552,-0.437967,-0.0580392,0.274873
23,45,-0.567232,-0.698132,0.174533,-0.174533,-0.565026,-0.68249,0.178407,-0.192862,-0.220552,-0.437967,-0.0580392,0.274873
23,45,-0.567232,-0.698132,0.174533,-0.174533,-0.565026,-0.68249,0.178407,-0.192862,-0.220552,-0.437967,-0.0580392,0.274873
23,45,-0.567232,-0.698132,0.174533,-0.174533,-0.565026,-0.68249,0.178407,-0.192862,-0.220552,-0.437967,-0.0580392,0.274873
23,45,-0.567232,-0.698132,0.174533,-0.174533,-0.565026,-0.68249,0.178407,-0.192862,-0.220552,-0.437967,-0.0580392,0.274873
23,45,-0.567232,-0.698132,0.174533,-0.174533,-0.565026,-0.68249,0.178407,-0.192862,-0.220552,-0.437967,-0.0580392,0.274873
23,45,-0.567232,-0.698132,0.174533,-0.174533,-0.565026,-0.68249,0.178407,-0.192862,-0.220552,-0.437967,-0.0580392,0.274873
23,45,-0.567232,-0.698132,0.174533,-0.174533,-0.565026,-0.68249,0.178407,-0.192862,-0.220552,-0.437967,-0.0580392,0.274873
23,45,-0.567232,-0.698132,0.174533,-0.174533,-0.565026,-0.68249,0.178333,-0.192832,-0.220552,-0.437967,-0.0569547,0.274437
23,45,-0.567232,-0.698132,0.174533,-0.174533,-0.565026,-0.68249,0.17839,-0.192803,-0.220552,-0.437967,-0.0578293,0.27399
23,45,-0.567232,-0.698132,0.174533,-0.174533,-0.565026,-0.68249,0.17839,-0.192803,-0.220552,-0.437967,-0.0578293,0.27399
23,45,-0.567232,-0.698132,0.174533,-0.174533,-0.565026,-0.68249,0.17839,-0.192803,-0.220552,-0.437967,-0.0578293,0.27399
23,45,-0.567232,-0.698132,0.174533,-0.174533,-0.565026,-0.68249,0.17839,-0.192803,-0.220552,-0.437967,-0.0578293,0.27399
23,45,-0.567232,-0.698132,0.174533,-0.174533,-0.565026,-0.68249,0.17839,-0.192803,-0.220552,-0.437967,-0.0578293,0.27399
23,45,-0.567232,-0.698132,0.174533,-0.174533,-0.565026,-0.68249,0.17839,-0.192803,-0.220552,-0.437967,-0.0578293,0.27399
23,45,-0.567232,-0.698132,0.174533,-0.174533,-0.565026,-0.68249,0.178378,-0.192745,-0.220552,-0.437967,-0.0576362,0.273126
23,45,-0.567232,-0.698132,0.174533,-0.174533,-0.565026,-0.68249,0.178378,-0.192745,-0.220552,-0.437967,-0.0576362,0.273126
23,45,-0.567232,-0.698132,0.174533,-0.174533,-0.565026,-0.68249,0.178378,-0.192745,-0.220552,-0.437967,-0.0576362,0.273126
23,45,-0.567232,-0.698132,0.174533,-0.174533,-0.565026,-0.68249,0.178378,-0.192745,-0.220552,-0.437967,-0.0576362,0.273126
23,45,-0.567232,-0.698132,0.174533,-0.174533,-0.565026,-0.68249,0.178378,-0.192745,-0.220552,-0.437967,-0.0576362,0.273126
23,45,-0.567232,-0.698132,0.174533,-0.174533,-0.565026,-0.68249,0.178378,-0.192745,-0.220552,-0.437967,-0.0576362,0.273126
23,45,-0.567232,-0.698132,0.174533,-0.174533,-0.565026,-0.68249,0.178378,-0.192745,-0.220552,-0.437967,-0.0576362,0.273126
23,45,-0.567232,-0.698132,0.174533,-0.174533,-0.565026,-0.68249,0.178378,-0.192745,-0.220552,-0.437967,-0.0576362,0.273126
23,45,-0.567232,-0.698132,0.174533,-0.174533,-0.565026,-0.68249,0.178378,-0.192745,-0.220552,-0.437967,-0.0576362,0.273126
23,45,-0.567232,-0.698132,0.174533,-0.174533,-0.565026,-0.68249,0.178378,-0.192745,-0.220552,-0.437967,-0.0576362,0.273126
23,45,-0.567232,-0.698132,0.174533,-0.174533,-0.565026,-0.68249,0.178435,-0.192716,-0.220552,-0.437967,-0.0585018,0.272683
23,45,-0.567232,-0.698132,0.174533,-0.174533,-0.565026,-0.68249,0.178435,-0.192716,-0.220552,-0.437967,-0.0585018,0.272683
23,45,-0.567232,-0.698132,0.174533,-0.174533,-0.565026,-0.68249,0.178435,-0.192716,-0.220552,-0.437967,-0.0585018,0.272683
23,45,-0.567232,-0.698132,0.174533,-0.174533,-0.565026,-0.68249,0.178435,-0.192716,-0.220552,-0.437967,-0.0585018,0.272683
23,45,-0.567232,-0.698132,0.174533,-0.174533,-0.565026,-0.68249,0.178435,-0.192716,-0.220552,-0.437967,-0.0585018,0.272683
23,45,-0.567232,-0.698132,0.174533,-0.174533,-0.565026,-0.68249,0.178435,-0.192716,-0.220552,-0.437967,-0.0585018,0.272683
23,45,-0.567232,-0.698132,0.174533,-0.174533,-0.565026,-0.68249,0.178435,-0.192716,-0.220552,-0.437967,-0.0585018,0.272683
23,45,-0.567232,-0.698132,0.174533,-0.174533,-0.565026,-0.68249,0.178435,-0.192716,-0.220552,-0.437967,-0.0585018,0.272683
23,45,-0.567232,-0.698132,0.174533,-0.174533,-0.565026,-0.68249,0.178435,-0.192716,-0.220552,-0.437967,-0.0585018,0.272683
23,45,-0.567232,-0.698132,0.174533,-0.174533,-0.565026,-0.68249,0.178435,-0.192716,-0.220552,-0.437967,-0.0585018,0.272683
23,45,-0.567232,-0.698132,0.174533,-0.174533,-0.565026,-0.68249,0.178435,-0.192716,-0.220552,-0.437967,-0.0585018,0.272683
23,45,-0.567232,-0.698132,0.174533,-0.174533,-0.565026,-0.68249,0.178435,-0.192716,-0.220552,-0.437967,-0.0585018,0.272683
23,45,-0.567232,-0.698132,0.174533,-0.174533,-0.565026,-0.68249,0.178435,-0.192716,-0.220552,-0.437967,-0.0585018,0.272683
23,45,-0.567232,-0.698132,0.174533,-0.174533,-0.565026,-0.68249,0.178362,-0.192686,-0.220552,-0.437967,-0.0574256,0.272251
23,45,-0.567232,-0.698132,0.174533,-0.174533,-0.565026,-0.68249,0.178362,-0.192686,-0.220552,-0.437967,-0.0574256,0.272251
23,45,-0.567232,-0.698132,0.174533,-0.174533,-0.565026,-0.68249,0.178362,-0.192686,-0.220552,-0.437967,-0.0574256,0.272251
23,45,-0.567232,-0.698132,0.174533,-0.174533,-0.565026,-0.68249,0.178362,-0.192686,-0.220552,-0.437967,-0.0574256,0.272251
23,45,-0.567232,-0.698132,0.174533,-0.174533,-0.565026,-0.68249,0.178362,-0.192686,-0.220552,-0.437967,-0.0574256,0.272251
23,45,-0.567232,-0.698132,0.174533,-0.174533,-0.565026,-0.68249,0.178362,-0.192686,-0.220552,-0.437967,-0.0574256,0.272251
23,45,-0.567232,-0.698132,0.174533,-0.174533,-0.565026,-0.68249,0.178362,-0.192686,-0.220552,-0.437967,-0.0574256,0.272251
23,45,-0.567232,-0.698132,0.174533,-0.174533,-0.565026,-0.68249,0.178362,-0.192686,-0.220552,-0.437967,-0.0574256,0.272251
23,45,-0.567232,-0.698132,0.174533,-0.174533,-0.565026,-0.68249,0.178362,-0.192686,-0.220552,-0.437967,-0.0574256,0.272251
23,45,-0.567232,-0.698132,0.174533,-0.174533,-0.565026,-0.68249,0.178362,-0.192686,-0.220552,-0.437967,-0.0574256,0.272251
23,45,-0.567232,-0.698132,0.174533,-0.174533,-0.565026,-0.68249,0.178362,-0.192686,-0.220552,-0.437967,-0.0574256,0.272251
23,45,-0.567232,-0.698132,0.174533,-0.174533,-0.565026,-0.68249,0.178362,-0.192686,-0.220552,-0.437967,-0.0574256,0.272251
23,45,-0.567232,-0.698132,0.174533,-0.174533,-0.565026,-0.68249,0.178362,-0.192686,-0.220552,-0.437967,-0.0574256,0.272251
23,45,-0.567232,-0.698132,0.174533,-0.174533,-0.565026,-0.68249,0.178362,-0.192686,-0.220552,-0.437967,-0.0574256,0.272251
23,45,-0.567232,-0.698132,0.174533,-0.174533,-0.565026,-0.68249,0.178362,-0.192686,-0.220552,-0.437967,-0.0574256,0.272251
23,45,-0.567232,-0.698132,0.174533,-0.174533,-0.565026,-0.68249,0.178362,-0.192686,-0.220552,-0.437967,-0.0574256,0.272251
23,45,-0.567232,-0.698132,0.174533,-0.174533,-0.565026,-0.68249,0.178362,-0.192686,-0.220552,-0.437967,-0.0574256,0.272251
23,45,-0.567232,-0.698132,0.174533,-0.174533,-0.565026,-0.68249,0.178362,-0.192686,-0.220552,-0.437967,-0.0574256,0.272251
23,45,-0.567232,-0.698132,0.174533,-0.174533,-0.565026,-0.68249,0.178362,-0.192686,-0.220552,-0.437967,-0.0574256,0.272251
23,45,-0.567232,-0.698132,0.174533,-0.174533,-0.565026,-0.68249,0.178362,-0.192686,-0.220552,-0.437967,-0.0574256,0.272251
23,45,-0.567232,-0.698132,0.174533,-0.174533,-0.565026,-0.68249,0.178288,-0.192656,-0.220552,-0.437967,-0.0563274,0.27181
23,45,-0.567232,-0.698132,0.174533,-0.174533,-0.565026,-0.68249,0.178288,-0.192656,-0.220552,-0.437967,-0.0563274,0.27181
23,45,-0.567232,-0.698132,0.174533,-0.174533,-0.565026,-0.68249,0.178288,-0.192656,-0.220552,-0.437967,-0.0563274,0.27181
23,45,-0.567232,-0.698132,0.174533,-0.174533,-0.565026,-0.68249,0.178288,-0.192656,-0.220552,-0.437967,-0.0563274,0.27181
23,45,-0.567232,-0.698132,0.174533,-0.174533,-0.565026,-0.68249,0.178288,-0.192656,-0.220552,-0.437967,-0.0563274,0.27181
23,45,-0.567232,-0.698132,0.174533,-0.174533,-0.565026,-0.68249,0.178288,-0.192656,-0.220552,-0.437967,-0.0563274,0.27181
23,45,-0.567232,-0.698132,0.174533,-0.174533,-0.565026,-0.68249,0.178288,-0.192656,-0.220552,-0.437967,-0.0563274,0.27181
23,45,-0.567232,-0.698132,0.174533,-0.174533,-0.565026,-0.68249,0.178288,-0.192656,-0.220552,-0.437967,-0.0563274,0.27181
23,45,-0.567232,-0.698132,0.174533,-0.174533,-0.565026,-0.68249,0.178288,-0.192656,-0.220552,-0.437967,-0.0563274,0.27181
23,45,-0.567232,-0.698132,0.174533,-0.174533,-0.565026,-0.68249,0.178288,-0.192656,-0.220552,-0.437967,-0.0563274,0.27181
23,45,-0.567232,-0.698132,0.174533,-0.174533,-0.565026,-0.68249,0.178214,-0.192627,-0.220552,-0.437967,-0.0552184,0.271365
23,45,-0.567232,-0.698132,0.174533,-0.174533,-0.565026,-0.68249,0.178214,-0.192627,-0.220552,-0.437967,-0.0552184,0.271365
23,45,-0.567232,-0.698132,0.174533,-0.174533,-0.565026,-0.68249,0.178214,-0.192627,-0.220552,-0.437967,-0.0552184,0.271365
23,45,-0.567232,-0.698132,0.174533,-0.174533,-0.565026,-0.68249,0.178214,-0.192627,-0.220552,-0.437967,-0.0552184,0.271365
23,45,-0.567232,-0.698132,0.174533,-0.174533,-0.565026,-0.68249,0.178214,-0.192627,-0.220552,-0.437967,-0.0552184,0.271365
23,45,-0.567232,-0.698132,0.174533,-0.174533,-0.565026,-0.68249,0.178214,-0.192627,-0.220552,-0.437967,-0.0552184,0.271365
23,45,-0.567232,-0.698132,0.174533,-0.174533,-0.565026,-0.68249,0.17814,-0.192597,-0.220552,-0.437967,-0.0541047,0.270918
23,45,-0.567232,-0.698132,0.174533,-0.174533,-0.565026,-0.68249,0.17814,-0.192597,-0.220552,-0.437967,-0.0541038,0.270918
23,45,-0.567232,-0.698132,0.174533,-0.174533,-0.565026,-0.68249,0.17814,-0.192597,-0.220552,-0.437967,-0.0541029,0.270918
23,45,-0.567232,-0.698132,0.174533,-0.174533,-0.565026,-0.68249,0.17814,-0.192597,-0.220552,-0.437967,-0.054102,0.270919
23,45,-0.567232,-0.698132,0.174533,-0.174533,-0.565026,-0.68249,0.17814,-0.192597,-0.220552,-0.437967,-0.0541012,0.270919
23,45,-0.567232,-0.698132,0.174533,-0.174533,-0.565026,-0.68249,0.17814,-0.192597,-0.220552,-0.437967,-0.0541004,0.27092
23,45,-0.567232,-0.698132,0.174533,-0.174533,-0.565026,-0.68249,0.17814,-0.192597,-0.220552,-0.437967,-0.0540996,0.27092
23,45,-0.567232,-0.698132,0.174533,-0.174533,-0.565026,-0.68249,0.17814,-0.192597,-0.220552,-0.437967,-0.0540989,0.270921
23,45,-0.567232,-0.698132,0.174533,-0.174533,-0.565026,-0.68249,0.17814,-0.192597,-0.220552,-0.437967,-0.0540981,0.270921
23,45,-0.567232,-0.698132,0.174533,-0.174533,-0.565026,-0.68249,0.17814,-0.192597,-0.220552,-0.437967,-0.0540974,0.270921
23,45,-0.567232,-0.698132,0.174533,-0.174533,-0.565026,-0.68249,0.178066,-0.192567,-0.220552,-0.437967,-0.0529686,0.270469
23,45,-0.567232,-0.698132,0.174533,-0.174533,-0.565026,-0.68249,0.178066,-0.192567,-0.220552,-0.437967,-0.0529679,0.270469
23,45,-0.567232,-0.698132,0.174533,-0.174533,-0.565026,-0.68249,0.178066,-0.192567,-0.220552,-0.437967,-0.0529673,0.270469
23,45,-0.567232,-0.698132,0.174533,-0.174533,-0.565026,-0.68249,0.178066,-0.192567,-0.220552,-0.437967,-0.0529667,0.27047
23,45,-0.567232,-0.698132,0.174533,-0.174533,-0.565026,-0.68249,0.178066,-0.192567,-0.220552,-0.437967,-0.0529661,0.27047
23,45,-0.567232,-0.698132,0.174533,-0.174533,-0.565026,-0.68249,0.177992,-0.192538,-0.220552,-0.437967,-0.0518255,0.270012
23,45,-0.567232,-0.698132,0.174533,-0.174533,-0.565026,-0.68249,0.177992,-0.192538,-0.220552,-0.437967,-0.051825,0.270013
23,45,-0.567232,-0.698132,0.174533,-0.174533,-0.565026,-0.68249,0.177992,-0.192538,-0.220552,-0.437967,-0.0518244,0.270013
23,45,-0.567232,-0.698132,0.174533,-0.174533,-0.565026,-0.68249,0.177992,-0.192538,-0.220552,-0.437967,-0.0518239,0.270013
23,45,-0.567232,-0.698132,0.174533,-0.174533,-0.565026,-0.68249,0.177992,-0.192538,-0.220552,-0.437967,-0.0518234,0.270013
23,45,-0.567232,-0.698132,0.174533,-0.174533,-0.565026,-0.68249,0.177992,-0.192538,-0.220552,-0.437967,-0.0518229,0.270014
23,45,-0.567232,-0.698132,0.174533,-0.174533,-0.565026,-0.68249,0.177992,-0.192538,-0.220552,-0.437967,-0.0518224,0.270014
23,45,-0.567232,-0.698132,0.174533,-0.174533,-0.565026,-0.68249,0.177992,-0.192538,-0.220552,-0.437967,-0.051822,0.270014
23,45,-0.567232,-0.698132,0.174533,-0.174533,-0.565026,-0.68249,0.177992,-0.192538,-0.220552,-0.437967,-0.0518215,0.270014
23,45,-0.567232,-0.698132,0.174533,-0.174533,-0.565026,-0.68249,0.177918,-0.192508,-0.220552,-0.437967,-0.0507117,0.269569
23,45,-0.567232,-0.698132,0.174533,-0.174533,-0.565026,-0.68249,0.177918,-0.192508,-0.220552,-0.437967,-0.0507113,0.269569
23,45,-0.567232,-0.698132,0.174533,-0.174533,-0.565026,-0.68249,0.177918,-0.192508,-0.220552,-0.437967,-0.0507108,0.26957
23,45,-0.567232,-0.698132,0.174533,-0.174533,-0.565026,-0.68249,0.177918,-0.192508,-0.220552,-0.437967,-0.0507104,0.26957
23,45,-0.567232,-0.698132,0.174533,-0.174533,-0.565026,-0.68249,0.177918,-0.192508,-0.220552,-0.437967,-0.05071,0.26957
23,45,-0.567232,-0.698132,0.174533,-0.174533,-0.565026,-0.68249,0.177918,-0.192508,-0.220552,-0.437967,-0.0507097,0.26957
23,45,-0.567232,-0.698132,0.174533,-0.174533,-0.565026,-0.68249,0.177918,-0.192508,-0.220552,-0.437967,-0.0507093,0.26957
23,45,-0.567232,-0.698132,0.174533,-0.174533,-0.565026,-0.68249,0.177918,-0.192508,-0.220552,-0.437967,-0.0507089,0.26957
23,45,-0.567232,-0.698132,0.174533,-0.174533,-0.565026,-0.68249,0.177918,-0.192508,-0.220552,-0.437967,-0.0507086,0.269571
23,45,-0.567232,-0.698132,0.174533,-0.174533,-0.565026,-0.68249,0.177918,-0.192508,-0.220552,-0.437967,-0.0507082,0.269571
23,45,-0.567232,-0.698132,0.174533,-0.174533,-0.565026,-0.68249,0.177918,-0.192508,-0.220552,-0.437967,-0.0507079,0.269571
23,45,-0.567232,-0.698132,0.174533,-0.174533,-0.565026,-0.68249,0.177918,-0.192508,-0.220552,-0.437967,-0.0507076,0.269571
23,45,-0.567232,-0.698132,0.174533,-0.174533,-0.565026,-0.68249,0.177918,-0.192508,-0.220552,-0.437967,-0.0506801,0.269585
23,45,-0.567232,-0.698132,0.174533,-0.174533,-0.565026,-0.68249,0.177918,-0.192508,-0.220552,-0.437967,-0.0506801,0.269585
23,45,-0.567232,-0.698132,0.174533,-0.174533,-0.565026,-0.68249,0.177918,-0.192508,-0.220552,-0.437967,-0.0506801,0.269585
23,45,-0.567232,-0.698132,0.174533,-0.174533,-0.565026,-0.68249,0.177976,-0.192478,-0.220552,-0.437967,-0.0515481,0.269141
23,45,-0.567232,-0.698132,0.174533,-0.174533,-0.565026,-0.68249,0.177976,-0.192478,-0.220552,-0.437967,-0.0515481,0.269141
23,45,-0.567232,-0.698132,0.174533,-0.174533,-0.565026,-0.68249,0.177976,-0.192478,-0.220552,-0.437967,-0.0515481,0.269141
23,45,-0.567232,-0.698132,0.174533,-0.174533,-0.565026,-0.68249,0.177976,-0.192478,-0.220552,-0.437967,-0.0515481,0.269141
23,45,-0.567232,-0.698132,0.174533,-0.174533,-0.565026,-0.68249,0.177976,-0.192478,-0.220552,-0.437967,-0.0515481,0.269141
23,45,-0.567232,-0.698132,0.174533,-0.174533,-0.565026,-0.68249,0.177976,-0.192478,-0.220552,-0.437967,-0.0515481,0.269141
23,45,-0.567232,-0.698132,0.174533,-0.174533,-0.565026,-0.68249,0.177976,-0.192478,-0.220552,-0.437967,-0.0515481,0.269141
23,45,-0.567232,-0.698132,0.174533,-0.174533,-0.565026,-0.68249,0.177976,-0.192478,-0.220552,-0.437967,-0.0515481,0.269141
23,45,-0.567232,-0.698132,0.174533,-0.174533,-0.565026,-0.68249,0.177976,-0.192478,-0.220552,-0.437967,-0.0515481,0.269141
23,45,-0.567232,-0.698132,0.174533,-0.174533,-0.565026,-0.68249,0.177902,-0.192449,-0.220552,-0.437967,-0.0504743,0.26871
23,45,-0.567232,-0.698132,0.174533,-0.174533,-0.565026,-0.68249,0.177902,-0.192449,-0.220552,-0.437967,-0.0504743,0.26871
23,45,-0.567232,-0.698132,0.174533,-0.174533,-0.565026,-0.68249,0.177902,-0.192449,-0.220552,-0.437967,-0.0504743,0.26871
23,45,-0.567232,-0.698132,0.174533,-0.174533,-0.565026,-0.68249,0.177902,-0.192449,-0.220552,-0.437967,-0.0504743,0.26871
23,45,-0.567232,-0.698132,0.174533,-0.174533,-0.565026,-0.68249,0.177902,-0.192449,-0.220552,-0.437967,-0.0504743,0.26871
23,45,-0.567232,-0.698132,0.174533,-0.174533,-0.565026,-0.68249,0.177902,-0.192449,-0.220552,-0.437967,-0.0504743,0.26871
23,45,-0.567232,-0.698132,0.174533,-0.174533,-0.565026,-0.68249,0.177902,-0.192449,-0.220552,-0.437967,-0.0504743,0.26871
23,45,-0.567232,-0.698132,0.174533,-0.174533,-0.565026,-0.68249,0.177902,-0.192449,-0.220552,-0.437967,-0.0504743,0.26871
23,45,-0.567232,-0.698132,0.174533,-0.174533,-0.565026,-0.68249,0.177902,-0.192449,-0.220552,-0.437967,-0.0504743,0.26871
23,45,-0.567232,-0.698132,0.174533,-0.174533,-0.565026,-0.68249,0.177902,-0.192449,-0.220552,-0.437967,-0.0504743,0.26871
23,45,-0.567232,-0.698132,0.174533,-0.174533,-0.565026,-0.68249,0.177902,-0.192449,-0.220552,-0.437967,-0.0504743,0.26871
23,45,-0.567232,-0.698132,0.174533,-0.174533,-0.565026,-0.68249,0.177902,-0.192449,-0.220552,-0.437967,-0.0504743,0.26871
23,45,-0.567232,-0.698132,0.174533,-0.174533,-0.565026,-0.68249,0.177902,-0.192449,-0.220552,-0.437967,-0.0504743,0.26871
23,45,-0.567232,-0.698132,0.174533,-0.174533,-0.565026,-0.68249,0.177902,-0.192449,-0.220552,-0.437967,-0.0504743,0.26871
23,45,-0.567232,-0.698132,0.174533,-0.174533,-0.565026,-0.68249,0.177902,-0.192449,-0.220552,-0.437967,-0.0504743,0.26871
23,45,-0.567232,-0.698132,0.174533,-0.174533,-0.565026,-0.68249,0.177902,-0.192449,-0.220552,-0.437967,-0.0504743,0.26871
23,45,-0.567232,-0.698132,0.174533,-0.174533,-0.565026,-0.68249,0.177902,-0.192449,-0.220552,-0.437967,-0.0504743,0.26871
23,45,-0.567232,-0.698132,0.174533,-0.174533,-0.565026,-0.68249,0.177902,-0.192449,-0.220552,-0.437967,-0.0504743,0.26871
23,45,-0.567232,-0.698132,0.174533,-0.174533,-0.565026,-0.68249,0.177902,-0.192449,-0.220552,-0.437967,-0.0504743,0.26871
23,45,-0.567232,-0.698132,0.174533,-0.174533,-0.565026,-0.68249,0.177902,-0.192449,-0.220552,-0.437967,-0.0504743,0.26871
23,45,-0.567232,-0.698132,0.174533,-0.174533,-0.565026,-0.68249,0.177902,-0.192449,-0.220552,-0.437967,-0.0504743,0.26871
23,45,-0.567232,-0.698132,0.174533,-0.174533,-0.565026,-0.68249,0.177902,-0.192449,-0.220552,-0.437967,-0.0504743,0.26871
23,45,-0.567232,-0.698132,0.174533,-0.174533,-0.565026,-0.68249,0.177902,-0.192449,-0.220552,-0.437967,-0.0504743,0.26871
23,45,-0.567232,-0.698132,0.174533,-0.174533,-0.565026,-0.68249,0.17796,-0.192419,-0.220552,-0.437967,-0.0513423,0.268266
23,45,-0.567232,-0.698132,0.174533,-0.174533,-0.565026,-0.68249,0.177886,-0.192389,-0.220552,-0.437967,-0.0502477,0.267826
23,45,-0.567232,-0.698132,0.174533,-0.174533,-0.565026,-0.68249,0.177886,-0.192389,-0.220552,-0.437967,-0.0502477,0.267826
23,45,-0.567232,-0.698132,0.174533,-0.174533,-0.565026,-0.68249,0.177886,-0.192389,-0.220552,-0.437967,-0.0502477,0.267826
23,45,-0.567232,-0.698132,0.174533,-0.174533,-0.565026,-0.68249,0.177886,-0.192389,-0.220552,-0.437967,-0.0502477,0.267826
23,45,-0.567232,-0.698132,0.174533,-0.174533,-0.565026,-0.68249,0.177886,-0.192389,-0.220552,-0.437967,-0.0502477,0.267826
23,45,-0.567232,-0.698132,0.174533,-0.174533,-0.565026,-0.68249,0.177886,-0.192389,-0.220552,-0.437967,-0.0502477,0.267826
23,45,-0.567232,-0.698132,0.174533,-0.174533,-0.565026,-0.68249,0.177886,-0.192389,-0.220552,-0.437967,-0.0502477,0.267826
23,45,-0.567232,-0.698132,0.174533,-0.174533,-0.565026,-0.68249,0.177886,-0.192389,-0.220552,-0.437967,-0.0502477,0.267826
23,45,-0.567232,-0.698132,0.174533,-0.174533,-0.565026,-0.68249,0.177886,-0.192389,-0.220552,-0.437967,-0.0502477,0.267826
23,45,-0.567232,-0.698132,0.174533,-0.174533,-0.565026,-0.68249,0.177886,-0.192389,-0.220552,-0.437967,-0.0502477,0.267826
23,45,-0.567232,-0.698132,0.174533,-0.174533,-0.565026,-0.68249,0.177812,-0.19236,-0.220552,-0.437967,-0.0491437,0.267383
23,45,-0.567232,-0.698132,0.174533,-0.174533,-0.565026,-0.68249,0.177812,-0.19236,-0.220552,-0.437967,-0.0491437,0.267383
23,45,-0.567232,-0.698132,0.174533,-0.174533,-0.565026,-0.68249,0.177812,-0.19236,-0.220552,-0.437967,-0.0491437,0.267383
23,45,-0.567232,-0.698132,0.174533,-0.174533,-0.565026,-0.68249,0.177812,-0.19236,-0.220552,-0.437967,-0.0491437,0.267383
23,45,-0.567232,-0.698132,0.174533,-0.174533,-0.565026,-0.68249,0.177812,-0.19236,-0.220552,-0.437967,-0.0491437,0.267383
23,45,-0.567232,-0.698132,0.174533,-0.174533,-0.565026,-0.68249,0.17787,-0.19233,-0.220552,-0.437967,-0.0500116,0.266938
23,45,-0.567232,-0.698132,0.174533,-0.174533,-0.565026,-0.68249,0.17787,-0.19233,-0.220552,-0.437967,-0.0500116,0.266938
23,45,-0.567232,-0.698132,0.174533,-0.174533,-0.565026,-0.68249,0.17787,-0.19233,-0.220552,-0.437967,-0.0500116,0.266938
23,45,-0.567232,-0.698132,0.174533,-0.174533,-0.565026,-0.68249,0.17787,-0.19233,-0.220552,-0.437967,-0.0500116,0.266938
23,45,-0.567232,-0.698132,0.174533,-0.174533,-0.565026,-0.68249,0.17787,-0.19233,-0.220552,-0.437967,-0.0500116,0.266938
23,45,-0.567232,-0.698132,0.174533,-0.174533,-0.565026,-0.68249,0.17787,-0.19233,-0.220552,-0.437967,-0.0500116,0.266938
23,45,-0.567232,-0.698132,0.174533,-0.174533,-0.565026,-0.68249,0.17787,-0.19233,-0.220552,-0.437967,-0.0500116,0.266938
23,45,-0.567232,-0.698132,0.174533,-0.174533,-0.565026,-0.68249,0.17787,-0.19233,-0.220552,-0.437967,-0.0500116,0.266938
23,45,-0.567232,-0.698132,0.174533,-0.174533,-0.565026,-0.68249,0.177796,-0.1923,-0.220552,-0.437967,-0.0489055,0.266494
23,45,-0.567232,-0.698132,0.174533,-0.174533,-0.565026,-0.68249,0.177796,-0.1923,-0.220552,-0.437967,-0.0489055,0.266494
23,45,-0.567232,-0.698132,0.174533,-0.174533,-0.565026,-0.68249,0.177796,-0.1923,-0.220552,-0.437967,-0.0489055,0.266494
23,45,-0.567232,-0.698132,0.174533,-0.174533,-0.565026,-0.68249,0.177796,-0.1923,-0.220552,-0.437967,-0.0489055,0.266494
23,45,-0.567232,-0.698132,0.174533,-0.174533,-0.565026,-0.68249,0.177796,-0.1923,-0.220552,-0.437967,-0.0489055,0.266494
23,45,-0.567232,-0.698132,0.174533,-0.174533,-0.565026,-0.68249,0.177796,-0.1923,-0.220552,-0.437967,-0.0489055,0.266494
23,45,-0.567232,-0.698132,0.174533,-0.174533,-0.565026,-0.68249,0.177796,-0.1923,-0.220552,-0.437967,-0.0489055,0.266494
23,45,-0.567232,-0.698132,0.174533,-0.174533,-0.565026,-0.68249,0.177796,-0.1923,-0.220552,-0.437967,-0.0489055,0.266494
23,45,-0.567232,-0.698132,0.174533,-0.174533,-0.565026,-0.68249,0.177854,-0.192271,-0.220552,-0.437967,-0.0497734,0.26605
23,45,-0.567232,-0.698132,0.174533,-0.174533,-0.565026,-0.68249,0.177854,-0.192271,-0.220552,-0.437967,-0.0497734,0.26605
23,45,-0.567232,-0.698132,0.174533,-0.174533,-0.565026,-0.68249,0.177854,-0.192271,-0.220552,-0.437967,-0.0497734,0.26605
23,45,-0.567232,-0.698132,0.174533,-0.174533,-0.565026,-0.68249,0.177854,-0.192271,-0.220552,-0.437967,-0.0497734,0.26605
23,45,-0.567232,-0.698132,0.174533,-0.174533,-0.565026,-0.68249,0.177854,-0.192271,-0.220552,-0.437967,-0.0497734,0.26605
23,45,-0.567232,-0.698132,0.174533,-0.174533,-0.565026,-0.68249,0.177854,-0.192271,-0.220552,-0.437967,-0.0497734,0.26605
23,45,-0.567232,-0.698132,0.174533,-0.174533,-0.565026,-0.68249,0.17778,-0.192241,-0.220552,-0.437967,-0.0486583,0.265602
23,45,-0.567232,-0.698132,0.174533,-0.174533,-0.565026,-0.68249,0.17778,-0.192241,-0.220552,-0.437967,-0.0486583,0.265602
23,45,-0.567232,-0.698132,0.174533,-0.174533,-0.565026,-0.68249,0.17778,-0.192241,-0.220552,-0.437967,-0.0486583,0.265602
23,45,-0.567232,-0.698132,0.174533,-0.174533,-0.565026,-0.68249,0.17778,-0.192241,-0.220552,-0.437967,-0.0486583,0.265602
23,45,-0.567232,-0.698132,0.174533,-0.174533,-0.565026,-0.68249,0.17778,-0.192241,-0.220552,-0.437967,-0.0486583,0.265602
23,45,-0.567232,-0.698132,0.174533,-0.174533,-0.565026,-0.68249,0.17778,-0.192241,-0.220552,-0.437967,-0.0486583,0.265602
23,45,-0.567232,-0.698132,0.174533,-0.174533,-0.565026,-0.68249,0.17778,-0.192241,-0.220552,-0.437967,-0.0486583,0.265602
23,45,-0.567232,-0.698132,0.174533,-0.174533,-0.565026,-0.68249,0.17778,-0.192241,-0.220552,-0.437967,-0.0486583,0.265602
23,45,-0.567232,-0.698132,0.174533,-0.174533,-0.565026,-0.68249,0.177838,-0.192211,-0.220552,-0.437967,-0.0495556,0.265142
23,45,-0.567232,-0.698132,0.174533,-0.174533,-0.565026,-0.68249,0.177838,-0.192211,-0.220552,-0.437967,-0.0495556,0.265142
23,45,-0.567232,-0.698132,0.174533,-0.174533,-0.565026,-0.68249,0.177838,-0.192211,-0.220552,-0.437967,-0.0495556,0.265142
23,45,-0.567232,-0.698132,0.174533,-0.174533,-0.565026,-0.68249,0.177838,-0.192211,-0.220552,-0.437967,-0.0495556,0.265142
23,45,-0.567232,-0.698132,0.174533,-0.174533,-0.565026,-0.68249,0.177838,-0.192211,-0.220552,-0.437967,-0.0495556,0.265142
23,45,-0.567232,-0.698132,0.174533,-0.174533,-0.565026,-0.68249,0.177838,-0.192211,-0.220552,-0.437967,-0.0495556,0.265142
23,45,-0.567232,-0.698132,0.174533,-0.174533,-0.565026,-0.68249,0.177838,-0.192211,-0.220552,-0.437967,-0.0495556,0.265142
23,45,-0.567232,-0.698132,0.174533,-0.174533,-0.565026,-0.68249,0.177838,-0.192211,-0.220552,-0.437967,-0.0495556,0.265142
23,45,-0.567232,-0.698132,0.174533,-0.174533,-0.565026,-0.68249,0.177896,-0.192182,-0.220552,-0.437967,-0.0504375,0.264691
23,45,-0.567232,-0.698132,0.174533,-0.174533,-0.565026,-0.68249,0.177896,-0.192182,-0.220552,-0.437967,-0.0504375,0.264691
23,45,-0.567232,-0.698132,0.174533,-0.174533,-0.565026,-0.68249,0.177896,-0.192182,-0.220552,-0.437967,-0.0504375,0.264691
23,45,-0.567232,-0.698132,0.174533,-0.174533,-0.565026,-0.68249,0.177896,-0.192182,-0.220552,-0.437967,-0.0504375,0.264691
23,45,-0.567232,-0.698132,0.174533,-0.174533,-0.565026,-0.68249,0.177896,-0.192182,-0.220552,-0.437967,-0.0504375,0.264691
23,45,-0.567232,-0.698132,0.174533,-0.174533,-0.565026,-0.68249,0.177822,-0.192152,-0.220552,-0.437967,-0.049328,0.264245
23,45,-0.567232,-0.698132,0.174533,-0.174533,-0.565026,-0.68249,0.177822,-0.192152,-0.220552,-0.437967,-0.049328,0.264245
23,45,-0.567232,-0.698132,0.174533,-0.174533,-0.565026,-0.68249,0.177822,-0.192152,-0.220552,-0.437967,-0.049328,0.264245
23,45,-0.567232,-0.698132,0.174533,-0.174533,-0.565026,-0.68249,0.177822,-0.192152,-0.220552,-0.437967,-0.049328,0.264245
23,45,-0.567232,-0.698132,0.174533,-0.174533,-0.565026,-0.68249,0.177822,-0.192152,-0.220552,-0.437967,-0.049328,0.264245
23,45,-0.567232,-0.698132,0.174533,-0.174533,-0.565026,-0.68249,0.177822,-0.192152,-0.220552,-0.437967,-0.049328,0.264245
23,45,-0.567232,-0.698132,0.174533,-0.174533,-0.565026,-0.68249,0.177822,-0.192152,-0.220552,-0.437967,-0.049328,0.264245
23,45,-0.567232,-0.698132,0.174533,-0.174533,-0.565026,-0.68249,0.177822,-0.192152,-0.220552,-0.437967,-0.049328,0.264245
23,45,-0.567232,-0.698132,0.174533,-0.174533,-0.565026,-0.68249,0.177822,-0.192152,-0.220552,-0.437967,-0.049328,0.264245
23,45,-0.567232,-0.698132,0.174533,-0.174533,-0.565026,-0.68249,0.177822,-0.192152,-0.220552,-0.437967,-0.049328,0.264245
23,45,-0.567232,-0.698132,0.174533,-0.174533,-0.565026,-0.68249,0.177822,-0.192152,-0.220552,-0.437967,-0.049328,0.264245
23,45,-0.567232,-0.698132,0.174533,-0.174533,-0.565026,-0.68249,0.177822,-0.192152,-0.220552,-0.437967,-0.049328,0.264245
23,45,-0.567232,-0.698132,0.174533,-0.174533,-0.565026,-0.68249,0.177822,-0.192152,-0.220552,-0.437967,-0.049328,0.264245
23,45,-0.567232,-0.698132,0.174533,-0.174533,-0.565026,-0.68249,0.177822,-0.192152,-0.220552,-0.437967,-0.049328,0.264245
23,45,-0.567232,-0.698132,0.174533,-0.174533,-0.565026,-0.68249,0.177822,-0.192152,-0.220552,-0.437967,-0.049328,0.264245
23,45,-0.567232,-0.698132,0.174533,-0.174533,-0.565026,-0.68249,0.177822,-0.192152,-0.220552,-0.437967,-0.049328,0.264245
23,45,-0.567232,-0.698132,0.174533,-0.174533,-0.565026,-0.68249,0.177822,-0.192152,-0.220552,-0.437967,-0.049328,0.264245
23,45,-0.567232,-0.698132,0.174533,-0.174533,-0.565026,-0.68249,0.177822,-0.192152,-0.220552,-0.437967,-0.049328,0.264245
23,45,-0.567232,-0.698132,0.174533,-0.174533,-0.565026,-0.68249,0.177822,-0.192152,-0.220552,-0.437967,-0.049328,0.264245
23,45,-0.567232,-0.698132,0.174533,-0.174533,-0.565026,-0.68249,0.177822,-0.192152,-0.220552,-0.437967,-0.049328,0.264245
23,45,-0.567232,-0.698132,0.174533,-0.174533,-0.565026,-0.68249,0.177822,-0.192152,-0.220552,-0.437967,-0.049328,0.264245
23,45,-0.567232,-0.698132,0.174533,-0.174533,-0.565026,-0.68249,0.17788,-0.192122,-0.220552,-0.437967,-0.0501885,0.263805
23,45,-0.567232,-0.698132,0.174533,-0.174533,-0.565026,-0.68249,0.17788,-0.192122,-0.220552,-0.437967,-0.0501885,0.263805
23,45,-0.567232,-0.698132,0.174533,-0.174533,-0.565026,-0.68249,0.17788,-0.192122,-0.220552,-0.437967,-0.0501885,0.263805
23,45,-0.567232,-0.698132,0.174533,-0.174533,-0.565026,-0.68249,0.17788,-0.192122,-0.220552,-0.437967,-0.0501885,0.263805
23,45,-0.567232,-0.698132,0.174533,-0.174533,-0.565026,-0.68249,0.17788,-0.192122,-0.220552,-0.437967,-0.0501885,0.263805
23,45,-0.567232,-0.698132,0.174533,-0.174533,-0.565026,-0.68249,0.17788,-0.192122,-0.220552,-0.437967,-0.0501885,0.263805
23,45,-0.567232,-0.698132,0.174533,-0.174533,-0.565026,-0.68249,0.17788,-0.192122,-0.220552,-0.437967,-0.0501885,0.263805
23,45,-0.567232,-0.698132,0.174533,-0.174533,-0.565026,-0.68249,0.17788,-0.192122,-0.220552,-0.437967,-0.0501885,0.263805
23,45,-0.567232,-0.698132,0.174533,-0.174533,-0.565026,-0.68249,0.17788,-0.192122,-0.220552,-0.437967,-0.0501885,0.263805
23,45,-0.567232,-0.698132,0.174533,-0.174533,-0.565026,-0.68249,0.17788,-0.192122,-0.220552,-0.437967,-0.0501885,0.263805
23,45,-0.567232,-0.698132,0.174533,-0.174533,-0.565026,-0.68249,0.17788,-0.192122,-0.220552,-0.437967,-0.0501885,0.263805
23,45,-0.567232,-0.698132,0.174533,-0.174533,-0.565026,-0.68249,0.17788,-0.192122,-0.220552,-0.437967,-0.0501885,0.263805
23,45,-0.567232,-0.698132,0.174533,-0.174533,-0.565026,-0.68249,0.17788,-0.192122,-0.220552,-0.437967,-0.0501885,0.263805
23,45,-0.567232,-0.698132,0.174533,-0.174533,-0.565026,-0.68249,0.17788,-0.192122,-0.220552,-0.437967,-0.0501885,0.263805
23,45,-0.567232,-0.698132,0.174533,-0.174533,-0.565026,-0.68249,0.17788,-0.192122,-0.220552,-0.437967,-0.0501885,0.263805
23,45,-0.567232,-0.698132,0.174533,-0.174533,-0.565026,-0.68249,0.17788,-0.192122,-0.220552,-0.437967,-0.0501885,0.263805
23,45,-0.567232,-0.698132,0.174533,-0.174533,-0.565026,-0.68249,0.17788,-0.192122,-0.220552,-0.437967,-0.0501885,0.263805
23,45,-0.567232,-0.698132,0.174533,-0.174533,-0.565026,-0.68249,0.17788,-0.192122,-0.220552,-0.437967,-0.0501885,0.263805
23,45,-0.567232,-0.698132,0.174533,-0.174533,-0.565026,-0.68249,0.17788,-0.192122,-0.220552,-0.437967,-0.0501885,0.263805
23,45,-0.567232,-0.698132,0.174533,-0.174533,-0.565026,-0.68249,0.17788,-0.192122,-0.220552,-0.437967,-0.0501885,0.263805
23,45,-0.567232,-0.698132,0.174533,-0.174533,-0.565026,-0.68249,0.17788,-0.192122,-0.220552,-0.437967,-0.0501885,0.263805
23,45,-0.567232,-0.698132,0.174533,-0.174533,-0.565026,-0.68249,0.17788,-0.192122,-0.220552,-0.437967,-0.0501885,0.263805
23,45,-0.567232,-0.698132,0.174533,-0.174533,-0.565026,-0.68249,0.17788,-0.192122,-0.220552,-0.437967,-0.0501885,0.263805
23,45,-0.567232,-0.698132,0.174533,-0.174533,-0.565026,-0.68249,0.17788,-0.192122,-0.220552,-0.437967,-0.0501885,0.263805
23,45,-0.567232,-0.698132,0.174533,-0.174533,-0.565026,-0.68249,0.17788,-0.192122,-0.220552,-0.437967,-0.0501885,0.263805
23,45,-0.567232,-0.698132,0.174533,-0.174533,-0.565026,-0.68249,0.17788,-0.192122,-0.220552,-0.437967,-0.0501885,0.263805
23,45,-0.567232,-0.698132,0.174533,-0.174533,-0.565026,-0.68249,0.17788,-0.192122,-0.220552,-0.437967,-0.0501885,0.263805
23,45,-0.567232,-0.698132,0.174533,-0.174533,-0.565026,-0.68249,0.17788,-0.192122,-0.220552,-0.437967,-0.0501885,0.263805
23,45,-0.567232,-0.698132,0.174533,-0.174533,-0.565026,-0.68249,0.17788,-0.192122,-0.220552,-0.437967,-0.0501885,0.263805
23,45,-0.567232,-0.698132,0.174533,-0.174533,-0.565026,-0.68249,0.17788,-0.192122,-0.220552,-0.437967,-0.0501885,0.263805
23,45,-0.567232,-0.698132,0.174533,-0.174533,-0.565026,-0.68249,0.17788,-0.192122,-0.220552,-0.437967,-0.0501885,0.263805
23,45,-0.567232,-0.698132,0.174533,-0.174533,-0.565026,-0.68249,0.17788,-0.192122,-0.220552,-0.437967,-0.0501885,0.263805
23,45,-0.567232,-0.698132,0.174533,-0.174533,-0.565026,-0.68249,0.17788,-0.192122,-0.220552,-0.437967,-0.0501885,0.263805
23,45,-0.567232,-0.698132,0.174533,-0.174533,-0.565026,-0.68249,0.17788,-0.192122,-0.220552,-0.437967,-0.0501885,0.263805
23,45,-0.567232,-0.698132,0.174533,-0.174533,-0.565026,-0.68249,0.17788,-0.192122,-0.220552,-0.437967,-0.0501885,0.263805
23,45,-0.567232,-0.698132,0.174533,-0.174533,-0.565026,-0.68249,0.17788,-0.192122,-0.220552,-0.437967,-0.0501885,0.263805
23,45,-0.567232,-0.698132,0.174533,-0.174533,-0.565026,-0.68249,0.17788,-0.192122,-0.220552,-0.437967,-0.0501885,0.263805
23,45,-0.567232,-0.698132,0.174533,-0.174533,-0.565026,-0.68249,0.17788,-0.192122,-0.220552,-0.437967,-0.0501886,0.263805
23,45,-0.567232,-0.698132,0.174533,-0.174533,-0.565026,-0.68249,0.17788,-0.192122,-0.220552,-0.437967,-0.0501895,0.263805
23,45,-0.567232,-0.698132,0.174533,-0.174533,-0.565026,-0.68249,0.17788,-0.192122,-0.220552,-0.437967,-0.0501903,0.263805
23,45,-0.567232,-0.698132,0.174533,-0.174533,-0.565026,-0.68249,0.17788,-0.192122,-0.220552,-0.437967,-0.0501911,0.263806
23,45,-0.567232,-0.698132,0.174533,-0.174533,-0.565026,-0.68249,0.17788,-0.192122,-0.220552,-0.437967,-0.0501919,0.263806
23,45,-0.567232,-0.698132,0.174533,-0.174533,-0.565026,-0.68249,0.17788,-0.192122,-0.220552,-0.437967,-0.0501926,0.263806
23,45,-0.567232,-0.698132,0.174533,-0.174533,-0.565026,-0.68249,0.17788,-0.192122,-0.220552,-0.437967,-0.0501933,0.263806
23,45,-0.567232,-0.698132,0.174533,-0.174533,-0.565026,-0.68249,0.17788,-0.192122,-0.220552,-0.437967,-0.050194,0.263807
23,45,-0.567232,-0.698132,0.174533,-0.174533,-0.565026,-0.68249,0.17788,-0.192122,-0.220552,-0.437967,-0.0501947,0.263807
23,45,-0.567232,-0.698132,0.174533,-0.174533,-0.565026,-0.68249,0.17788,-0.192122,-0.220552,-0.437967,-0.0501954,0.263807
23,45,-0.567232,-0.698132,0.174533,-0.174533,-0.565026,-0.68249,0.17788,-0.192122,-0.220552,-0.437967,-0.050196,0.263808
23,45,-0.567232,-0.698132,0.174533,-0.174533,-0.565026,-0.68249,0.17788,-0.192122,-0.220552,-0.437967,-0.0501966,0.263808
23,45,-0.567232,-0.698132,0.174533,-0.174533,-0.565026,-0.68249,0.17788,-0.192122,-0.220552,-0.437967,-0.0501972,0.263808
23,45,-0.567232,-0.698132,0.174533,-0.174533,-0.565026,-0.68249,0.17788,-0.192122,-0.220552,-0.437967,-0.0501978,0.263808
23,45,-0.567232,-0.698132,0.174533,-0.174533,-0.565026,-0.68249,0.17788,-0.192122,-0.220552,-0.437967,-0.0501984,0.263809
23,45,-0.567232,-0.698132,0.174533,-0.174533,-0.565026,-0.68249,0.17788,-0.192122,-0.220552,-0.437967,-0.0501989,0.263809
23,45,-0.567232,-0.698132,0.174533,-0.174533,-0.565026,-0.68249,0.17788,-0.192122,-0.220552,-0.437967,-0.0501995,0.263809
23,45,-0.567232,-0.698132,0.174533,-0.174533,-0.565026,-0.68249,0.17788,-0.192122,-0.220552,-0.437967,-0.0502,0.263809
23,45,-0.567232,-0.698132,0.174533,-0.174533,-0.565026,-0.68249,0.17788,-0.192122,-0.220552,-0.437967,-0.0502005,0.263809
23,45,-0.567232,-0.698132,0.174533,-0.174533,-0.565026,-0.68249,0.17788,-0.192122,-0.220552,-0.437967,-0.050201,0.26381
23,45,-0.567232,-0.698132,0.174533,-0.174533,-0.565026,-0.68249,0.17788,-0.192122,-0.220552,-0.437967,-0.0502015,0.26381
23,45,-0.567232,-0.698132,0.174533,-0.174533,-0.565026,-0.68249,0.17788,-0.192122,-0.220552,-0.437967,-0.050202,0.26381
23,45,-0.567232,-0.698132,0.174533,-0.174533,-0.565026,-0.68249,0.17788,-0.192122,-0.220552,-0.437967,-0.0502024,0.26381
23,45,-0.567232,-0.698132,0.174533,-0.174533,-0.565026,-0.68249,0.17788,-0.192122,-0.220552,-0.437967,-0.0502029,0.26381
23,45,-0.567232,-0.698132,0.174533,-0.174533,-0.565026,-0.68249,0.17788,-0.192122,-0.220552,-0.437967,-0.0502033,0.263811
23,45,-0.567232,-0.698132,0.174533,-0.174533,-0.565026,-0.68249,0.17788,-0.192122,-0.220552,-0.437967,-0.0502037,0.263811
23,45,-0.567232,-0.698132,0.174533,-0.174533,-0.565026,-0.68249,0.17788,-0.192122,-0.220552,-0.437967,-0.050239,0.263825
23,45,-0.567232,-0.698132,0.174533,-0.174533,-0.565026,-0.68249,0.17788,-0.192122,-0.220552,-0.437967,-0.0502385,0.263825
23,45,-0.567232,-0.698132,0.174533,-0.174533,-0.565026,-0.68249,0.17788,-0.192122,-0.220552,-0.437967,-0.0502379,0.263825
23,45,-0.567232,-0.698132,0.174533,-0.174533,-0.565026,-0.68249,0.17788,-0.192122,-0.220552,-0.437967,-0.0502374,0.263826
23,45,-0.567232,-0.698132,0.174533,-0.174533,-0.565026,-0.68249,0.17788,-0.192122,-0.220552,-0.437967,-0.0502369,0.263826
23,45,-0.567232,-0.698132,0.174533,-0.174533,-0.565026,-0.68249,0.17788,-0.192122,-0.220552,-0.437967,-0.0502364,0.263826
23,45,-0.567232,-0.698132,0.174533,-0.174533,-0.565026,-0.68249,0.17788,-0.192122,-0.220552,-0.437967,-0.0502359,0.263827
23,45,-0.567232,-0.698132,0.174533,-0.174533,-0.565026,-0.68249,0.17788,-0.192122,-0.220552,-0.437967,-0.0502355,0.263827
23,45,-0.567232,-0.698132,0.174533,-0.174533,-0.565026,-0.68249,0.17788,-0.192122,-0.220552,-0.437967,-0.050235,0.263827
23,45,-0.567232,-0.698132,0.174533,-0.174533,-0.565026,-0.68249,0.17788,-0.192122,-0.220552,-0.437967,-0.0502346,0.263827
23,45,-0.567232,-0.698132,0.174533,-0.174533,-0.565026,-0.68249,0.17788,-0.192122,-0.220552,-0.437967,-0.0502341,0.263827
23,45,-0.567232,-0.698132,0.174533,-0.174533,-0.565026,-0.68249,0.17788,-0.192122,-0.220552,-0.437967,-0.0502337,0.263828
23,45,-0.567232,-0.698132,0.174533,-0.174533,-0.565026,-0.68249,0.17788,-0.192122,-0.220552,-0.437967,-0.0502333,0.263828
23,45,-0.567232,-0.698132,0.174533,-0.174533,-0.565026,-0.68249,0.17788,-0.192122,-0.220552,-0.437967,-0.0502329,0.263828
23,45,-0.567232,-0.698132,0.174533,-0.174533,-0.565026,-0.68249,0.17788,-0.192122,-0.220552,-0.437967,-0.0502325,0.263828
23,45,-0.567232,-0.698132,0.174533,-0.174533,-0.565026,-0.68249,0.17788,-0.192122,-0.220552,-0.437967,-0.0502321,0.263828
23,45,-0.567232,-0.698132,0.174533,-0.174533,-0.565026,-0.68249,0.17788,-0.192122,-0.220552,-0.437967,-0.0502318,0.263829
23,45,-0.567232,-0.698132,0.174533,-0.174533,-0.565026,-0.68249,0.17788,-0.192122,-0.220552,-0.437967,-0.0502314,0.263829
23,45,-0.567232,-0.698132,0.174533,-0.174533,-0.565026,-0.68249,0.17788,-0.192122,-0.220552,-0.437967,-0.0502311,0.263829
23,45,-0.567232,-0.698132,0.174533,-0.174533,-0.565026,-0.68249,0.17788,-0.192122,-0.220552,-0.437967,-0.0502307,0.263829
23,45,-0.567232,-0.698132,0.174533,-0.174533,-0.565026,-0.68249,0.17788,-0.192122,-0.220552,-0.437967,-0.0502304,0.263829
23,45,-0.567232,-0.698132,0.174533,-0.174533,-0.565026,-0.68249,0.17788,-0.192122,-0.220552,-0.437967,-0.0502028,0.263843
23,45,-0.567232,-0.698132,0.174533,-0.174533,-0.565026,-0.68249,0.17788,-0.192122,-0.220552,-0.437967,-0.0502028,0.263843
23,45,-0.567232,-0.698132,0.174533,-0.174533,-0.565026,-0.68249,0.17788,-0.192122,-0.220552,-0.437967,-0.0502028,0.263843
23,45,-0.567232,-0.698132,0.174533,-0.174533,-0.565026,-0.68249,0.17788,-0.192122,-0.220552,-0.437967,-0.0502028,0.263843
23,45,-0.567232,-0.698132,0.174533,-0.174533,-0.565026,-0.68249,0.17788,-0.192122,-0.220552,-0.437967,-0.0502028,0.263843
23,45,-0.567232,-0.698132,0.174533,-0.174533,-0.565026,-0.68249,0.17788,-0.192122,-0.220552,-0.437967,-0.0502028,0.263843
23,45,-0.567232,-0.698132,0.174533,-0.174533,-0.565026,-0.68249,0.17788,-0.192122,-0.220552,-0.437967,-0.0502028,0.263843
23,45,-0.567232,-0.698132,0.174533,-0.174533,-0.565026,-0.68249,0.17788,-0.192122,-0.220552,-0.437967,-0.0502028,0.263843
23,45,-0.567232,-0.698132,0.174533,-0.174533,-0.565026,-0.68249,0.17788,-0.192122,-0.220552,-0.437967,-0.0502028,0.263843
23,45,-0.567232,-0.698132,0.174533,-0.174533,-0.565026,-0.68249,0.17788,-0.192122,-0.220552,-0.437967,-0.0502028,0.263843
23,45,-0.567232,-0.698132,0.174533,-0.174533,-0.565026,-0.68249,0.17788,-0.192122,-0.220552,-0.437967,-0.0502028,0.263843
23,45,-0.567232,-0.698132,0.174533,-0.174533,-0.565026,-0.68249,0.17788,-0.192122,-0.220552,-0.437967,-0.0502028,0.263843
23,45,-0.567232,-0.698132,0.174533,-0.174533,-0.565026,-0.68249,0.17788,-0.192122,-0.220552,-0.437967,-0.0502028,0.263843
23,45,-0.567232,-0.698132,0.174533,-0.174533,-0.565026,-0.68249,0.17788,-0.192122,-0.220552,-0.437967,-0.0502028,0.263843
23,45,-0.567232,-0.698132,0.174533,-0.174533,-0.565026,-0.68249,0.17788,-0.192122,-0.220552,-0.437967,-0.0502028,0.263843
23,45,-0.567232,-0.698132,0.174533,-0.174533,-0.565026,-0.68249,0.17788,-0.192122,-0.220552,-0.437967,-0.0502028,0.263843
23,45,-0.567232,-0.698132,0.174533,-0.174533,-0.565026,-0.68249,0.17788,-0.192122,-0.220552,-0.437967,-0.0502028,0.263843
23,45,-0.567232,-0.698132,0.174533,-0.174533,-0.565026,-0.68249,0.17788,-0.192122,-0.220552,-0.437967,-0.0502028,0.263843
23,45,-0.567232,-0.698132,0.174533,-0.174533,-0.565026,-0.68249,0.17788,-0.192122,-0.220552,-0.437967,-0.0502028,0.263843
23,45,-0.567232,-0.698132,0.174533,-0.174533,-0.565026,-0.68249,0.17788,-0.192122,-0.220552,-0.437967,-0.0502028,0.263843
23,45,-0.567232,-0.698132,0.174533,-0.174533,-0.565026,-0.68249,0.17788,-0.192122,-0.220552,-0.437967,-0.0502028,0.263843
23,45,-0.567232,-0.698132,0.174533,-0.174533,-0.565026,-0.68249,0.17788,-0.192122,-0.220552,-0.437967,-0.0502028,0.263843
23,45,-0.567232,-0.698132,0.174533,-0.174533,-0.565026,-0.68249,0.17788,-0.192122,-0.220552,-0.437967,-0.0502028,0.263843
23,45,-0.567232,-0.698132,0.174533,-0.174533,-0.565026,-0.68249,0.17788,-0.192122,-0.220552,-0.437967,-0.0502028,0.263843
23,45,-0.567232,-0.698132,0.174533,-0.174533,-0.565026,-0.68249,0.17788,-0.192122,-0.220552,-0.437967,-0.0502028,0.263843
23,45,-0.567232,-0.698132,0.174533,-0.174533,-0.565026,-0.68249,0.17788,-0.192122,-0.220552,-0.437967,-0.0502028,0.263843
23,45,-0.567232,-0.698132,0.174533,-0.174533,-0.565026,-0.68249,0.17788,-0.192122,-0.220552,-0.437967,-0.0502028,0.263843
23,45,-0.567232,-0.698132,0.174533,-0.174533,-0.565026,-0.68249,0.17788,-0.192122,-0.220552,-0.437967,-0.0502028,0.263843
23,45,-0.567232,-0.698132,0.174533,-0.174533,-0.565026,-0.68249,0.17788,-0.192122,-0.220552,-0.437967,-0.0502028,0.263843
23,45,-0.567232,-0.698132,0.174533,-0.174533,-0.565026,-0.68249,0.17788,-0.192122,-0.220552,-0.437967,-0.0502028,0.263843
23,45,-0.567232,-0.698132,0.174533,-0.174533,-0.565026,-0.68249,0.17788,-0.192122,-0.220552,-0.437967,-0.0502028,0.263843
23,45,-0.567232,-0.698132,0.174533,-0.174533,-0.565026,-0.68249,0.17788,-0.192122,-0.220552,-0.437967,-0.0502028,0.263843
23,45,-0.567232,-0.698132,0.174533,-0.174533,-0.565026,-0.68249,0.17788,-0.192122,-0.220552,-0.437967,-0.0502028,0.263843
23,45,-0.567232,-0.698132,0.174533,-0.174533,-0.565026,-0.68249,0.17788,-0.192122,-0.220552,-0.437967,-0.0502028,0.263843
23,45,-0.567232,-0.698132,0.174533,-0.174533,-0.565026,-0.68249,0.17788,-0.192122,-0.220552,-0.437967,-0.0502028,0.263843
23,45,-0.567232,-0.698132,0.174533,-0.174533,-0.565026,-0.68249,0.17788,-0.192122,-0.220552,-0.437967,-0.0502028,0.263843
23,45,-0.567232,-0.698132,0.174533,-0.174533,-0.565026,-0.68249,0.17788,-0.192122,-0.220552,-0.437967,-0.0502028,0.263843
23,45,-0.567232,-0.698132,0.174533,-0.174533,-0.565026,-0.68249,0.17788,-0.192122,-0.220552,-0.437967,-0.0502028,0.263843
23,45,-0.567232,-0.698132,0.174533,-0.174533,-0.565026,-0.68249,0.17788,-0.192122,-0.220552,-0.437967,-0.0502028,0.263843
23,45,-0.567232,-0.698132,0.174533,-0.174533,-0.565026,-0.68249,0.17788,-0.192122,-0.220552,-0.437967,-0.0502028,0.263843
23,45,-0.567232,-0.698132,0.174533,-0.174533,-0.565026,-0.68249,0.17788,-0.192122,-0.220552,-0.437967,-0.0502028,0.263843
23,45,-0.567232,-0.698132,0.174533,-0.174533,-0.565026,-0.68249,0.17788,-0.192122,-0.220552,-0.437967,-0.0502028,0.263843
23,45,-0.567232,-0.698132,0.174533,-0.174533,-0.565026,-0.68249,0.17788,-0.192122,-0.220552,-0.437967,-0.0502028,0.263843
23,45,-0.567232,-0.698132,0.174533,-0.174533,-0.565026,-0.68249,0.17788,-0.192122,-0.220552,-0.437967,-0.0502028,0.263843
23,45,-0.567232,-0.698132,0.174533,-0.174533,-0.565026,-0.68249,0.17788,-0.192122,-0.220552,-0.437967,-0.0502028,0.263843
23,45,-0.567232,-0.698132,0.174533,-0.174533,-0.565026,-0.68249,0.17788,-0.192122,-0.220552,-0.437967,-0.0502028,0.263843
23,45,-0.567232,-0.698132,0.174533,-0.174533,-0.565026,-0.68249,0.17788,-0.192122,-0.220552,-0.437967,-0.0502028,0.263843
23,45,-0.567232,-0.698132,0.174533,-0.174533,-0.565026,-0.68249,0.17788,-0.192122,-0.220552,-0.437967,-0.0502028,0.263843
23,45,-0.567232,-0.698132,0.174533,-0.174533,-0.565026,-0.68249,0.17788,-0.192122,-0.220552,-0.437967,-0.0502028,0.263843
23,45,-0.567232,-0.698132,0.174533,-0.174533,-0.565026,-0.68249,0.17788,-0.192122,-0.220552,-0.437967,-0.0502028,0.263843
23,45,-0.567232,-0.698132,0.174533,-0.174533,-0.565026,-0.68249,0.17788,-0.192122,-0.220552,-0.437967,-0.0502028,0.263843
23,45,-0.567232,-0.698132,0.174533,-0.174533,-0.565026,-0.68249,0.17788,-0.192122,-0.220552,-0.437967,-0.0502028,0.263843
23,45,-0.567232,-0.698132,0.174533,-0.174533,-0.565026,-0.68249,0.17788,-0.192122,-0.220552,-0.437967,-0.0502028,0.263843
23,45,-0.567232,-0.698132,0.174533,-0.174533,-0.565026,-0.68249,0.17788,-0.192122,-0.220552,-0.437967,-0.0502028,0.263843
23,45,-0.567232,-0.698132,0.174533,-0.174533,-0.565026,-0.68249,0.17788,-0.192122,-0.220552,-0.437967,-0.0502028,0.263843
23,45,-0.567232,-0.698132,0.174533,-0.174533,-0.565026,-0.68249,0.17788,-0.192122,-0.220552,-0.437967,-0.0502028,0.263843
23,45,-0.567232,-0.698132,0.174533,-0.174533,-0.565026,-0.68249,0.17788,-0.192122,-0.220552,-0.437967,-0.0502028,0.263843
23,45,-0.567232,-0.698132,0.174533,-0.174533,-0.565026,-0.68249,0.17788,-0.192122,-0.220552,-0.437967,-0.0502028,0.263843
23,45,-0.567232,-0.698132,0.174533,-0.174533,-0.565026,-0.68249,0.17788,-0.192122,-0.220552,-0.437967,-0.0502028,0.263843
23,45,-0.567232,-0.698132,0.174533,-0.174533,-0.565026,-0.68249,0.17788,-0.192122,-0.220552,-0.437967,-0.0502028,0.263843
23,45,-0.567232,-0.698132,0.174533,-0.174533,-0.565026,-0.68249,0.17788,-0.192122,-0.220552,-0.437967,-0.0502028,0.263843
23,45,-0.567232,-0.698132,0.174533,-0.174533,-0.565026,-0.68249,0.17788,-0.192122,-0.220552,-0.437967,-0.0502028,0.263843
23,45,-0.567232,-0.698132,0.174533,-0.174533,-0.565026,-0.68249,0.17788,-0.192122,-0.220552,-0.437967,-0.0502028,0.263843
23,45,-0.567232,-0.698132,0.174533,-0.174533,-0.565026,-0.68249,0.17788,-0.192122,-0.220552,-0.437967,-0.0502028,0.263843
23,45,-0.567232,-0.698132,0.174533,-0.174533,-0.565026,-0.68249,0.17788,-0.192122,-0.220552,-0.437967,-0.0502028,0.263843
23,45,-0.567232,-0.698132,0.174533,-0.174533,-0.565026,-0.68249,0.17788,-0.192122,-0.220552,-0.437967,-0.0502028,0.263843
23,45,-0.567232,-0.698132,0.174533,-0.174533,-0.565026,-0.68249,0.17788,-0.192122,-0.220552,-0.437967,-0.0502028,0.263843
23,45,-0.567232,-0.698132,0.174533,-0.174533,-0.565026,-0.68249,0.17788,-0.192122,-0.220552,-0.437967,-0.0502028,0.263843
23,45,-0.567232,-0.698132,0.174533,-0.174533,-0.565026,-0.68249,0.17788,-0.192122,-0.220552,-0.437967,-0.0502028,0.263843
23,45,-0.567232,-0.698132,0.174533,-0.174533,-0.565026,-0.68249,0.17788,-0.192122,-0.220552,-0.437967,-0.0502028,0.263843
23,45,-0.567232,-0.698132,0.174533,-0.174533,-0.565026,-0.68249,0.17788,-0.192122,-0.220552,-0.437967,-0.0502028,0.263843
23,45,-0.567232,-0.698132,0.174533,-0.174533,-0.565026,-0.68249,0.17788,-0.192122,-0.220552,-0.437967,-0.0502028,0.263843
23,45,-0.567232,-0.698132,0.174533,-0.174533,-0.565026,-0.68249,0.17788,-0.192122,-0.220552,-0.437967,-0.0502028,0.263843
23,45,-0.567232,-0.698132,0.174533,-0.174533,-0.565026,-0.68249,0.17788,-0.192122,-0.220552,-0.437967,-0.0502028,0.263843
23,45,-0.567232,-0.698132,0.174533,-0.174533,-0.565026,-0.68249,0.17788,-0.192122,-0.220552,-0.437967,-0.0502028,0.263843
23,45,-0.567232,-0.698132,0.174533,-0.174533,-0.565026,-0.68249,0.17788,-0.192122,-0.220552,-0.437967,-0.0502028,0.263843
23,45,-0.567232,-0.698132,0.174533,-0.174533,-0.565026,-0.68249,0.17788,-0.192122,-0.220552,-0.437967,-0.0502028,0.263843
23,45,-0.567232,-0.698132,0.174533,-0.174533,-0.565026,-0.68249,0.17788,-0.192122,-0.220552,-0.437967,-0.0502028,0.263843
23,45,-0.567232,-0.698132,0.174533,-0.174533,-0.565026,-0.68249,0.17788,-0.192122,-0.220552,-0.437967,-0.0502028,0.263843
23,45,-0.567232,-0.698132,0.174533,-0.174533,-0.565026,-0.68249,0.17788,-0.192122,-0.220552,-0.437967,-0.0502028,0.263843
23,45,-0.567232,-0.698132,0.174533,-0.174533,-0.565026,-0.68249,0.17788,-0.192122,-0.220552,-0.437967,-0.0502028,0.263843
23,45,-0.567232,-0.698132,0.174533,-0.174533,-0.565026,-0.68249,0.17788,-0.192122,-0.220552,-0.437967,-0.0502028,0.263843
23,45,-0.567232,-0.698132,0.174533,-0.174533,-0.565026,-0.68249,0.17788,-0.192122,-0.220552,-0.437967,-0.0502028,0.263843
23,45,-0.567232,-0.698132,0.174533,-0.174533,-0.565026,-0.68249,0.17788,-0.192122,-0.220552,-0.437967,-0.0502028,0.263843
23,45,-0.567232,-0.698132,0.174533,-0.174533,-0.565026,-0.68249,0.17788,-0.192122,-0.220552,-0.437967,-0.0502028,0.263843
23,45,-0.567232,-0.698132,0.174533,-0.174533,-0.565026,-0.68249,0.17788,-0.192122,-0.220552,-0.437967,-0.0502028,0.263843
23,45,-0.567232,-0.698132,0.174533,-0.174533,-0.565026,-0.68249,0.17788,-0.192122,-0.220552,-0.437967,-0.0502028,0.263843
23,45,-0.567232,-0.698132,0.174533,-0.174533,-0.565026,-0.68249,0.17788,-0.192122,-0.220552,-0.437967,-0.0502028,0.263843
23,45,-0.567232,-0.698132,0.174533,-0.174533,-0.565026,-0.68249,0.17788,-0.192122,-0.220552,-0.437967,-0.0502028,0.263843
23,45,-0.567232,-0.698132,0.174533,-0.174533,-0.565026,-0.68249,0.17788,-0.192122,-0.220552,-0.437967,-0.0502028,0.263843
23,45,-0.567232,-0.698132,0.174533,-0.174533,-0.565026,-0.68249,0.17788,-0.192122,-0.220552,-0.437967,-0.0502028,0.263843
23,45,-0.567232,-0.698132,0.174533,-0.174533,-0.565026,-0.68249,0.17788,-0.192122,-0.220552,-0.437967,-0.0502028,0.263843
23,45,-0.567232,-0.698132,0.174533,-0.174533,-0.565026,-0.68249,0.177806,-0.192093,-0.220552,-0.437967,-0.049095,0.263398
23,45,-0.567232,-0.698132,0.174533,-0.174533,-0.565026,-0.68249,0.177806,-0.192093,-0.220552,-0.437967,-0.049095,0.263398
23,45,-0.567232,-0.698132,0.174533,-0.174533,-0.565026,-0.68249,0.177806,-0.192093,-0.220552,-0.437967,-0.049095,0.263398
23,45,-0.567232,-0.698132,0.174533,-0.174533,-0.565026,-0.68249,0.177806,-0.192093,-0.220552,-0.437967,-0.049095,0.263398
23,45,-0.567232,-0.698132,0.174533,-0.174533,-0.565026,-0.68249,0.177806,-0.192093,-0.220552,-0.437967,-0.049095,0.263398
23,45,-0.567232,-0.698132,0.174533,-0.174533,-0.565026,-0.68249,0.177806,-0.192093,-0.220552,-0.437967,-0.049095,0.263398
23,45,-0.567232,-0.698132,0.174533,-0.174533,-0.565026,-0.68249,0.177806,-0.192093,-0.220552,-0.437967,-0.049095,0.263398
23,45,-0.567232,-0.698132,0.174533,-0.174533,-0.565026,-0.68249,0.177732,-0.192063,-0.220552,-0.437967,-0.0479873,0.262953
23,45,-0.567232,-0.698132,0.174533,-0.174533,-0.565026,-0.68249,0.177732,-0.192063,-0.220552,-0.437967,-0.0479873,0.262953
23,45,-0.567232,-0.698132,0.174533,-0.174533,-0.565026,-0.68249,0.177732,-0.192063,-0.220552,-0.437967,-0.0479873,0.262953
23,45,-0.567232,-0.698132,0.174533,-0.174533,-0.565026,-0.68249,0.177732,-0.192063,-0.220552,-0.437967,-0.0479873,0.262953
23,45,-0.567232,-0.698132,0.174533,-0.174533,-0.565026,-0.68249,0.177719,-0.192005,-0.220552,-0.437967,-0.047795,0.262088
23,45,-0.567232,-0.698132,0.174533,-0.174533,-0.565026,-0.68249,0.177719,-0.192005,-0.220552,-0.437967,-0.047795,0.262088
23,45,-0.567232,-0.698132,0.174533,-0.174533,-0.565026,-0.68249,0.177719,-0.192005,-0.220552,-0.437967,-0.047795,0.262088
23,45,-0.567232,-0.698132,0.174533,-0.174533,-0.565026,-0.68249,0.177719,-0.192005,-0.220552,-0.437967,-0.047795,0.262088
23,45,-0.567232,-0.698132,0.174533,-0.174533,-0.565026,-0.68249,0.177645,-0.191976,-0.220552,-0.437967,-0.0466875,0.261643
23,45,-0.567232,-0.698132,0.174533,-0.174533,-0.565026,-0.68249,0.177645,-0.191976,-0.220552,-0.437967,-0.0466875,0.261643
23,45,-0.567232,-0.698132,0.174533,-0.174533,-0.565026,-0.68249,0.177645,-0.191976,-0.220552,-0.437967,-0.0466875,0.261643
23,45,-0.567232,-0.698132,0.174533,-0.174533,-0.565026,-0.68249,0.177645,-0.191976,-0.220552,-0.437967,-0.0466875,0.261643
23,45,-0.567232,-0.698132,0.174533,-0.174533,-0.565026,-0.68249,0.177645,-0.191976,-0.220552,-0.437967,-0.0466875,0.261643
23,45,-0.567232,-0.698132,0.174533,-0.174533,-0.565026,-0.68249,0.177572,-0.191946,-0.220552,-0.437967,-0.0455802,0.261199
23,45,-0.567232,-0.698132,0.174533,-0.174533,-0.565026,-0.68249,0.177572,-0.191946,-0.220552,-0.437967,-0.0455802,0.261199
23,45,-0.567232,-0.698132,0.174533,-0.174533,-0.565026,-0.68249,0.177572,-0.191946,-0.220552,-0.437967,-0.0455802,0.261199
23,45,-0.567232,-0.698132,0.174533,-0.174533,-0.565026,-0.68249,0.177572,-0.191946,-0.220552,-0.437967,-0.0455802,0.261199
23,45,-0.567232,-0.698132,0.174533,-0.174533,-0.565026,-0.68249,0.177572,-0.191946,-0.220552,-0.437967,-0.0455802,0.261199
23,45,-0.567232,-0.698132,0.174533,-0.174533,-0.565026,-0.68249,0.177572,-0.191946,-0.220552,-0.437967,-0.0455802,0.261199
23,45,-0.567232,-0.698132,0.174533,-0.174533,-0.565026,-0.68249,0.177498,-0.191917,-0.220552,-0.437967,-0.0443595,0.260708
23,45,-0.567232,-0.698132,0.174533,-0.174533,-0.565026,-0.68249,0.177498,-0.191917,-0.220552,-0.437967,-0.0443595,0.260708
23,45,-0.567232,-0.698132,0.174533,-0.174533,-0.565026,-0.68249,0.177498,-0.191917,-0.220552,-0.437967,-0.0443595,0.260708
23,45,-0.567232,-0.698132,0.174533,-0.174533,-0.565026,-0.68249,0.177498,-0.191917,-0.220552,-0.437967,-0.0443595,0.260708
23,45,-0.567232,-0.698132,0.174533,-0.174533,-0.565026,-0.68249,0.177498,-0.191917,-0.220552,-0.437967,-0.0443595,0.260708
23,45,-0.567232,-0.698132,0.174533,-0.174533,-0.565026,-0.68249,0.177424,-0.191887,-0.220552,-0.437967,-0.0432421,0.260259
23,45,-0.567232,-0.698132,0.174533,-0.174533,-0.565026,-0.68249,0.177424,-0.191887,-0.220552,-0.437967,-0.0432421,0.260259
23,45,-0.567232,-0.698132,0.174533,-0.174533,-0.565026,-0.68249,0.177424,-0.191887,-0.220552,-0.437967,-0.0432421,0.260259
23,45,-0.567232,-0.698132,0.174533,-0.174533,-0.565026,-0.68249,0.177424,-0.191887,-0.220552,-0.437967,-0.0432421,0.260259
23,45,-0.567232,-0.698132,0.174533,-0.174533,-0.565026,-0.68249,0.177424,-0.191887,-0.220552,-0.437967,-0.0432421,0.260259
23,45,-0.567232,-0.698132,0.174533,-0.174533,-0.565026,-0.68249,0.17735,-0.191857,-0.220552,-0.437967,-0.0421203,0.259808
23,45,-0.567232,-0.698132,0.174533,-0.174533,-0.565026,-0.68249,0.17735,-0.191857,-0.220552,-0.437967,-0.0421203,0.259808
23,45,-0.567232,-0.698132,0.174533,-0.174533,-0.565026,-0.68249,0.17735,-0.191857,-0.220552,-0.437967,-0.0421203,0.259808
23,45,-0.567232,-0.698132,0.174533,-0.174533,-0.565026,-0.68249,0.17735,-0.191857,-0.220552,-0.437967,-0.0421203,0.259808
23,45,-0.567232,-0.698132,0.174533,-0.174533,-0.565026,-0.68249,0.17735,-0.191857,-0.220552,-0.437967,-0.0421203,0.259808
23,45,-0.567232,-0.698132,0.174533,-0.174533,-0.565026,-0.68249,0.17735,-0.191857,-0.220552,-0.437967,-0.0421203,0.259808
23,45,-0.567232,-0.698132,0.174533,-0.174533,-0.565026,-0.68249,0.17735,-0.191857,-0.220552,-0.437967,-0.0421203,0.259808
23,45,-0.567232,-0.698132,0.174533,-0.174533,-0.565026,-0.68249,0.177276,-0.191828,-0.220552,-0.437967,-0.0410258,0.259368
23,45,-0.567232,-0.698132,0.174533,-0.174533,-0.565026,-0.68249,0.177276,-0.191828,-0.220552,-0.437967,-0.0410258,0.259368
23,45,-0.567232,-0.698132,0.174533,-0.174533,-0.565026,-0.68249,0.177276,-0.191828,-0.220552,-0.437967,-0.0410258,0.259368
23,45,-0.567232,-0.698132,0.174533,-0.174533,-0.565026,-0.68249,0.177276,-0.191828,-0.220552,-0.437967,-0.0410258,0.259368
23,45,-0.567232,-0.698132,0.174533,-0.174533,-0.565026,-0.68249,0.177276,-0.191828,-0.220552,-0.437967,-0.0410258,0.259368
23,45,-0.567232,-0.698132,0.174533,-0.174533,-0.565026,-0.68249,0.177276,-0.191828,-0.220552,-0.437967,-0.0410258,0.259368
23,45,-0.567232,-0.698132,0.174533,-0.174533,-0.565026,-0.68249,0.177276,-0.191828,-0.220552,-0.437967,-0.0410258,0.259368
23,45,-0.567232,-0.698132,0.174533,-0.174533,-0.565026,-0.68249,0.177276,-0.191828,-0.220552,-0.437967,-0.0410258,0.259368
23,45,-0.567232,-0.698132,0.174533,-0.174533,-0.565026,-0.68249,0.177276,-0.191828,-0.220552,-0.437967,-0.0410258,0.259368
23,45,-0.567232,-0.698132,0.174533,-0.174533,-0.565026,-0.68249,0.177276,-0.191828,-0.220552,-0.437967,-0.0410258,0.259368
23,45,-0.567232,-0.698132,0.174533,-0.174533,-0.565026,-0.68249,0.177276,-0.191828,-0.220552,-0.437967,-0.0410258,0.259368
23,45,-0.567232,-0.698132,0.174533,-0.174533,-0.565026,-0.68249,0.177276,-0.191828,-0.220552,-0.437967,-0.0410258,0.259368
23,45,-0.567232,-0.698132,0.174533,-0.174533,-0.565026,-0.68249,0.177276,-0.191828,-0.220552,-0.437967,-0.0410258,0.259368
23,45,-0.567232,-0.698132,0.174533,-0.174533,-0.565026,-0.68249,0.177276,-0.191828,-0.220552,-0.437967,-0.0410258,0.259368
23,45,-0.567232,-0.698132,0.174533,-0.174533,-0.565026,-0.68249,0.177276,-0.191828,-0.220552,-0.437967,-0.0410258,0.259368
23,45,-0.567232,-0.698132,0.174533,-0.174533,-0.565026,-0.68249,0.177276,-0.191828,-0.220552,-0.437967,-0.0410258,0.259368
23,45,-0.567232,-0.698132,0.174533,-0.174533,-0.565026,-0.68249,0.177276,-0.191828,-0.220552,-0.437967,-0.0410258,0.259368
23,45,-0.567232,-0.698132,0.174533,-0.174533,-0.565026,-0.68249,0.177276,-0.191828,-0.220552,-0.437967,-0.0410258,0.259368
23,45,-0.567232,-0.698132,0.174533,-0.174533,-0.565026,-0.68249,0.177276,-0.191828,-0.220552,-0.437967,-0.0410258,0.259368
23,45,-0.567232,-0.698132,0.174533,-0.174533,-0.565026,-0.68249,0.177276,-0.191828,-0.220552,-0.437967,-0.0410258,0.259368
23,45,-0.567232,-0.698132,0.174533,-0.174533,-0.565026,-0.68249,0.177276,-0.191828,-0.220552,-0.437967,-0.0410258,0.259368
23,45,-0.567232,-0.698132,0.174533,-0.174533,-0.565026,-0.68249,0.177276,-0.191828,-0.220552,-0.437967,-0.0410258,0.259368
23,45,-0.567232,-0.698132,0.174533,-0.174533,-0.565026,-0.68249,0.177276,-0.191828,-0.220552,-0.437967,-0.0410258,0.259368
23,45,-0.567232,-0.698132,0.174533,-0.174533,-0.565026,-0.68249,0.177276,-0.191828,-0.220552,-0.437967,-0.0410258,0.259368
23,45,-0.567232,-0.698132,0.174533,-0.174533,-0.565026,-0.68249,0.177276,-0.191828,-0.220552,-0.437967,-0.0410307,0.25937
23,45,-0.567232,-0.698132,0.174533,-0.174533,-0.565026,-0.68249,0.177276,-0.191828,-0.220552,-0.437967,-0.0410355,0.259372
23,45,-0.567232,-0.698132,0.174533,-0.174533,-0.565026,-0.68249,0.177276,-0.191828,-0.220552,-0.437967,-0.0410399,0.259374
23,45,-0.567232,-0.698132,0.174533,-0.174533,-0.565026,-0.68249,0.177276,-0.191828,-0.220552,-0.437967,-0.0410445,0.259376
23,45,-0.567232,-0.698132,0.174533,-0.174533,-0.565026,-0.68249,0.177276,-0.191828,-0.220552,-0.437967,-0.0410478,0.259377
23,45,-0.567232,-0.698132,0.174533,-0.174533,-0.565026,-0.68249,0.177203,-0.191798,-0.220552,-0.437967,-0.0399811,0.258949
23,45,-0.567232,-0.698132,0.174533,-0.174533,-0.565026,-0.68249,0.177203,-0.191798,-0.220552,-0.437967,-0.0399811,0.258949
23,45,-0.567232,-0.698132,0.174533,-0.174533,-0.565026,-0.68249,0.177203,-0.191798,-0.220552,-0.437967,-0.0399811,0.258949
23,45,-0.567232,-0.698132,0.174533,-0.174533,-0.565026,-0.68249,0.177203,-0.191798,-0.220552,-0.437967,-0.0399811,0.258949
23,45,-0.567232,-0.698132,0.174533,-0.174533,-0.565026,-0.68249,0.177203,-0.191798,-0.220552,-0.437967,-0.0399811,0.258949
23,45,-0.567232,-0.698132,0.174533,-0.174533,-0.565026,-0.68249,0.177203,-0.191798,-0.220552,-0.437967,-0.0399811,0.258949
23,45,-0.567232,-0.698132,0.174533,-0.174533,-0.565026,-0.68249,0.177203,-0.191798,-0.220552,-0.437967,-0.0399811,0.258949
23,45,-0.567232,-0.698132,0.174533,-0.174533,-0.565026,-0.68249,0.177203,-0.191798,-0.220552,-0.437967,-0.0399811,0.258949
23,45,-0.567232,-0.698132,0.174533,-0.174533,-0.565026,-0.68249,0.177203,-0.191798,-0.220552,-0.437967,-0.0399811,0.258949
23,45,-0.567232,-0.698132,0.174533,-0.174533,-0.565026,-0.68249,0.177203,-0.191798,-0.220552,-0.437967,-0.0399811,0.258949
23,45,-0.567232,-0.698132,0.174533,-0.174533,-0.565026,-0.68249,0.177203,-0.191798,-0.220552,-0.437967,-0.0399811,0.258949
23,45,-0.567232,-0.698132,0.174533,-0.174533,-0.565026,-0.68249,0.177203,-0.191798,-0.220552,-0.437967,-0.0399811,0.258949
23,45,-0.567232,-0.698132,0.174533,-0.174533,-0.565026,-0.68249,0.177203,-0.191798,-0.220552,-0.437967,-0.0399811,0.258949
23,45,-0.567232,-0.698132,0.174533,-0.174533,-0.565026,-0.68249,0.177203,-0.191798,-0.220552,-0.437967,-0.0399811,0.258949
23,45,-0.567232,-0.698132,0.174533,-0.174533,-0.565026,-0.68249,0.177203,-0.191798,-0.220552,-0.437967,-0.0399811,0.258949
23,45,-0.567232,-0.698132,0.174533,-0.174533,-0.565026,-0.68249,0.177203,-0.191798,-0.220552,-0.437967,-0.0399811,0.258949
23,45,-0.567232,-0.698132,0.174533,-0.174533,-0.565026,-0.68249,0.177203,-0.191798,-0.220552,-0.437967,-0.0399811,0.258949
23,45,-0.567232,-0.698132,0.174533,-0.174533,-0.565026,-0.68249,0.177203,-0.191798,-0.220552,-0.437967,-0.0399811,0.258949
23,45,-0.567232,-0.698132,0.174533,-0.174533,-0.565026,-0.68249,0.177203,-0.191798,-0.220552,-0.437967,-0.0399811,0.258949
23,45,-0.567232,-0.698132,0.174533,-0.174533,-0.565026,-0.68249,0.177203,-0.191798,-0.220552,-0.437967,-0.0399811,0.258949
23,45,-0.567232,-0.698132,0.174533,-0.174533,-0.565026,-0.68249,0.177203,-0.191798,-0.220552,-0.437967,-0.0399811,0.258949
23,45,-0.567232,-0.698132,0.174533,-0.174533,-0.565026,-0.68249,0.177203,-0.191798,-0.220552,-0.437967,-0.0399811,0.258949
23,45,-0.567232,-0.698132,0.174533,-0.174533,-0.565026,-0.68249,0.177203,-0.191798,-0.220552,-0.437967,-0.0399811,0.258949
23,45,-0.567232,-0.698132,0.174533,-0.174533,-0.565026,-0.68249,0.177203,-0.191798,-0.220552,-0.437967,-0.0399811,0.258949
23,45,-0.567232,-0.698132,0.174533,-0.174533,-0.565026,-0.68249,0.17726,-0.191768,-0.220552,-0.437967,-0.0408485,0.258504
23,45,-0.567232,-0.698132,0.174533,-0.174533,-0.565026,-0.68249,0.17726,-0.191768,-0.220552,-0.437967,-0.0408485,0.258504
23,45,-0.567232,-0.698132,0.174533,-0.174533,-0.565026,-0.68249,0.17726,-0.191768,-0.220552,-0.437967,-0.0408485,0.258504
23,45,-0.567232,-0.698132,0.174533,-0.174533,-0.565026,-0.68249,0.17726,-0.191768,-0.220552,-0.437967,-0.0408485,0.258504
23,45,-0.567232,-0.698132,0.174533,-0.174533,-0.565026,-0.68249,0.17726,-0.191768,-0.220552,-0.437967,-0.0408485,0.258504
23,45,-0.567232,-0.698132,0.174533,-0.174533,-0.565026,-0.68249,0.17726,-0.191768,-0.220552,-0.437967,-0.0408485,0.258504
23,45,-0.567232,-0.698132,0.174533,-0.174533,-0.565026,-0.68249,0.17726,-0.191768,-0.220552,-0.437967,-0.0408485,0.258504
23,45,-0.567232,-0.698132,0.174533,-0.174533,-0.565026,-0.68249,0.17726,-0.191768,-0.220552,-0.437967,-0.0408485,0.258504
23,45,-0.567232,-0.698132,0.174533,-0.174533,-0.565026,-0.68249,0.177187,-0.191739,-0.220552,-0.437967,-0.0397663,0.258069
23,45,-0.567232,-0.698132,0.174533,-0.174533,-0.565026,-0.68249,0.177187,-0.191739,-0.220552,-0.437967,-0.0397663,0.258069
23,45,-0.567232,-0.698132,0.174533,-0.174533,-0.565026,-0.68249,0.177187,-0.191739,-0.220552,-0.437967,-0.0397663,0.258069
23,45,-0.567232,-0.698132,0.174533,-0.174533,-0.565026,-0.68249,0.177187,-0.191739,-0.220552,-0.437967,-0.0397663,0.258069
23,45,-0.567232,-0.698132,0.174533,-0.174533,-0.565026,-0.68249,0.177187,-0.191739,-0.220552,-0.437967,-0.0397663,0.258069
23,45,-0.567232,-0.698132,0.174533,-0.174533,-0.565026,-0.68249,0.177187,-0.191739,-0.220552,-0.437967,-0.0397663,0.258069
23,45,-0.567232,-0.698132,0.174533,-0.174533,-0.565026,-0.68249,0.177187,-0.191739,-0.220552,-0.437967,-0.0397663,0.258069
23,45,-0.567232,-0.698132,0.174533,-0.174533,-0.565026,-0.68249,0.177187,-0.191739,-0.220552,-0.437967,-0.0397663,0.258069
23,45,-0.567232,-0.698132,0.174533,-0.174533,-0.565026,-0.68249,0.177113,-0.191709,-0.220552,-0.437967,-0.038661,0.257625
23,45,-0.567232,-0.698132,0.174533,-0.174533,-0.565026,-0.68249,0.177113,-0.191709,-0.220552,-0.437967,-0.038661,0.257625
23,45,-0.567232,-0.698132,0.174533,-0.174533,-0.565026,-0.68249,0.177113,-0.191709,-0.220552,-0.437967,-0.038661,0.257625
23,45,-0.567232,-0.698132,0.174533,-0.174533,-0.565026,-0.68249,0.177113,-0.191709,-0.220552,-0.437967,-0.038661,0.257625
23,45,-0.567232,-0.698132,0.174533,-0.174533,-0.565026,-0.68249,0.177113,-0.191709,-0.220552,-0.437967,-0.038661,0.257625
23,45,-0.567232,-0.698132,0.174533,-0.174533,-0.565026,-0.68249,0.177113,-0.191709,-0.220552,-0.437967,-0.038661,0.257625
23,45,-0.567232,-0.698132,0.174533,-0.174533,-0.565026,-0.68249,0.177113,-0.191709,-0.220552,-0.437967,-0.038661,0.257625
23,45,-0.567232,-0.698132,0.174533,-0.174533,-0.565026,-0.68249,0.177039,-0.191679,-0.220552,-0.437967,-0.0375544,0.25718
23,45,-0.567232,-0.698132,0.174533,-0.174533,-0.565026,-0.68249,0.177039,-0.191679,-0.220552,-0.437967,-0.0375544,0.25718
23,45,-0.567232,-0.698132,0.174533,-0.174533,-0.565026,-0.68249,0.177039,-0.191679,-0.220552,-0.437967,-0.0375544,0.25718
23,45,-0.567232,-0.698132,0.174533,-0.174533,-0.565026,-0.68249,0.177039,-0.191679,-0.220552,-0.437967,-0.0375544,0.25718
23,45,-0.567232,-0.698132,0.174533,-0.174533,-0.565026,-0.68249,0.177039,-0.191679,-0.220552,-0.437967,-0.0375544,0.25718
23,45,-0.567232,-0.698132,0.174533,-0.174533,-0.565026,-0.68249,0.177039,-0.191679,-0.220552,-0.437967,-0.0375544,0.25718
23,45,-0.567232,-0.698132,0.174533,-0.174533,-0.565026,-0.68249,0.176965,-0.19165,-0.220552,-0.437967,-0.0364325,0.256729
23,45,-0.567232,-0.698132,0.174533,-0.174533,-0.565026,-0.68249,0.176965,-0.19165,-0.220552,-0.437967,-0.0364325,0.256729
23,45,-0.567232,-0.698132,0.174533,-0.174533,-0.565026,-0.68249,0.176965,-0.19165,-0.220552,-0.437967,-0.0364325,0.256729
23,45,-0.567232,-0.698132,0.174533,-0.174533,-0.565026,-0.68249,0.176953,-0.191592,-0.220552,-0.437967,-0.0362409,0.255864
23,45,-0.567232,-0.698132,0.174533,-0.174533,-0.565026,-0.68249,0.176953,-0.191592,-0.220552,-0.437967,-0.0362409,0.255864
23,45,-0.567232,-0.698132,0.174533,-0.174533,-0.565026,-0.68249,0.176953,-0.191592,-0.220552,-0.437967,-0.0362409,0.255864
23,45,-0.567232,-0.698132,0.174533,-0.174533,-0.565026,-0.68249,0.176879,-0.191562,-0.220552,-0.437967,-0.0350809,0.255398
23,45,-0.567232,-0.698132,0.174533,-0.174533,-0.565026,-0.68249,0.176879,-0.191562,-0.220552,-0.437967,-0.0350809,0.255398
23,45,-0.567232,-0.698132,0.174533,-0.174533,-0.565026,-0.68249,0.176879,-0.191562,-0.220552,-0.437967,-0.0350809,0.255398
23,45,-0.567232,-0.698132,0.174533,-0.174533,-0.565026,-0.68249,0.176879,-0.191562,-0.220552,-0.437967,-0.0350809,0.255398
23,45,-0.567232,-0.698132,0.174533,-0.174533,-0.565026,-0.68249,0.176879,-0.191562,-0.220552,-0.437967,-0.0350809,0.255398
23,45,-0.567232,-0.698132,0.174533,-0.174533,-0.565026,-0.68249,0.176805,-0.191533,-0.220552,-0.437967,-0.0339592,0.254947
23,45,-0.567232,-0.698132,0.174533,-0.174533,-0.565026,-0.68249,0.176805,-0.191533,-0.220552,-0.437967,-0.0339592,0.254947
23,45,-0.567232,-0.698132,0.174533,-0.174533,-0.565026,-0.68249,0.176805,-0.191533,-0.220552,-0.437967,-0.0339592,0.254947
23,45,-0.567232,-0.698132,0.174533,-0.174533,-0.565026,-0.68249,0.176805,-0.191533,-0.220552,-0.437967,-0.0339592,0.254947
23,45,-0.567232,-0.698132,0.174533,-0.174533,-0.565026,-0.68249,0.176731,-0.191503,-0.220552,-0.437967,-0.0328409,0.254498
23,45,-0.567232,-0.698132,0.174533,-0.174533,-0.565026,-0.68249,0.176731,-0.191503,-0.220552,-0.437967,-0.0328409,0.254498
23,45,-0.567232,-0.698132,0.174533,-0.174533,-0.565026,-0.68249,0.176731,-0.191503,-0.220552,-0.437967,-0.0328409,0.254498
23,45,-0.567232,-0.698132,0.174533,-0.174533,-0.565026,-0.68249,0.176731,-0.191503,-0.220552,-0.437967,-0.0328409,0.254498
23,45,-0.567232,-0.698132,0.174533,-0.174533,-0.565026,-0.68249,0.176731,-0.191503,-0.220552,-0.437967,-0.0328409,0.254498
23,45,-0.567232,-0.698132,0.174533,-0.174533,-0.565026,-0.68249,0.176731,-0.191503,-0.220552,-0.437967,-0.0328409,0.254498
23,45,-0.567232,-0.698132,0.174533,-0.174533,-0.565026,-0.68249,0.176731,-0.191503,-0.220552,-0.437967,-0.0328409,0.254498
23,45,-0.567232,-0.698132,0.174533,-0.174533,-0.565026,-0.68249,0.176731,-0.191503,-0.220552,-0.437967,-0.0328409,0.254498
23,45,-0.567232,-0.698132,0.174533,-0.174533,-0.565026,-0.68249,0.176731,-0.191503,-0.220552,-0.437967,-0.0328409,0.254498
23,45,-0.567232,-0.698132,0.174533,-0.174533,-0.565026,-0.68249,0.176731,-0.191503,-0.220552,-0.437967,-0.0328409,0.254498
23,45,-0.567232,-0.698132,0.174533,-0.174533,-0.565026,-0.68249,0.176731,-0.191503,-0.220552,-0.437967,-0.0328409,0.254498
23,45,-0.567232,-0.698132,0.174533,-0.174533,-0.565026,-0.68249,0.176731,-0.191503,-0.220552,-0.437967,-0.0328409,0.254498
23,45,-0.567232,-0.698132,0.174533,-0.174533,-0.565026,-0.68249,0.176731,-0.191503,-0.220552,-0.437967,-0.0328409,0.254498
