stim_pw [us],stim_amp [mA],com_elbow_fe [rad],com_forearm_ps [rad],com_wrist_fe [rad],com_wrist_ru [rad],act_elbow_fe [rad],act_forearm_ps [rad],act_wrist_fe [rad],act_wrist_ru [rad],elbow_fe_trq [Nm],forearm_ps_trq [Nm],wrist_fe_trq [Nm],wrist_ru_trq [Nm]
26,60,-0.0872665,0.698132,-0.174533,-0.174533,-0.110886,0.688438,-0.154476,-0.201456,4.72398,0.543132,-0.601741,0.807683
26,60,-0.0872665,0.698132,-0.174533,-0.174533,-0.110886,0.688438,-0.154476,-0.201456,4.72398,0.543132,-0.601741,0.807683
26,60,-0.0872665,0.698132,-0.174533,-0.174533,-0.110886,0.688438,-0.154476,-0.201456,4.72398,0.543132,-0.601741,0.807683
26,60,-0.0872665,0.698132,-0.174533,-0.174533,-0.110886,0.688438,-0.154476,-0.201456,4.72398,0.543132,-0.601741,0.807683
26,60,-0.0872665,0.698132,-0.174533,-0.174533,-0.110886,0.688438,-0.154476,-0.201456,4.72398,0.543132,-0.601741,0.807683
26,60,-0.0872665,0.698132,-0.174533,-0.174533,-0.110886,0.688438,-0.154476,-0.201456,4.72398,0.543132,-0.601741,0.807683
26,60,-0.0872665,0.698132,-0.174533,-0.174533,-0.110886,0.688438,-0.154479,-0.201515,4.72398,0.543132,-0.601648,0.809489
26,60,-0.0872665,0.698132,-0.174533,-0.174533,-0.110886,0.688438,-0.154479,-0.201515,4.72398,0.543132,-0.601648,0.809489
26,60,-0.0872665,0.698132,-0.174533,-0.174533,-0.110886,0.688438,-0.154479,-0.201515,4.72398,0.543132,-0.601648,0.809489
26,60,-0.0872665,0.698132,-0.174533,-0.174533,-0.110886,0.688438,-0.154479,-0.201515,4.72398,0.543132,-0.601648,0.809489
26,60,-0.0872665,0.698132,-0.174533,-0.174533,-0.110886,0.688438,-0.154479,-0.201515,4.72398,0.543132,-0.601648,0.809489
26,60,-0.0872665,0.698132,-0.174533,-0.174533,-0.110886,0.688438,-0.154479,-0.201515,4.72398,0.543132,-0.601648,0.809489
26,60,-0.0872665,0.698132,-0.174533,-0.174533,-0.110886,0.688438,-0.154479,-0.201515,4.72398,0.543132,-0.601648,0.809489
26,60,-0.0872665,0.698132,-0.174533,-0.174533,-0.110886,0.688438,-0.154479,-0.201515,4.72398,0.543132,-0.601648,0.809489
26,60,-0.0872665,0.698132,-0.174533,-0.174533,-0.110886,0.688388,-0.154479,-0.201515,4.72398,0.545863,-0.601648,0.809489
26,60,-0.0872665,0.698132,-0.174533,-0.174533,-0.110886,0.688388,-0.154479,-0.201515,4.72398,0.545863,-0.601648,0.809489
26,60,-0.0872665,0.698132,-0.174533,-0.174533,-0.110886,0.688388,-0.154479,-0.201515,4.72398,0.545863,-0.601648,0.809489
26,60,-0.0872665,0.698132,-0.174533,-0.174533,-0.110886,0.688388,-0.154479,-0.201515,4.72398,0.545863,-0.601648,0.809489
26,60,-0.0872665,0.698132,-0.174533,-0.174533,-0.110886,0.688388,-0.154479,-0.201515,4.72398,0.545863,-0.601648,0.809489
26,60,-0.0872665,0.698132,-0.174533,-0.174533,-0.110886,0.688388,-0.154479,-0.201515,4.72398,0.545863,-0.601648,0.809489
26,60,-0.0872665,0.698132,-0.174533,-0.174533,-0.110886,0.688388,-0.154479,-0.201515,4.72398,0.545863,-0.601648,0.809489
26,60,-0.0872665,0.698132,-0.174533,-0.174533,-0.110886,0.688388,-0.154482,-0.201575,4.72398,0.545863,-0.601555,0.811285
26,60,-0.0872665,0.698132,-0.174533,-0.174533,-0.110886,0.688388,-0.154482,-0.201575,4.72398,0.545863,-0.601555,0.811285
26,60,-0.0872665,0.698132,-0.174533,-0.174533,-0.110886,0.688388,-0.154482,-0.201575,4.72398,0.545863,-0.601555,0.811285
26,60,-0.0872665,0.698132,-0.174533,-0.174533,-0.110886,0.688388,-0.154482,-0.201575,4.72398,0.545863,-0.601555,0.811285
26,60,-0.0872665,0.698132,-0.174533,-0.174533,-0.110886,0.688388,-0.154482,-0.201575,4.72398,0.545863,-0.601555,0.811285
26,60,-0.0872665,0.698132,-0.174533,-0.174533,-0.110886,0.688388,-0.154482,-0.201575,4.72398,0.545863,-0.601555,0.811285
26,60,-0.0872665,0.698132,-0.174533,-0.174533,-0.110886,0.688388,-0.154482,-0.201575,4.72398,0.545863,-0.601555,0.811285
26,60,-0.0872665,0.698132,-0.174533,-0.174533,-0.110886,0.688388,-0.154482,-0.201575,4.72398,0.545863,-0.601555,0.811285
26,60,-0.0872665,0.698132,-0.174533,-0.174533,-0.110886,0.688388,-0.154482,-0.201575,4.72398,0.545863,-0.601555,0.811285
26,60,-0.0872665,0.698132,-0.174533,-0.174533,-0.110886,0.688388,-0.154482,-0.201575,4.72398,0.545863,-0.601555,0.811285
26,60,-0.0872665,0.698132,-0.174533,-0.174533,-0.110886,0.688388,-0.154482,-0.201575,4.72398,0.545863,-0.601555,0.811285
26,60,-0.0872665,0.698132,-0.174533,-0.174533,-0.110886,0.688388,-0.154482,-0.201575,4.72398,0.545863,-0.601555,0.811285
26,60,-0.0872665,0.698132,-0.174533,-0.174533,-0.110886,0.688388,-0.154482,-0.201575,4.72398,0.545863,-0.601555,0.811285
26,60,-0.0872665,0.698132,-0.174533,-0.174533,-0.110886,0.688388,-0.154482,-0.201575,4.72398,0.545863,-0.601555,0.811285
26,60,-0.0872665,0.698132,-0.174533,-0.174533,-0.110886,0.688388,-0.154482,-0.201575,4.72398,0.545863,-0.601555,0.811285
26,60,-0.0872665,0.698132,-0.174533,-0.174533,-0.110886,0.688388,-0.154482,-0.201575,4.72398,0.545863,-0.601555,0.811285
26,60,-0.0872665,0.698132,-0.174533,-0.174533,-0.110886,0.688388,-0.154482,-0.201575,4.72398,0.545863,-0.601555,0.811285
26,60,-0.0872665,0.698132,-0.174533,-0.174533,-0.110886,0.688388,-0.154482,-0.201575,4.72398,0.545863,-0.601555,0.811285
26,60,-0.0872665,0.698132,-0.174533,-0.174533,-0.110886,0.688388,-0.154482,-0.201575,4.72398,0.545863,-0.601555,0.811285
26,60,-0.0872665,0.698132,-0.174533,-0.174533,-0.110886,0.688388,-0.154482,-0.201575,4.72398,0.545863,-0.601555,0.811285
26,60,-0.0872665,0.698132,-0.174533,-0.174533,-0.110886,0.688388,-0.154482,-0.201575,4.72398,0.545863,-0.601555,0.811285
26,60,-0.0872665,0.698132,-0.174533,-0.174533,-0.110886,0.688388,-0.154482,-0.201575,4.72398,0.545863,-0.601555,0.811285
26,60,-0.0872665,0.698132,-0.174533,-0.174533,-0.110886,0.688388,-0.154482,-0.201575,4.72398,0.545863,-0.601555,0.811285
26,60,-0.0872665,0.698132,-0.174533,-0.174533,-0.110886,0.688388,-0.154482,-0.201575,4.72398,0.545863,-0.601555,0.811285
26,60,-0.0872665,0.698132,-0.174533,-0.174533,-0.110886,0.688388,-0.154482,-0.201575,4.72398,0.545863,-0.601555,0.811285
26,60,-0.0872665,0.698132,-0.174533,-0.174533,-0.110886,0.688388,-0.154482,-0.201575,4.72398,0.545863,-0.601555,0.811285
26,60,-0.0872665,0.698132,-0.174533,-0.174533,-0.110886,0.688388,-0.154482,-0.201575,4.72398,0.545863,-0.601555,0.811285
26,60,-0.0872665,0.698132,-0.174533,-0.174533,-0.110886,0.688388,-0.154482,-0.201575,4.72398,0.545863,-0.601555,0.811285
26,60,-0.0872665,0.698132,-0.174533,-0.174533,-0.110886,0.688388,-0.154482,-0.201575,4.72398,0.545863,-0.601555,0.811285
26,60,-0.0872665,0.698132,-0.174533,-0.174533,-0.110886,0.688388,-0.154482,-0.201575,4.72398,0.545863,-0.601555,0.811285
26,60,-0.0872665,0.698132,-0.174533,-0.174533,-0.110886,0.688388,-0.154482,-0.201575,4.72398,0.545863,-0.601555,0.811285
26,60,-0.0872665,0.698132,-0.174533,-0.174533,-0.110886,0.688388,-0.154482,-0.201575,4.72398,0.545863,-0.601555,0.811285
26,60,-0.0872665,0.698132,-0.174533,-0.174533,-0.110886,0.688388,-0.154482,-0.201575,4.72398,0.545863,-0.601555,0.811285
26,60,-0.0872665,0.698132,-0.174533,-0.174533,-0.110886,0.688388,-0.154482,-0.201575,4.72398,0.545863,-0.601555,0.811285
26,60,-0.0872665,0.698132,-0.174533,-0.174533,-0.110886,0.688388,-0.154482,-0.201575,4.72398,0.545863,-0.601555,0.811285
26,60,-0.0872665,0.698132,-0.174533,-0.174533,-0.110886,0.688388,-0.154482,-0.201575,4.72398,0.545863,-0.601555,0.811285
26,60,-0.0872665,0.698132,-0.174533,-0.174533,-0.110886,0.688388,-0.154482,-0.201575,4.72398,0.545863,-0.601555,0.811285
26,60,-0.0872665,0.698132,-0.174533,-0.174533,-0.110886,0.688388,-0.154482,-0.201575,4.72398,0.545863,-0.601555,0.811285
26,60,-0.0872665,0.698132,-0.174533,-0.174533,-0.110886,0.688388,-0.154482,-0.201575,4.72398,0.545863,-0.601555,0.811285
26,60,-0.0872665,0.698132,-0.174533,-0.174533,-0.110886,0.688388,-0.154482,-0.201575,4.72398,0.545863,-0.601555,0.811285
26,60,-0.0872665,0.698132,-0.174533,-0.174533,-0.110886,0.688388,-0.154482,-0.201575,4.72398,0.545863,-0.601555,0.811285
26,60,-0.0872665,0.698132,-0.174533,-0.174533,-0.110886,0.688388,-0.154485,-0.201635,4.72398,0.545863,-0.601461,0.813105
26,60,-0.0872665,0.698132,-0.174533,-0.174533,-0.110886,0.688388,-0.154485,-0.201635,4.72398,0.545863,-0.601461,0.813105
26,60,-0.0872665,0.698132,-0.174533,-0.174533,-0.110886,0.688388,-0.154485,-0.201635,4.72398,0.545863,-0.601461,0.813105
26,60,-0.0872665,0.698132,-0.174533,-0.174533,-0.110886,0.688388,-0.154485,-0.201635,4.72398,0.545863,-0.601461,0.813105
26,60,-0.0872665,0.698132,-0.174533,-0.174533,-0.110886,0.688388,-0.154485,-0.201635,4.72398,0.545863,-0.601461,0.813105
26,60,-0.0872665,0.698132,-0.174533,-0.174533,-0.110886,0.688388,-0.154485,-0.201635,4.72398,0.545863,-0.601461,0.813105
26,60,-0.0872665,0.698132,-0.174533,-0.174533,-0.110886,0.688388,-0.154485,-0.201635,4.72398,0.545863,-0.601461,0.813105
26,60,-0.0872665,0.698132,-0.174533,-0.174533,-0.110886,0.688388,-0.154485,-0.201635,4.72398,0.545863,-0.601461,0.813105
26,60,-0.0872665,0.698132,-0.174533,-0.174533,-0.110886,0.688388,-0.154485,-0.201635,4.72398,0.545863,-0.601461,0.813105
26,60,-0.0872665,0.698132,-0.174533,-0.174533,-0.110886,0.688388,-0.154485,-0.201635,4.72398,0.545863,-0.601461,0.813105
26,60,-0.0872665,0.698132,-0.174533,-0.174533,-0.110886,0.688388,-0.154485,-0.201635,4.72398,0.545863,-0.601461,0.813105
26,60,-0.0872665,0.698132,-0.174533,-0.174533,-0.110886,0.688388,-0.154485,-0.201635,4.72398,0.545863,-0.601461,0.813105
26,60,-0.0872665,0.698132,-0.174533,-0.174533,-0.110886,0.688388,-0.154485,-0.201635,4.72398,0.545863,-0.601461,0.813105
26,60,-0.0872665,0.698132,-0.174533,-0.174533,-0.110886,0.688388,-0.154485,-0.201635,4.72398,0.545863,-0.601461,0.813105
26,60,-0.0872665,0.698132,-0.174533,-0.174533,-0.110886,0.688388,-0.154485,-0.201635,4.72398,0.545863,-0.601461,0.813105
26,60,-0.0872665,0.698132,-0.174533,-0.174533,-0.110886,0.688388,-0.154485,-0.201635,4.72398,0.545863,-0.601461,0.813105
26,60,-0.0872665,0.698132,-0.174533,-0.174533,-0.110886,0.688388,-0.154485,-0.201635,4.72398,0.545863,-0.601461,0.813105
26,60,-0.0872665,0.698132,-0.174533,-0.174533,-0.110886,0.688388,-0.154485,-0.201635,4.72398,0.545863,-0.601461,0.813105
26,60,-0.0872665,0.698132,-0.174533,-0.174533,-0.110886,0.688388,-0.154485,-0.201635,4.72398,0.545863,-0.601461,0.813105
26,60,-0.0872665,0.698132,-0.174533,-0.174533,-0.110886,0.688388,-0.154485,-0.201635,4.72398,0.545863,-0.601461,0.813105
26,60,-0.0872665,0.698132,-0.174533,-0.174533,-0.110886,0.688388,-0.154485,-0.201635,4.72398,0.545863,-0.601461,0.813105
26,60,-0.0872665,0.698132,-0.174533,-0.174533,-0.110886,0.688388,-0.154485,-0.201635,4.72398,0.545863,-0.601461,0.813105
26,60,-0.0872665,0.698132,-0.174533,-0.174533,-0.110886,0.688388,-0.154485,-0.201635,4.72398,0.545863,-0.601461,0.813105
26,60,-0.0872665,0.698132,-0.174533,-0.174533,-0.110886,0.688388,-0.154485,-0.201635,4.72398,0.545863,-0.601461,0.813105
26,60,-0.0872665,0.698132,-0.174533,-0.174533,-0.110886,0.688388,-0.154485,-0.201635,4.72398,0.545863,-0.601461,0.813105
26,60,-0.0872665,0.698132,-0.174533,-0.174533,-0.110886,0.688388,-0.154485,-0.201635,4.72398,0.545863,-0.601461,0.813105
26,60,-0.0872665,0.698132,-0.174533,-0.174533,-0.110886,0.688388,-0.154485,-0.201635,4.72398,0.545863,-0.601461,0.813105
26,60,-0.0872665,0.698132,-0.174533,-0.174533,-0.110886,0.688388,-0.154485,-0.201635,4.72398,0.545863,-0.601461,0.813105
26,60,-0.0872665,0.698132,-0.174533,-0.174533,-0.110886,0.688388,-0.154485,-0.201635,4.72398,0.545863,-0.601461,0.813105
26,60,-0.0872665,0.698132,-0.174533,-0.174533,-0.110886,0.688388,-0.154485,-0.201635,4.72398,0.545863,-0.601461,0.813105
26,60,-0.0872665,0.698132,-0.174533,-0.174533,-0.110886,0.688388,-0.154485,-0.201635,4.72398,0.545863,-0.601461,0.813105
26,60,-0.0872665,0.698132,-0.174533,-0.174533,-0.110886,0.688388,-0.154485,-0.201635,4.72398,0.545863,-0.601461,0.813105
26,60,-0.0872665,0.698132,-0.174533,-0.174533,-0.110886,0.688388,-0.154485,-0.201635,4.72398,0.545863,-0.601461,0.813105
26,60,-0.0872665,0.698132,-0.174533,-0.174533,-0.110886,0.688388,-0.154485,-0.201635,4.72398,0.545863,-0.601461,0.813105
26,60,-0.0872665,0.698132,-0.174533,-0.174533,-0.110886,0.688388,-0.154485,-0.201635,4.72398,0.545863,-0.601461,0.813105
26,60,-0.0872665,0.698132,-0.174533,-0.174533,-0.110886,0.688388,-0.154485,-0.201635,4.72398,0.545863,-0.601461,0.813105
26,60,-0.0872665,0.698132,-0.174533,-0.174533,-0.110886,0.688388,-0.154485,-0.201635,4.72398,0.545863,-0.601461,0.813105
26,60,-0.0872665,0.698132,-0.174533,-0.174533,-0.110886,0.688388,-0.154485,-0.201635,4.72398,0.545863,-0.601461,0.813105
26,60,-0.0872665,0.698132,-0.174533,-0.174533,-0.110886,0.688388,-0.154485,-0.201635,4.72398,0.545863,-0.601461,0.813105
26,60,-0.0872665,0.698132,-0.174533,-0.174533,-0.110886,0.688388,-0.154485,-0.201635,4.72398,0.545863,-0.601461,0.813105
26,60,-0.0872665,0.698132,-0.174533,-0.174533,-0.110886,0.688388,-0.154485,-0.201635,4.72398,0.545863,-0.601461,0.813105
26,60,-0.0872665,0.698132,-0.174533,-0.174533,-0.110886,0.688388,-0.154485,-0.201635,4.72398,0.545863,-0.601461,0.813105
26,60,-0.0872665,0.698132,-0.174533,-0.174533,-0.110886,0.688388,-0.154485,-0.201635,4.72398,0.545863,-0.601461,0.813105
26,60,-0.0872665,0.698132,-0.174533,-0.174533,-0.110886,0.688388,-0.154485,-0.201635,4.72398,0.545863,-0.601461,0.813104
26,60,-0.0872665,0.698132,-0.174533,-0.174533,-0.110886,0.688388,-0.154485,-0.201635,4.72398,0.545863,-0.601461,0.813102
26,60,-0.0872665,0.698132,-0.174533,-0.174533,-0.110886,0.688388,-0.154485,-0.201635,4.72398,0.545863,-0.601461,0.813101
26,60,-0.0872665,0.698132,-0.174533,-0.174533,-0.110886,0.688388,-0.154485,-0.201635,4.72398,0.545863,-0.601461,0.8131
26,60,-0.0872665,0.698132,-0.174533,-0.174533,-0.110886,0.688388,-0.154485,-0.201635,4.72398,0.545863,-0.601461,0.813098
26,60,-0.0872665,0.698132,-0.174533,-0.174533,-0.110886,0.688388,-0.154485,-0.201635,4.72398,0.545863,-0.601461,0.813097
26,60,-0.0872665,0.698132,-0.174533,-0.174533,-0.110886,0.688388,-0.154485,-0.201635,4.72398,0.545863,-0.601461,0.813096
26,60,-0.0872665,0.698132,-0.174533,-0.174533,-0.110886,0.688388,-0.154485,-0.201635,4.72398,0.545863,-0.601462,0.813095
26,60,-0.0872665,0.698132,-0.174533,-0.174533,-0.110886,0.688388,-0.154485,-0.201635,4.72398,0.545863,-0.601462,0.813093
26,60,-0.0872665,0.698132,-0.174533,-0.174533,-0.110886,0.688388,-0.154485,-0.201635,4.72398,0.545863,-0.601462,0.813092
26,60,-0.0872665,0.698132,-0.174533,-0.174533,-0.110886,0.688388,-0.154485,-0.201635,4.72398,0.545863,-0.601462,0.813091
26,60,-0.0872665,0.698132,-0.174533,-0.174533,-0.110886,0.688388,-0.154485,-0.201635,4.72398,0.545863,-0.601462,0.81309
26,60,-0.0872665,0.698132,-0.174533,-0.174533,-0.110886,0.688388,-0.154485,-0.201635,4.72398,0.545863,-0.601462,0.813089
26,60,-0.0872665,0.698132,-0.174533,-0.174533,-0.110886,0.688388,-0.154485,-0.201635,4.72398,0.545863,-0.601462,0.813088
26,60,-0.0872665,0.698132,-0.174533,-0.174533,-0.110886,0.688388,-0.154485,-0.201635,4.72398,0.545863,-0.601462,0.813087
26,60,-0.0872665,0.698132,-0.174533,-0.174533,-0.110886,0.688388,-0.154485,-0.201635,4.72398,0.545863,-0.601462,0.813087
26,60,-0.0872665,0.698132,-0.174533,-0.174533,-0.110886,0.688388,-0.154485,-0.201635,4.72398,0.545863,-0.601462,0.813086
26,60,-0.0872665,0.698132,-0.174533,-0.174533,-0.110886,0.688388,-0.154485,-0.201635,4.72398,0.545863,-0.601462,0.813085
26,60,-0.0872665,0.698132,-0.174533,-0.174533,-0.110886,0.688388,-0.154485,-0.201635,4.72398,0.545863,-0.601462,0.813084
26,60,-0.0872665,0.698132,-0.174533,-0.174533,-0.110886,0.688388,-0.154485,-0.201635,4.72398,0.545863,-0.601462,0.813083
26,60,-0.0872665,0.698132,-0.174533,-0.174533,-0.110886,0.688388,-0.154485,-0.201635,4.72398,0.545863,-0.601462,0.813083
26,60,-0.0872665,0.698132,-0.174533,-0.174533,-0.110886,0.688388,-0.154485,-0.201635,4.72398,0.545863,-0.601462,0.813082
26,60,-0.0872665,0.698132,-0.174533,-0.174533,-0.110886,0.688388,-0.154485,-0.201635,4.72398,0.545863,-0.601462,0.813081
26,60,-0.0872665,0.698132,-0.174533,-0.174533,-0.110886,0.688388,-0.154485,-0.201635,4.72398,0.545863,-0.601462,0.813081
26,60,-0.0872665,0.698132,-0.174533,-0.174533,-0.110886,0.688388,-0.154485,-0.201635,4.72398,0.545863,-0.601462,0.81308
26,60,-0.0872665,0.698132,-0.174533,-0.174533,-0.110886,0.688388,-0.154485,-0.201635,4.72398,0.545863,-0.601462,0.813079
26,60,-0.0872665,0.698132,-0.174533,-0.174533,-0.110886,0.688388,-0.154488,-0.201694,4.72398,0.545863,-0.601369,0.814884
26,60,-0.0872665,0.698132,-0.174533,-0.174533,-0.110886,0.688388,-0.154488,-0.201694,4.72398,0.545863,-0.601369,0.814884
26,60,-0.0872665,0.698132,-0.174533,-0.174533,-0.110886,0.688388,-0.154488,-0.201694,4.72398,0.545863,-0.601369,0.814884
26,60,-0.0872665,0.698132,-0.174533,-0.174533,-0.110886,0.688388,-0.154488,-0.201694,4.72398,0.545863,-0.601369,0.814884
26,60,-0.0872665,0.698132,-0.174533,-0.174533,-0.110886,0.688388,-0.154488,-0.201694,4.72398,0.545863,-0.601369,0.814884
26,60,-0.0872665,0.698132,-0.174533,-0.174533,-0.110886,0.688388,-0.154488,-0.201694,4.72398,0.545863,-0.601369,0.814884
26,60,-0.0872665,0.698132,-0.174533,-0.174533,-0.110886,0.688388,-0.154488,-0.201694,4.72398,0.545863,-0.601369,0.814884
26,60,-0.0872665,0.698132,-0.174533,-0.174533,-0.110886,0.688388,-0.154488,-0.201694,4.72398,0.545863,-0.601369,0.814884
26,60,-0.0872665,0.698132,-0.174533,-0.174533,-0.110886,0.688388,-0.154488,-0.201694,4.72398,0.545863,-0.601369,0.814884
26,60,-0.0872665,0.698132,-0.174533,-0.174533,-0.110886,0.688388,-0.154488,-0.201694,4.72398,0.545863,-0.601369,0.814884
26,60,-0.0872665,0.698132,-0.174533,-0.174533,-0.110886,0.688388,-0.154488,-0.201694,4.72398,0.545863,-0.601369,0.814884
26,60,-0.0872665,0.698132,-0.174533,-0.174533,-0.110886,0.688388,-0.154488,-0.201694,4.72398,0.545863,-0.601369,0.814884
26,60,-0.0872665,0.698132,-0.174533,-0.174533,-0.110886,0.688388,-0.154488,-0.201694,4.72398,0.545863,-0.601369,0.814884
26,60,-0.0872665,0.698132,-0.174533,-0.174533,-0.110886,0.688388,-0.154488,-0.201694,4.72398,0.545863,-0.601369,0.814884
26,60,-0.0872665,0.698132,-0.174533,-0.174533,-0.110886,0.688388,-0.154488,-0.201694,4.72398,0.545863,-0.601369,0.814884
26,60,-0.0872665,0.698132,-0.174533,-0.174533,-0.110886,0.688388,-0.154488,-0.201694,4.72398,0.545863,-0.601369,0.814884
26,60,-0.0872665,0.698132,-0.174533,-0.174533,-0.110886,0.688388,-0.154488,-0.201694,4.72398,0.545863,-0.601369,0.814884
26,60,-0.0872665,0.698132,-0.174533,-0.174533,-0.110886,0.688388,-0.154488,-0.201694,4.72398,0.545863,-0.601369,0.814884
26,60,-0.0872665,0.698132,-0.174533,-0.174533,-0.110886,0.688388,-0.154488,-0.201694,4.72398,0.545863,-0.601369,0.814884
26,60,-0.0872665,0.698132,-0.174533,-0.174533,-0.110886,0.688388,-0.154488,-0.201694,4.72398,0.545863,-0.601369,0.814884
26,60,-0.0872665,0.698132,-0.174533,-0.174533,-0.110886,0.688388,-0.154488,-0.201694,4.72398,0.545863,-0.601369,0.814884
26,60,-0.0872665,0.698132,-0.174533,-0.174533,-0.110886,0.688388,-0.154488,-0.201694,4.72398,0.545863,-0.601369,0.814884
26,60,-0.0872665,0.698132,-0.174533,-0.174533,-0.110886,0.688388,-0.154488,-0.201694,4.72398,0.545863,-0.601369,0.814884
26,60,-0.0872665,0.698132,-0.174533,-0.174533,-0.110886,0.688388,-0.154488,-0.201694,4.72398,0.545863,-0.601369,0.814884
26,60,-0.0872665,0.698132,-0.174533,-0.174533,-0.110886,0.688388,-0.154488,-0.201694,4.72398,0.545863,-0.601346,0.814898
26,60,-0.0872665,0.698132,-0.174533,-0.174533,-0.110886,0.688388,-0.154488,-0.201694,4.72398,0.545863,-0.601346,0.814898
26,60,-0.0872665,0.698132,-0.174533,-0.174533,-0.110886,0.688388,-0.154488,-0.201694,4.72398,0.545863,-0.601346,0.814898
26,60,-0.0872665,0.698132,-0.174533,-0.174533,-0.110886,0.688388,-0.154488,-0.201694,4.72398,0.545863,-0.601346,0.814898
26,60,-0.0872665,0.698132,-0.174533,-0.174533,-0.110886,0.688388,-0.154488,-0.201694,4.72398,0.545863,-0.601346,0.814898
26,60,-0.0872665,0.698132,-0.174533,-0.174533,-0.110886,0.688388,-0.154488,-0.201694,4.72398,0.545863,-0.601346,0.814898
26,60,-0.0872665,0.698132,-0.174533,-0.174533,-0.110886,0.688388,-0.154488,-0.201694,4.72398,0.545863,-0.601346,0.814898
26,60,-0.0872665,0.698132,-0.174533,-0.174533,-0.110886,0.688388,-0.154488,-0.201694,4.72398,0.545863,-0.601346,0.814898
26,60,-0.0872665,0.698132,-0.174533,-0.174533,-0.110886,0.688388,-0.154488,-0.201694,4.72398,0.545863,-0.601346,0.814898
26,60,-0.0872665,0.698132,-0.174533,-0.174533,-0.110886,0.688388,-0.15442,-0.201651,4.72398,0.545863,-0.603402,0.813603
26,60,-0.0872665,0.698132,-0.174533,-0.174533,-0.110886,0.688388,-0.15442,-0.201651,4.72398,0.545863,-0.603402,0.813603
26,60,-0.0872665,0.698132,-0.174533,-0.174533,-0.110886,0.688388,-0.15442,-0.201651,4.72398,0.545863,-0.603402,0.813603
26,60,-0.0872665,0.698132,-0.174533,-0.174533,-0.110886,0.688388,-0.15442,-0.201651,4.72398,0.545863,-0.603402,0.813603
26,60,-0.0872665,0.698132,-0.174533,-0.174533,-0.110886,0.688388,-0.15442,-0.201651,4.72398,0.545863,-0.603402,0.813603
26,60,-0.0872665,0.698132,-0.174533,-0.174533,-0.110886,0.688388,-0.15442,-0.201651,4.72398,0.545863,-0.603402,0.813603
26,60,-0.0872665,0.698132,-0.174533,-0.174533,-0.110886,0.688388,-0.15442,-0.201651,4.72398,0.545863,-0.603402,0.813603
26,60,-0.0872665,0.698132,-0.174533,-0.174533,-0.110886,0.688388,-0.15442,-0.201651,4.72398,0.545863,-0.603402,0.813603
26,60,-0.0872665,0.698132,-0.174533,-0.174533,-0.110886,0.688388,-0.15442,-0.201651,4.72398,0.545863,-0.603402,0.813603
26,60,-0.0872665,0.698132,-0.174533,-0.174533,-0.110886,0.688388,-0.15442,-0.201651,4.72398,0.545863,-0.603402,0.813603
26,60,-0.0872665,0.698132,-0.174533,-0.174533,-0.110886,0.688388,-0.15442,-0.201651,4.72398,0.545863,-0.603402,0.813603
26,60,-0.0872665,0.698132,-0.174533,-0.174533,-0.110886,0.688388,-0.15442,-0.201651,4.72398,0.545863,-0.603402,0.813603
26,60,-0.0872665,0.698132,-0.174533,-0.174533,-0.110886,0.688388,-0.15442,-0.201651,4.72398,0.545863,-0.603402,0.813603
26,60,-0.0872665,0.698132,-0.174533,-0.174533,-0.110886,0.688388,-0.15442,-0.201651,4.72398,0.545863,-0.603402,0.813603
26,60,-0.0872665,0.698132,-0.174533,-0.174533,-0.110886,0.688388,-0.15442,-0.201651,4.72398,0.545863,-0.603402,0.813603
26,60,-0.0872665,0.698132,-0.174533,-0.174533,-0.110886,0.688388,-0.154423,-0.201711,4.72398,0.545863,-0.603311,0.815373
26,60,-0.0872665,0.698132,-0.174533,-0.174533,-0.110886,0.688388,-0.154423,-0.201711,4.72398,0.545863,-0.603311,0.815373
26,60,-0.0872665,0.698132,-0.174533,-0.174533,-0.110886,0.688388,-0.154423,-0.201711,4.72398,0.545863,-0.603311,0.815373
26,60,-0.0872665,0.698132,-0.174533,-0.174533,-0.110886,0.688388,-0.154423,-0.201711,4.72398,0.545863,-0.603311,0.815373
26,60,-0.0872665,0.698132,-0.174533,-0.174533,-0.110886,0.688388,-0.154423,-0.201711,4.72398,0.545863,-0.603311,0.815373
26,60,-0.0872665,0.698132,-0.174533,-0.174533,-0.110886,0.688388,-0.154423,-0.201711,4.72398,0.545863,-0.603311,0.815373
26,60,-0.0872665,0.698132,-0.174533,-0.174533,-0.110886,0.688388,-0.154423,-0.201711,4.72398,0.545863,-0.603311,0.815373
26,60,-0.0872665,0.698132,-0.174533,-0.174533,-0.110886,0.688337,-0.154423,-0.201711,4.72398,0.548681,-0.603311,0.815373
26,60,-0.0872665,0.698132,-0.174533,-0.174533,-0.110886,0.688337,-0.154423,-0.201711,4.72398,0.548681,-0.603311,0.815373
26,60,-0.0872665,0.698132,-0.174533,-0.174533,-0.110886,0.688337,-0.154423,-0.201711,4.72398,0.548681,-0.603311,0.815373
26,60,-0.0872665,0.698132,-0.174533,-0.174533,-0.110886,0.688337,-0.154423,-0.201711,4.72398,0.548681,-0.603311,0.815373
26,60,-0.0872665,0.698132,-0.174533,-0.174533,-0.110886,0.688337,-0.154423,-0.201711,4.72398,0.548681,-0.603311,0.815373
26,60,-0.0872665,0.698132,-0.174533,-0.174533,-0.110886,0.688337,-0.154423,-0.201711,4.72398,0.548681,-0.603311,0.815373
26,60,-0.0872665,0.698132,-0.174533,-0.174533,-0.110886,0.688337,-0.154423,-0.201711,4.72398,0.548681,-0.603311,0.815373
26,60,-0.0872665,0.698132,-0.174533,-0.174533,-0.110886,0.688337,-0.154423,-0.201711,4.72398,0.548681,-0.603311,0.815373
26,60,-0.0872665,0.698132,-0.174533,-0.174533,-0.110886,0.688337,-0.154423,-0.201711,4.72398,0.548681,-0.603311,0.815373
26,60,-0.0872665,0.698132,-0.174533,-0.174533,-0.110886,0.688337,-0.154423,-0.201711,4.72398,0.548681,-0.603311,0.815373
26,60,-0.0872665,0.698132,-0.174533,-0.174533,-0.110886,0.688337,-0.154423,-0.201711,4.72398,0.548681,-0.603311,0.815373
26,60,-0.0872665,0.698132,-0.174533,-0.174533,-0.110886,0.688337,-0.154423,-0.201711,4.72398,0.548681,-0.603311,0.815373
26,60,-0.0872665,0.698132,-0.174533,-0.174533,-0.110886,0.688337,-0.154423,-0.201711,4.72398,0.548681,-0.603311,0.815373
26,60,-0.0872665,0.698132,-0.174533,-0.174533,-0.110886,0.688337,-0.154423,-0.201711,4.72398,0.548681,-0.603311,0.815373
26,60,-0.0872665,0.698132,-0.174533,-0.174533,-0.110886,0.688337,-0.154423,-0.201711,4.72398,0.548681,-0.603311,0.815373
26,60,-0.0872665,0.698132,-0.174533,-0.174533,-0.110886,0.688337,-0.154423,-0.201711,4.72398,0.548681,-0.603311,0.815373
26,60,-0.0872665,0.698132,-0.174533,-0.174533,-0.110886,0.688337,-0.154423,-0.201711,4.72398,0.548681,-0.603311,0.815373
26,60,-0.0872665,0.698132,-0.174533,-0.174533,-0.110886,0.688337,-0.154423,-0.201711,4.72398,0.548681,-0.603311,0.815373
26,60,-0.0872665,0.698132,-0.174533,-0.174533,-0.110886,0.688337,-0.154423,-0.201711,4.72398,0.548681,-0.603311,0.815373
26,60,-0.0872665,0.698132,-0.174533,-0.174533,-0.110886,0.688337,-0.154426,-0.201771,4.72398,0.548681,-0.603219,0.817157
26,60,-0.0872665,0.698132,-0.174533,-0.174533,-0.110886,0.688337,-0.154426,-0.201771,4.72398,0.548681,-0.603219,0.817157
26,60,-0.0872665,0.698132,-0.174533,-0.174533,-0.110886,0.688337,-0.154357,-0.201728,4.72398,0.548681,-0.605269,0.815865
26,60,-0.0872665,0.698132,-0.174533,-0.174533,-0.110886,0.688337,-0.154357,-0.201728,4.72398,0.548681,-0.605269,0.815865
26,60,-0.0872665,0.698132,-0.174533,-0.174533,-0.110886,0.688337,-0.154357,-0.201728,4.72398,0.548681,-0.605269,0.815865
26,60,-0.0872665,0.698132,-0.174533,-0.174533,-0.110886,0.688337,-0.154357,-0.201728,4.72398,0.548681,-0.605269,0.815865
26,60,-0.0872665,0.698132,-0.174533,-0.174533,-0.110886,0.688337,-0.154357,-0.201728,4.72398,0.548681,-0.605269,0.815865
26,60,-0.0872665,0.698132,-0.174533,-0.174533,-0.110886,0.688337,-0.154357,-0.201728,4.72398,0.548681,-0.605269,0.815865
26,60,-0.0872665,0.698132,-0.174533,-0.174533,-0.110886,0.688337,-0.154357,-0.201728,4.72398,0.548681,-0.605269,0.815865
26,60,-0.0872665,0.698132,-0.174533,-0.174533,-0.110886,0.688337,-0.154357,-0.201728,4.72398,0.548681,-0.605269,0.815865
26,60,-0.0872665,0.698132,-0.174533,-0.174533,-0.110886,0.688337,-0.154357,-0.201728,4.72398,0.548681,-0.605269,0.815865
26,60,-0.0872665,0.698132,-0.174533,-0.174533,-0.110886,0.688337,-0.154357,-0.201728,4.72398,0.548681,-0.605269,0.815865
26,60,-0.0872665,0.698132,-0.174533,-0.174533,-0.110886,0.688337,-0.154357,-0.201728,4.72398,0.548681,-0.605269,0.815865
26,60,-0.0872665,0.698132,-0.174533,-0.174533,-0.110886,0.688337,-0.154357,-0.201728,4.72398,0.548681,-0.605269,0.815865
26,60,-0.0872665,0.698132,-0.174533,-0.174533,-0.110886,0.688337,-0.154357,-0.201728,4.72398,0.548681,-0.605269,0.815865
26,60,-0.0872665,0.698132,-0.174533,-0.174533,-0.110886,0.688337,-0.154357,-0.201728,4.72398,0.548681,-0.605269,0.815865
26,60,-0.0872665,0.698132,-0.174533,-0.174533,-0.110886,0.688337,-0.154357,-0.201728,4.72398,0.548681,-0.605269,0.815865
26,60,-0.0872665,0.698132,-0.174533,-0.174533,-0.110886,0.688337,-0.154357,-0.201728,4.72398,0.548681,-0.605269,0.815865
26,60,-0.0872665,0.698132,-0.174533,-0.174533,-0.110886,0.688337,-0.154357,-0.201728,4.72398,0.548681,-0.605269,0.815865
26,60,-0.0872665,0.698132,-0.174533,-0.174533,-0.110886,0.688337,-0.154357,-0.201728,4.72398,0.548681,-0.605269,0.815865
26,60,-0.0872665,0.698132,-0.174533,-0.174533,-0.110886,0.688337,-0.154357,-0.201728,4.72398,0.548681,-0.605269,0.815865
26,60,-0.0872665,0.698132,-0.174533,-0.174533,-0.110886,0.688337,-0.154357,-0.201728,4.72398,0.548681,-0.605269,0.815865
26,60,-0.0872665,0.698132,-0.174533,-0.174533,-0.110886,0.688337,-0.154357,-0.201728,4.72398,0.548681,-0.605269,0.815865
26,60,-0.0872665,0.698132,-0.174533,-0.174533,-0.110886,0.688337,-0.154357,-0.201728,4.72398,0.548681,-0.605269,0.815865
26,60,-0.0872665,0.698132,-0.174533,-0.174533,-0.110886,0.688337,-0.154357,-0.201728,4.72398,0.548681,-0.605269,0.815865
26,60,-0.0872665,0.698132,-0.174533,-0.174533,-0.110886,0.688337,-0.154357,-0.201728,4.72398,0.548681,-0.605269,0.815865
26,60,-0.0872665,0.698132,-0.174533,-0.174533,-0.110886,0.688337,-0.154357,-0.201728,4.72398,0.548681,-0.605269,0.815865
26,60,-0.0872665,0.698132,-0.174533,-0.174533,-0.110886,0.688337,-0.154357,-0.201728,4.72398,0.548681,-0.605269,0.815865
26,60,-0.0872665,0.698132,-0.174533,-0.174533,-0.110886,0.688337,-0.154357,-0.201728,4.72398,0.548681,-0.605269,0.815865
26,60,-0.0872665,0.698132,-0.174533,-0.174533,-0.110886,0.688337,-0.154357,-0.201728,4.72398,0.548681,-0.605269,0.815865
26,60,-0.0872665,0.698132,-0.174533,-0.174533,-0.110886,0.688337,-0.154357,-0.201728,4.72398,0.548681,-0.605269,0.815865
26,60,-0.0872665,0.698132,-0.174533,-0.174533,-0.110886,0.688337,-0.154357,-0.201728,4.72398,0.548681,-0.605269,0.815865
26,60,-0.0872665,0.698132,-0.174533,-0.174533,-0.110886,0.688337,-0.154357,-0.201728,4.72398,0.548681,-0.605269,0.815865
26,60,-0.0872665,0.698132,-0.174533,-0.174533,-0.110886,0.688337,-0.154357,-0.201728,4.72398,0.548681,-0.605269,0.815865
26,60,-0.0872665,0.698132,-0.174533,-0.174533,-0.110886,0.688337,-0.154357,-0.201728,4.72398,0.548681,-0.605269,0.815865
26,60,-0.0872665,0.698132,-0.174533,-0.174533,-0.110886,0.688337,-0.154357,-0.201728,4.72398,0.548681,-0.605269,0.815865
26,60,-0.0872665,0.698132,-0.174533,-0.174533,-0.110886,0.688337,-0.15436,-0.201787,4.72398,0.548681,-0.605176,0.817655
26,60,-0.0872665,0.698132,-0.174533,-0.174533,-0.110886,0.688337,-0.15436,-0.201787,4.72398,0.548681,-0.605176,0.817655
26,60,-0.0872665,0.698132,-0.174533,-0.174533,-0.110886,0.688337,-0.15436,-0.201787,4.72398,0.548681,-0.605176,0.817655
26,60,-0.0872665,0.698132,-0.174533,-0.174533,-0.110886,0.688337,-0.15436,-0.201787,4.72398,0.548681,-0.605176,0.817655
26,60,-0.0872665,0.698132,-0.174533,-0.174533,-0.110886,0.688337,-0.15436,-0.201787,4.72398,0.548681,-0.605176,0.817655
26,60,-0.0872665,0.698132,-0.174533,-0.174533,-0.110886,0.688337,-0.15436,-0.201787,4.72398,0.548681,-0.605176,0.817655
26,60,-0.0872665,0.698132,-0.174533,-0.174533,-0.110886,0.688337,-0.15436,-0.201787,4.72398,0.548681,-0.605176,0.817655
26,60,-0.0872665,0.698132,-0.174533,-0.174533,-0.110886,0.688337,-0.15436,-0.201787,4.72398,0.548681,-0.605176,0.817655
26,60,-0.0872665,0.698132,-0.174533,-0.174533,-0.110886,0.688337,-0.15436,-0.201787,4.72398,0.548681,-0.605176,0.817655
26,60,-0.0872665,0.698132,-0.174533,-0.174533,-0.110886,0.688337,-0.15436,-0.201787,4.72398,0.548681,-0.605176,0.817655
26,60,-0.0872665,0.698132,-0.174533,-0.174533,-0.110886,0.688337,-0.15436,-0.201787,4.72398,0.548681,-0.605176,0.817655
26,60,-0.0872665,0.698132,-0.174533,-0.174533,-0.110886,0.688337,-0.15436,-0.201787,4.72398,0.548681,-0.605176,0.817655
26,60,-0.0872665,0.698132,-0.174533,-0.174533,-0.110886,0.688337,-0.15436,-0.201787,4.72398,0.548681,-0.605176,0.817655
26,60,-0.0872665,0.698132,-0.174533,-0.174533,-0.110886,0.688337,-0.15436,-0.201787,4.72398,0.548681,-0.605176,0.817655
26,60,-0.0872665,0.698132,-0.174533,-0.174533,-0.110886,0.688337,-0.15436,-0.201787,4.72398,0.548681,-0.605176,0.817655
26,60,-0.0872665,0.698132,-0.174533,-0.174533,-0.110886,0.688337,-0.15436,-0.201787,4.72398,0.548681,-0.605176,0.817655
26,60,-0.0872665,0.698132,-0.174533,-0.174533,-0.110886,0.688337,-0.15436,-0.201787,4.72398,0.548681,-0.605176,0.817655
26,60,-0.0872665,0.698132,-0.174533,-0.174533,-0.110886,0.688337,-0.15436,-0.201787,4.72398,0.548681,-0.605176,0.817655
26,60,-0.0872665,0.698132,-0.174533,-0.174533,-0.110886,0.688337,-0.15436,-0.201787,4.72398,0.548681,-0.605176,0.817655
26,60,-0.0872665,0.698132,-0.174533,-0.174533,-0.110886,0.688337,-0.15436,-0.201787,4.72398,0.548681,-0.605176,0.817655
26,60,-0.0872665,0.698132,-0.174533,-0.174533,-0.110886,0.688337,-0.15436,-0.201787,4.72398,0.548681,-0.605176,0.817655
26,60,-0.0872665,0.698132,-0.174533,-0.174533,-0.110886,0.688337,-0.15436,-0.201787,4.72398,0.548681,-0.605176,0.817655
26,60,-0.0872665,0.698132,-0.174533,-0.174533,-0.110886,0.688337,-0.15436,-0.201787,4.72398,0.548681,-0.605176,0.817655
26,60,-0.0872665,0.698132,-0.174533,-0.174533,-0.110886,0.688337,-0.15436,-0.201787,4.72398,0.548681,-0.605176,0.817655
26,60,-0.0872665,0.698132,-0.174533,-0.174533,-0.110886,0.688337,-0.15436,-0.201787,4.72398,0.548681,-0.605176,0.817655
26,60,-0.0872665,0.698132,-0.174533,-0.174533,-0.110886,0.688337,-0.15436,-0.201787,4.72398,0.548681,-0.605176,0.817655
26,60,-0.0872665,0.698132,-0.174533,-0.174533,-0.110886,0.688337,-0.15436,-0.201787,4.72398,0.548681,-0.605176,0.817655
26,60,-0.0872665,0.698132,-0.174533,-0.174533,-0.110886,0.688337,-0.15436,-0.201787,4.72398,0.548681,-0.605176,0.817655
26,60,-0.0872665,0.698132,-0.174533,-0.174533,-0.110886,0.688337,-0.15436,-0.201787,4.72398,0.548681,-0.605176,0.817655
26,60,-0.0872665,0.698132,-0.174533,-0.174533,-0.110886,0.688337,-0.15436,-0.201787,4.72398,0.548681,-0.605176,0.817655
26,60,-0.0872665,0.698132,-0.174533,-0.174533,-0.110886,0.688337,-0.15436,-0.201787,4.72398,0.548681,-0.605176,0.817655
26,60,-0.0872665,0.698132,-0.174533,-0.174533,-0.110886,0.688337,-0.15436,-0.201787,4.72398,0.548681,-0.605176,0.817655
26,60,-0.0872665,0.698132,-0.174533,-0.174533,-0.110886,0.688337,-0.15436,-0.201787,4.72398,0.548681,-0.605176,0.817655
26,60,-0.0872665,0.698132,-0.174533,-0.174533,-0.110886,0.688337,-0.15436,-0.201787,4.72398,0.548681,-0.605176,0.817655
26,60,-0.0872665,0.698132,-0.174533,-0.174533,-0.110886,0.688337,-0.15436,-0.201787,4.72398,0.548681,-0.605176,0.817655
26,60,-0.0872665,0.698132,-0.174533,-0.174533,-0.110886,0.688337,-0.15436,-0.201787,4.72398,0.548681,-0.605176,0.817655
26,60,-0.0872665,0.698132,-0.174533,-0.174533,-0.110886,0.688337,-0.15436,-0.201787,4.72398,0.548681,-0.605176,0.817655
26,60,-0.0872665,0.698132,-0.174533,-0.174533,-0.110886,0.688337,-0.15436,-0.201787,4.72398,0.548681,-0.605176,0.817655
26,60,-0.0872665,0.698132,-0.174533,-0.174533,-0.110886,0.688337,-0.15436,-0.201787,4.72398,0.548681,-0.605176,0.817655
26,60,-0.0872665,0.698132,-0.174533,-0.174533,-0.110886,0.688337,-0.15436,-0.201787,4.72398,0.548681,-0.605176,0.817655
26,60,-0.0872665,0.698132,-0.174533,-0.174533,-0.110886,0.688337,-0.15436,-0.201787,4.72398,0.548681,-0.605176,0.817655
26,60,-0.0872665,0.698132,-0.174533,-0.174533,-0.110886,0.688337,-0.15436,-0.201787,4.72398,0.548681,-0.605176,0.817655
26,60,-0.0872665,0.698132,-0.174533,-0.174533,-0.110886,0.688337,-0.15436,-0.201787,4.72398,0.548681,-0.605176,0.817655
26,60,-0.0872665,0.698132,-0.174533,-0.174533,-0.110886,0.688337,-0.15436,-0.201787,4.72398,0.548681,-0.605176,0.817655
26,60,-0.0872665,0.698132,-0.174533,-0.174533,-0.110886,0.688337,-0.15436,-0.201787,4.72398,0.548681,-0.605176,0.817655
26,60,-0.0872665,0.698132,-0.174533,-0.174533,-0.110886,0.688337,-0.15436,-0.201787,4.72398,0.548681,-0.605176,0.817655
26,60,-0.0872665,0.698132,-0.174533,-0.174533,-0.110886,0.688337,-0.15436,-0.201787,4.72398,0.548681,-0.605176,0.817655
26,60,-0.0872665,0.698132,-0.174533,-0.174533,-0.110886,0.688337,-0.15436,-0.201787,4.72398,0.548681,-0.605176,0.817655
26,60,-0.0872665,0.698132,-0.174533,-0.174533,-0.110886,0.688337,-0.15436,-0.201787,4.72398,0.548681,-0.605176,0.817655
26,60,-0.0872665,0.698132,-0.174533,-0.174533,-0.110886,0.688337,-0.15436,-0.201787,4.72398,0.548681,-0.605176,0.817655
26,60,-0.0872665,0.698132,-0.174533,-0.174533,-0.110886,0.688337,-0.15436,-0.201787,4.72398,0.548681,-0.605176,0.817655
26,60,-0.0872665,0.698132,-0.174533,-0.174533,-0.110886,0.688337,-0.15436,-0.201787,4.72398,0.548681,-0.605176,0.817655
26,60,-0.0872665,0.698132,-0.174533,-0.174533,-0.110886,0.688337,-0.15436,-0.201787,4.72398,0.548681,-0.605176,0.817655
26,60,-0.0872665,0.698132,-0.174533,-0.174533,-0.110886,0.688337,-0.15436,-0.201787,4.72398,0.548681,-0.605176,0.817655
26,60,-0.0872665,0.698132,-0.174533,-0.174533,-0.110886,0.688337,-0.15436,-0.201787,4.72398,0.548681,-0.605176,0.817655
26,60,-0.0872665,0.698132,-0.174533,-0.174533,-0.110886,0.688337,-0.15436,-0.201787,4.72398,0.548681,-0.605176,0.817655
26,60,-0.0872665,0.698132,-0.174533,-0.174533,-0.110886,0.688337,-0.15436,-0.201787,4.72398,0.548681,-0.605176,0.817655
26,60,-0.0872665,0.698132,-0.174533,-0.174533,-0.110886,0.688337,-0.15436,-0.201787,4.72398,0.548681,-0.605176,0.817655
26,60,-0.0872665,0.698132,-0.174533,-0.174533,-0.110886,0.688337,-0.15436,-0.201787,4.72398,0.548681,-0.605176,0.817655
26,60,-0.0872665,0.698132,-0.174533,-0.174533,-0.110886,0.688337,-0.15436,-0.201787,4.72398,0.548681,-0.605176,0.817655
26,60,-0.0872665,0.698132,-0.174533,-0.174533,-0.110886,0.688337,-0.15436,-0.201787,4.72398,0.548681,-0.605176,0.817655
26,60,-0.0872665,0.698132,-0.174533,-0.174533,-0.110886,0.688337,-0.15436,-0.201787,4.72398,0.548681,-0.605176,0.817655
26,60,-0.0872665,0.698132,-0.174533,-0.174533,-0.110886,0.688337,-0.15436,-0.201787,4.72398,0.548681,-0.605176,0.817655
26,60,-0.0872665,0.698132,-0.174533,-0.174533,-0.110886,0.688337,-0.15436,-0.201787,4.72398,0.548681,-0.605176,0.817655
26,60,-0.0872665,0.698132,-0.174533,-0.174533,-0.110886,0.688337,-0.15436,-0.201787,4.72398,0.548681,-0.605176,0.817655
26,60,-0.0872665,0.698132,-0.174533,-0.174533,-0.110886,0.688337,-0.15436,-0.201787,4.72398,0.548681,-0.605176,0.817655
26,60,-0.0872665,0.698132,-0.174533,-0.174533,-0.110886,0.688337,-0.15436,-0.201787,4.72398,0.548681,-0.605176,0.817655
26,60,-0.0872665,0.698132,-0.174533,-0.174533,-0.110886,0.688337,-0.15436,-0.201787,4.72398,0.548681,-0.605176,0.817655
26,60,-0.0872665,0.698132,-0.174533,-0.174533,-0.110886,0.688337,-0.15436,-0.201787,4.72398,0.548681,-0.605176,0.817655
26,60,-0.0872665,0.698132,-0.174533,-0.174533,-0.110886,0.688337,-0.15436,-0.201787,4.72398,0.548681,-0.605176,0.817655
26,60,-0.0872665,0.698132,-0.174533,-0.174533,-0.110886,0.688337,-0.15436,-0.201787,4.72398,0.548681,-0.605176,0.817655
26,60,-0.0872665,0.698132,-0.174533,-0.174533,-0.110886,0.688337,-0.15436,-0.201787,4.72398,0.548681,-0.605176,0.817655
26,60,-0.0872665,0.698132,-0.174533,-0.174533,-0.110886,0.688337,-0.15436,-0.201787,4.72398,0.548681,-0.605176,0.817655
26,60,-0.0872665,0.698132,-0.174533,-0.174533,-0.110886,0.688337,-0.15436,-0.201787,4.72398,0.548681,-0.605176,0.817655
26,60,-0.0872665,0.698132,-0.174533,-0.174533,-0.110886,0.688337,-0.15436,-0.201787,4.72398,0.548681,-0.605176,0.817655
26,60,-0.0872665,0.698132,-0.174533,-0.174533,-0.110886,0.688337,-0.15436,-0.201787,4.72398,0.548681,-0.605176,0.817655
26,60,-0.0872665,0.698132,-0.174533,-0.174533,-0.110886,0.688337,-0.15436,-0.201787,4.72398,0.548681,-0.605176,0.817655
26,60,-0.0872665,0.698132,-0.174533,-0.174533,-0.110886,0.688337,-0.15436,-0.201787,4.72398,0.548681,-0.605176,0.817655
26,60,-0.0872665,0.698132,-0.174533,-0.174533,-0.110886,0.688337,-0.15436,-0.201787,4.72398,0.548681,-0.605176,0.817655
26,60,-0.0872665,0.698132,-0.174533,-0.174533,-0.110886,0.688337,-0.15436,-0.201787,4.72398,0.548681,-0.605176,0.817655
26,60,-0.0872665,0.698132,-0.174533,-0.174533,-0.110886,0.688337,-0.15436,-0.201787,4.72398,0.548681,-0.605176,0.817655
26,60,-0.0872665,0.698132,-0.174533,-0.174533,-0.110886,0.688337,-0.15436,-0.201787,4.72398,0.548681,-0.605176,0.817655
26,60,-0.0872665,0.698132,-0.174533,-0.174533,-0.110886,0.688337,-0.15436,-0.201787,4.72398,0.548681,-0.605176,0.817655
26,60,-0.0872665,0.698132,-0.174533,-0.174533,-0.110886,0.688337,-0.15436,-0.201787,4.72398,0.548681,-0.605176,0.817655
26,60,-0.0872665,0.698132,-0.174533,-0.174533,-0.110886,0.688337,-0.15436,-0.201787,4.72398,0.548681,-0.605176,0.817655
26,60,-0.0872665,0.698132,-0.174533,-0.174533,-0.110886,0.688337,-0.15436,-0.201787,4.72398,0.548681,-0.605176,0.817655
26,60,-0.0872665,0.698132,-0.174533,-0.174533,-0.110886,0.688337,-0.15436,-0.201787,4.72398,0.548681,-0.605176,0.817655
26,60,-0.0872665,0.698132,-0.174533,-0.174533,-0.110886,0.688337,-0.15436,-0.201787,4.72398,0.548681,-0.605176,0.817655
26,60,-0.0872665,0.698132,-0.174533,-0.174533,-0.110886,0.688337,-0.15436,-0.201787,4.72398,0.548681,-0.605176,0.817655
26,60,-0.0872665,0.698132,-0.174533,-0.174533,-0.110886,0.688337,-0.15436,-0.201787,4.72398,0.548681,-0.605176,0.817655
26,60,-0.0872665,0.698132,-0.174533,-0.174533,-0.110886,0.688337,-0.15436,-0.201787,4.72398,0.548681,-0.605176,0.817655
26,60,-0.0872665,0.698132,-0.174533,-0.174533,-0.110886,0.688337,-0.15436,-0.201787,4.72398,0.548681,-0.605176,0.817655
26,60,-0.0872665,0.698132,-0.174533,-0.174533,-0.110886,0.688337,-0.15436,-0.201787,4.72398,0.548681,-0.605176,0.817655
26,60,-0.0872665,0.698132,-0.174533,-0.174533,-0.110886,0.688337,-0.15436,-0.201787,4.72398,0.548681,-0.605176,0.817655
26,60,-0.0872665,0.698132,-0.174533,-0.174533,-0.110886,0.688337,-0.15436,-0.201787,4.72398,0.548681,-0.605176,0.817655
26,60,-0.0872665,0.698132,-0.174533,-0.174533,-0.110886,0.688337,-0.15436,-0.201787,4.72398,0.548681,-0.605176,0.817655
26,60,-0.0872665,0.698132,-0.174533,-0.174533,-0.110886,0.688337,-0.15436,-0.201787,4.72398,0.548681,-0.605176,0.817655
26,60,-0.0872665,0.698132,-0.174533,-0.174533,-0.110886,0.688337,-0.15436,-0.201787,4.72398,0.548681,-0.605176,0.817655
26,60,-0.0872665,0.698132,-0.174533,-0.174533,-0.110886,0.688337,-0.15436,-0.201787,4.72398,0.548681,-0.605176,0.817655
26,60,-0.0872665,0.698132,-0.174533,-0.174533,-0.110886,0.688337,-0.15436,-0.201787,4.72398,0.548681,-0.605176,0.817655
26,60,-0.0872665,0.698132,-0.174533,-0.174533,-0.110886,0.688337,-0.15436,-0.201787,4.72398,0.548681,-0.605176,0.817655
26,60,-0.0872665,0.698132,-0.174533,-0.174533,-0.110886,0.688337,-0.15436,-0.201787,4.72398,0.548681,-0.605176,0.817655
26,60,-0.0872665,0.698132,-0.174533,-0.174533,-0.110886,0.688337,-0.15436,-0.201787,4.72398,0.548681,-0.605176,0.817655
26,60,-0.0872665,0.698132,-0.174533,-0.174533,-0.110886,0.688337,-0.15436,-0.201787,4.72398,0.548681,-0.605176,0.817655
26,60,-0.0872665,0.698132,-0.174533,-0.174533,-0.110886,0.688337,-0.15436,-0.201787,4.72398,0.548681,-0.605176,0.817655
26,60,-0.0872665,0.698132,-0.174533,-0.174533,-0.110886,0.688337,-0.15436,-0.201787,4.72398,0.548681,-0.605176,0.817655
26,60,-0.0872665,0.698132,-0.174533,-0.174533,-0.110886,0.688337,-0.15436,-0.201787,4.72398,0.548681,-0.605176,0.817655
26,60,-0.0872665,0.698132,-0.174533,-0.174533,-0.110886,0.688337,-0.15436,-0.201787,4.72398,0.548681,-0.605176,0.817655
26,60,-0.0872665,0.698132,-0.174533,-0.174533,-0.110886,0.688337,-0.15436,-0.201787,4.72398,0.548681,-0.605176,0.817655
26,60,-0.0872665,0.698132,-0.174533,-0.174533,-0.110886,0.688337,-0.15436,-0.201787,4.72398,0.548681,-0.605176,0.817655
26,60,-0.0872665,0.698132,-0.174533,-0.174533,-0.110886,0.688337,-0.15436,-0.201787,4.72398,0.548681,-0.605176,0.817655
26,60,-0.0872665,0.698132,-0.174533,-0.174533,-0.110886,0.688337,-0.15436,-0.201787,4.72398,0.548681,-0.605176,0.817655
26,60,-0.0872665,0.698132,-0.174533,-0.174533,-0.110886,0.688337,-0.15436,-0.201787,4.72398,0.548681,-0.605176,0.817655
26,60,-0.0872665,0.698132,-0.174533,-0.174533,-0.110886,0.688337,-0.15436,-0.201787,4.72398,0.548681,-0.605176,0.817655
26,60,-0.0872665,0.698132,-0.174533,-0.174533,-0.110886,0.688337,-0.15436,-0.201787,4.72398,0.548681,-0.605176,0.817654
26,60,-0.0872665,0.698132,-0.174533,-0.174533,-0.110886,0.688337,-0.15436,-0.201787,4.72398,0.548681,-0.605176,0.817654
26,60,-0.0872665,0.698132,-0.174533,-0.174533,-0.110886,0.688337,-0.15436,-0.201787,4.72398,0.548681,-0.605176,0.817654
26,60,-0.0872665,0.698132,-0.174533,-0.174533,-0.110886,0.688337,-0.15436,-0.201787,4.72398,0.548681,-0.605176,0.817654
26,60,-0.0872665,0.698132,-0.174533,-0.174533,-0.110886,0.688337,-0.15436,-0.201787,4.72398,0.548681,-0.605176,0.817654
26,60,-0.0872665,0.698132,-0.174533,-0.174533,-0.110886,0.688337,-0.15436,-0.201787,4.72398,0.548681,-0.605176,0.817653
26,60,-0.0872665,0.698132,-0.174533,-0.174533,-0.110886,0.688337,-0.15436,-0.201787,4.72398,0.548681,-0.605176,0.817653
26,60,-0.0872665,0.698132,-0.174533,-0.174533,-0.110886,0.688337,-0.15436,-0.201787,4.72398,0.548681,-0.605176,0.817653
26,60,-0.0872665,0.698132,-0.174533,-0.174533,-0.110886,0.688337,-0.15436,-0.201787,4.72398,0.548681,-0.605177,0.817653
26,60,-0.0872665,0.698132,-0.174533,-0.174533,-0.110886,0.688337,-0.15436,-0.201787,4.72398,0.548681,-0.605177,0.817653
26,60,-0.0872665,0.698132,-0.174533,-0.174533,-0.110886,0.688337,-0.15436,-0.201787,4.72398,0.548681,-0.605177,0.817652
26,60,-0.0872665,0.698132,-0.174533,-0.174533,-0.110886,0.688337,-0.15436,-0.201787,4.72398,0.548681,-0.605177,0.817652
26,60,-0.0872665,0.698132,-0.174533,-0.174533,-0.110886,0.688337,-0.15436,-0.201787,4.72398,0.548681,-0.605177,0.817652
26,60,-0.0872665,0.698132,-0.174533,-0.174533,-0.110886,0.688337,-0.15436,-0.201787,4.72398,0.548681,-0.605177,0.817652
26,60,-0.0872665,0.698132,-0.174533,-0.174533,-0.110886,0.688337,-0.15436,-0.201787,4.72398,0.548681,-0.605177,0.817652
26,60,-0.0872665,0.698132,-0.174533,-0.174533,-0.110886,0.688337,-0.15436,-0.201787,4.72398,0.548681,-0.605177,0.817651
26,60,-0.0872665,0.698132,-0.174533,-0.174533,-0.110886,0.688337,-0.15436,-0.201787,4.72398,0.548681,-0.605177,0.817651
26,60,-0.0872665,0.698132,-0.174533,-0.174533,-0.110886,0.688337,-0.15436,-0.201787,4.72398,0.548681,-0.605177,0.817651
26,60,-0.0872665,0.698132,-0.174533,-0.174533,-0.110886,0.688337,-0.15436,-0.201787,4.72398,0.548681,-0.605177,0.817651
26,60,-0.0872665,0.698132,-0.174533,-0.174533,-0.110886,0.688337,-0.15436,-0.201787,4.72398,0.548681,-0.605177,0.817651
26,60,-0.0872665,0.698132,-0.174533,-0.174533,-0.110886,0.688337,-0.15436,-0.201787,4.72398,0.548681,-0.605177,0.817651
26,60,-0.0872665,0.698132,-0.174533,-0.174533,-0.110886,0.688337,-0.15436,-0.201787,4.72398,0.548681,-0.605177,0.81765
26,60,-0.0872665,0.698132,-0.174533,-0.174533,-0.110886,0.688337,-0.15436,-0.201787,4.72398,0.548681,-0.605177,0.81765
26,60,-0.0872665,0.698132,-0.174533,-0.174533,-0.110886,0.688337,-0.15436,-0.201787,4.72398,0.548681,-0.605177,0.81765
26,60,-0.0872665,0.698132,-0.174533,-0.174533,-0.110886,0.688337,-0.15436,-0.201787,4.72398,0.548681,-0.605177,0.81765
26,60,-0.0872665,0.698132,-0.174533,-0.174533,-0.110886,0.688337,-0.15436,-0.201787,4.72398,0.548681,-0.605177,0.81765
26,60,-0.0872665,0.698132,-0.174533,-0.174533,-0.110886,0.688337,-0.15436,-0.201787,4.72398,0.548681,-0.605177,0.81765
26,60,-0.0872665,0.698132,-0.174533,-0.174533,-0.110886,0.688337,-0.15436,-0.201787,4.72398,0.548681,-0.605177,0.817649
26,60,-0.0872665,0.698132,-0.174533,-0.174533,-0.110886,0.688337,-0.15436,-0.201787,4.72398,0.548681,-0.605177,0.817649
26,60,-0.0872665,0.698132,-0.174533,-0.174533,-0.110886,0.688337,-0.15436,-0.201787,4.72398,0.548681,-0.605177,0.817649
26,60,-0.0872665,0.698132,-0.174533,-0.174533,-0.110886,0.688337,-0.15436,-0.201787,4.72398,0.548681,-0.605177,0.817649
26,60,-0.0872665,0.698132,-0.174533,-0.174533,-0.110886,0.688337,-0.15436,-0.201787,4.72398,0.548681,-0.605177,0.817649
26,60,-0.0872665,0.698132,-0.174533,-0.174533,-0.110886,0.688337,-0.15436,-0.201787,4.72398,0.548681,-0.605177,0.817649
26,60,-0.0872665,0.698132,-0.174533,-0.174533,-0.110886,0.688337,-0.15436,-0.201787,4.72398,0.548681,-0.605177,0.817649
26,60,-0.0872665,0.698132,-0.174533,-0.174533,-0.110886,0.688337,-0.15436,-0.201787,4.72398,0.548681,-0.605177,0.817648
26,60,-0.0872665,0.698132,-0.174533,-0.174533,-0.110886,0.688337,-0.15436,-0.201787,4.72398,0.548681,-0.605177,0.817648
26,60,-0.0872665,0.698132,-0.174533,-0.174533,-0.110886,0.688337,-0.15436,-0.201787,4.72398,0.548681,-0.605177,0.817648
26,60,-0.0872665,0.698132,-0.174533,-0.174533,-0.110886,0.688337,-0.15436,-0.201787,4.72398,0.548681,-0.605177,0.817648
26,60,-0.0872665,0.698132,-0.174533,-0.174533,-0.110886,0.688337,-0.15436,-0.201787,4.72398,0.548681,-0.605177,0.817648
26,60,-0.0872665,0.698132,-0.174533,-0.174533,-0.110886,0.688337,-0.15436,-0.201787,4.72398,0.548681,-0.605177,0.817648
26,60,-0.0872665,0.698132,-0.174533,-0.174533,-0.110886,0.688337,-0.15436,-0.201787,4.72398,0.548681,-0.605177,0.817648
26,60,-0.0872665,0.698132,-0.174533,-0.174533,-0.110886,0.688337,-0.15436,-0.201787,4.72398,0.548518,-0.605177,0.817648
26,60,-0.0872665,0.698132,-0.174533,-0.174533,-0.110886,0.688337,-0.15436,-0.201787,4.72398,0.548518,-0.605177,0.817647
26,60,-0.0872665,0.698132,-0.174533,-0.174533,-0.110886,0.688337,-0.15436,-0.201787,4.72398,0.548518,-0.605177,0.817647
26,60,-0.0872665,0.698132,-0.174533,-0.174533,-0.110886,0.688337,-0.15436,-0.201787,4.72398,0.548518,-0.605177,0.817647
26,60,-0.0872665,0.698132,-0.174533,-0.174533,-0.110886,0.688337,-0.15436,-0.201787,4.72398,0.548518,-0.605177,0.817647
26,60,-0.0872665,0.698132,-0.174533,-0.174533,-0.110886,0.688337,-0.15436,-0.201787,4.72398,0.548518,-0.605177,0.817647
26,60,-0.0872665,0.698132,-0.174533,-0.174533,-0.110886,0.688337,-0.15436,-0.201787,4.72398,0.548518,-0.605177,0.817647
26,60,-0.0872665,0.698132,-0.174533,-0.174533,-0.110886,0.688337,-0.15436,-0.201787,4.72398,0.548518,-0.605177,0.817647
26,60,-0.0872665,0.698132,-0.174533,-0.174533,-0.110886,0.688337,-0.15436,-0.201787,4.72398,0.548518,-0.605177,0.817647
26,60,-0.0872665,0.698132,-0.174533,-0.174533,-0.110886,0.688337,-0.15436,-0.201787,4.72398,0.548518,-0.605177,0.817647
26,60,-0.0872665,0.698132,-0.174533,-0.174533,-0.110886,0.688337,-0.15436,-0.201787,4.72398,0.548518,-0.605177,0.817646
26,60,-0.0872665,0.698132,-0.174533,-0.174533,-0.110886,0.688337,-0.15436,-0.201787,4.72398,0.548518,-0.605177,0.817646
26,60,-0.0872665,0.698132,-0.174533,-0.174533,-0.110886,0.688337,-0.15436,-0.201787,4.72398,0.548518,-0.605177,0.817646
26,60,-0.0872665,0.698132,-0.174533,-0.174533,-0.110886,0.688337,-0.15436,-0.201787,4.72398,0.548518,-0.605177,0.817646
26,60,-0.0872665,0.698132,-0.174533,-0.174533,-0.110886,0.688337,-0.15436,-0.201787,4.72398,0.548518,-0.605177,0.817646
26,60,-0.0872665,0.698132,-0.174533,-0.174533,-0.110886,0.688337,-0.15436,-0.201787,4.72398,0.548518,-0.605177,0.817646
26,60,-0.0872665,0.698132,-0.174533,-0.174533,-0.110886,0.688337,-0.15436,-0.201787,4.72398,0.548518,-0.605177,0.817646
26,60,-0.0872665,0.698132,-0.174533,-0.174533,-0.110886,0.688337,-0.15436,-0.201787,4.72398,0.548518,-0.605177,0.817646
26,60,-0.0872665,0.698132,-0.174533,-0.174533,-0.110886,0.688337,-0.15436,-0.201787,4.72398,0.548518,-0.605177,0.817646
26,60,-0.0872665,0.698132,-0.174533,-0.174533,-0.110886,0.688337,-0.15436,-0.201787,4.72398,0.548518,-0.605177,0.817646
26,60,-0.0872665,0.698132,-0.174533,-0.174533,-0.110886,0.688337,-0.15436,-0.201787,4.72398,0.548518,-0.605177,0.817645
26,60,-0.0872665,0.698132,-0.174533,-0.174533,-0.110886,0.688337,-0.15436,-0.201787,4.72398,0.548518,-0.605175,0.817646
26,60,-0.0872665,0.698132,-0.174533,-0.174533,-0.110886,0.688337,-0.15436,-0.201787,4.72398,0.548518,-0.605175,0.817646
26,60,-0.0872665,0.698132,-0.174533,-0.174533,-0.110886,0.688337,-0.15436,-0.201787,4.72398,0.548518,-0.605175,0.817646
26,60,-0.0872665,0.698132,-0.174533,-0.174533,-0.110886,0.688337,-0.15436,-0.201787,4.72398,0.548518,-0.605175,0.817646
26,60,-0.0872665,0.698132,-0.174533,-0.174533,-0.110886,0.688337,-0.15436,-0.201787,4.72398,0.548518,-0.605175,0.817646
26,60,-0.0872665,0.698132,-0.174533,-0.174533,-0.110886,0.688337,-0.15436,-0.201787,4.72398,0.548518,-0.605176,0.817646
26,60,-0.0872665,0.698132,-0.174533,-0.174533,-0.110886,0.688337,-0.15436,-0.201787,4.72398,0.548518,-0.605176,0.817646
26,60,-0.0872665,0.698132,-0.174533,-0.174533,-0.110886,0.688337,-0.15436,-0.201787,4.72398,0.548518,-0.605176,0.817646
26,60,-0.0872665,0.698132,-0.174533,-0.174533,-0.110886,0.688337,-0.15436,-0.201787,4.72398,0.548518,-0.605176,0.817645
26,60,-0.0872665,0.698132,-0.174533,-0.174533,-0.110886,0.688337,-0.15436,-0.201787,4.72398,0.548518,-0.605176,0.817645
26,60,-0.0872665,0.698132,-0.174533,-0.174533,-0.110886,0.688337,-0.15436,-0.201787,4.72398,0.548518,-0.605176,0.817645
26,60,-0.0872665,0.698132,-0.174533,-0.174533,-0.110886,0.688337,-0.15436,-0.201787,4.72398,0.548518,-0.605176,0.817645
26,60,-0.0872665,0.698132,-0.174533,-0.174533,-0.110886,0.688337,-0.15436,-0.201787,4.72398,0.548518,-0.605176,0.817645
26,60,-0.0872665,0.698132,-0.174533,-0.174533,-0.110886,0.688337,-0.15436,-0.201787,4.72398,0.548518,-0.605176,0.817645
26,60,-0.0872665,0.698132,-0.174533,-0.174533,-0.110886,0.688337,-0.154292,-0.201744,4.72398,0.548518,-0.607244,0.816343
26,60,-0.0872665,0.698132,-0.174533,-0.174533,-0.110886,0.688337,-0.154292,-0.201744,4.72398,0.548518,-0.607244,0.816343
26,60,-0.0872665,0.698132,-0.174533,-0.174533,-0.110886,0.688337,-0.154292,-0.201744,4.72398,0.548518,-0.607244,0.816343
26,60,-0.0872665,0.698132,-0.174533,-0.174533,-0.110886,0.688337,-0.154292,-0.201744,4.72398,0.548518,-0.607244,0.816342
26,60,-0.0872665,0.698132,-0.174533,-0.174533,-0.110886,0.688337,-0.154292,-0.201744,4.72398,0.548518,-0.607244,0.816342
26,60,-0.0872665,0.698132,-0.174533,-0.174533,-0.110886,0.688337,-0.154292,-0.201744,4.72398,0.548518,-0.607244,0.816342
26,60,-0.0872665,0.698132,-0.174533,-0.174533,-0.110886,0.688337,-0.154292,-0.201744,4.72398,0.548518,-0.607244,0.816342
26,60,-0.0872665,0.698132,-0.174533,-0.174533,-0.110886,0.688337,-0.154292,-0.201744,4.72398,0.548518,-0.607244,0.816342
26,60,-0.0872665,0.698132,-0.174533,-0.174533,-0.110886,0.688337,-0.154292,-0.201744,4.72398,0.548518,-0.607244,0.816342
26,60,-0.0872665,0.698132,-0.174533,-0.174533,-0.110886,0.688286,-0.154292,-0.201744,4.72398,0.551405,-0.607244,0.816342
26,60,-0.0872665,0.698132,-0.174533,-0.174533,-0.110886,0.688286,-0.154292,-0.201744,4.72398,0.551405,-0.607244,0.816342
26,60,-0.0872665,0.698132,-0.174533,-0.174533,-0.110886,0.688286,-0.154292,-0.201744,4.72398,0.551405,-0.607244,0.816342
26,60,-0.0872665,0.698132,-0.174533,-0.174533,-0.110886,0.688286,-0.154292,-0.201744,4.72398,0.551405,-0.607244,0.816342
26,60,-0.0872665,0.698132,-0.174533,-0.174533,-0.110886,0.688286,-0.154292,-0.201744,4.72398,0.551405,-0.607244,0.816342
26,60,-0.0872665,0.698132,-0.174533,-0.174533,-0.110886,0.688286,-0.154292,-0.201744,4.72398,0.551405,-0.607244,0.816342
26,60,-0.0872665,0.698132,-0.174533,-0.174533,-0.110886,0.688286,-0.154292,-0.201744,4.72398,0.551405,-0.607244,0.816342
26,60,-0.0872665,0.698132,-0.174533,-0.174533,-0.110886,0.688286,-0.154292,-0.201744,4.72398,0.551405,-0.607244,0.816341
26,60,-0.0872665,0.698132,-0.174533,-0.174533,-0.110886,0.688286,-0.154292,-0.201744,4.72398,0.551405,-0.607244,0.816341
26,60,-0.0872665,0.698132,-0.174533,-0.174533,-0.110886,0.688286,-0.154292,-0.201744,4.72398,0.551405,-0.607244,0.816341
26,60,-0.0872665,0.698132,-0.174533,-0.174533,-0.110886,0.688286,-0.154292,-0.201744,4.72398,0.551405,-0.607244,0.816341
26,60,-0.0872665,0.698132,-0.174533,-0.174533,-0.110886,0.688286,-0.154292,-0.201744,4.72398,0.551405,-0.607245,0.816327
26,60,-0.0872665,0.698132,-0.174533,-0.174533,-0.110886,0.688286,-0.154292,-0.201744,4.72398,0.551405,-0.607245,0.816327
26,60,-0.0872665,0.698132,-0.174533,-0.174533,-0.110886,0.688286,-0.154292,-0.201744,4.72398,0.551405,-0.607245,0.816327
26,60,-0.0872665,0.698132,-0.174533,-0.174533,-0.110886,0.688286,-0.154292,-0.201744,4.72398,0.551405,-0.607245,0.816327
26,60,-0.0872665,0.698132,-0.174533,-0.174533,-0.110886,0.688286,-0.154292,-0.201744,4.72398,0.551405,-0.607245,0.816327
26,60,-0.0872665,0.698132,-0.174533,-0.174533,-0.110886,0.688286,-0.154292,-0.201744,4.72398,0.551405,-0.607245,0.816327
26,60,-0.0872665,0.698132,-0.174533,-0.174533,-0.110886,0.688286,-0.154292,-0.201744,4.72398,0.551405,-0.607245,0.816327
26,60,-0.0872665,0.698132,-0.174533,-0.174533,-0.110886,0.688286,-0.154292,-0.201744,4.72398,0.551405,-0.607245,0.816327
26,60,-0.0872665,0.698132,-0.174533,-0.174533,-0.110886,0.688286,-0.154292,-0.201744,4.72398,0.551405,-0.607245,0.816327
26,60,-0.0872665,0.698132,-0.174533,-0.174533,-0.110886,0.688286,-0.154292,-0.201744,4.72398,0.551405,-0.607245,0.816327
26,60,-0.0872665,0.698132,-0.174533,-0.174533,-0.110886,0.688286,-0.154292,-0.201744,4.72398,0.551405,-0.607245,0.816327
26,60,-0.0872665,0.698132,-0.174533,-0.174533,-0.110886,0.688286,-0.154292,-0.201744,4.72398,0.551405,-0.607245,0.816327
26,60,-0.0872665,0.698132,-0.174533,-0.174533,-0.110886,0.688286,-0.154292,-0.201744,4.72398,0.551405,-0.607245,0.816327
26,60,-0.0872665,0.698132,-0.174533,-0.174533,-0.110886,0.688286,-0.154292,-0.201744,4.72398,0.551405,-0.607245,0.816327
26,60,-0.0872665,0.698132,-0.174533,-0.174533,-0.110886,0.688286,-0.154292,-0.201744,4.72398,0.551405,-0.607245,0.816327
26,60,-0.0872665,0.698132,-0.174533,-0.174533,-0.110886,0.688286,-0.154292,-0.201744,4.72398,0.551405,-0.607245,0.816327
26,60,-0.0872665,0.698132,-0.174533,-0.174533,-0.110886,0.688286,-0.154292,-0.201744,4.72398,0.551405,-0.607245,0.816327
26,60,-0.0872665,0.698132,-0.174533,-0.174533,-0.110886,0.688286,-0.154292,-0.201744,4.72398,0.551405,-0.607245,0.816327
26,60,-0.0872665,0.698132,-0.174533,-0.174533,-0.110886,0.688286,-0.154292,-0.201744,4.72398,0.551405,-0.607245,0.816327
26,60,-0.0872665,0.698132,-0.174533,-0.174533,-0.110886,0.688286,-0.154292,-0.201744,4.72398,0.551405,-0.607245,0.816327
26,60,-0.0872665,0.698132,-0.174533,-0.174533,-0.110886,0.688286,-0.154292,-0.201744,4.72398,0.551405,-0.607245,0.816327
26,60,-0.0872665,0.698132,-0.174533,-0.174533,-0.110886,0.688286,-0.154292,-0.201744,4.72398,0.551405,-0.607245,0.816327
26,60,-0.0872665,0.698132,-0.174533,-0.174533,-0.110886,0.688286,-0.154292,-0.201744,4.72398,0.551405,-0.607245,0.816327
26,60,-0.0872665,0.698132,-0.174533,-0.174533,-0.110886,0.688286,-0.154292,-0.201744,4.72398,0.551405,-0.607245,0.816327
26,60,-0.0872665,0.698132,-0.174533,-0.174533,-0.110886,0.688286,-0.154292,-0.201744,4.72398,0.551405,-0.607245,0.816327
26,60,-0.0872665,0.698132,-0.174533,-0.174533,-0.110886,0.688286,-0.154292,-0.201744,4.72398,0.551405,-0.607245,0.816327
26,60,-0.0872665,0.698132,-0.174533,-0.174533,-0.110886,0.688286,-0.154292,-0.201744,4.72398,0.551405,-0.607245,0.816327
26,60,-0.0872665,0.698132,-0.174533,-0.174533,-0.110886,0.688286,-0.154292,-0.201744,4.72398,0.551405,-0.607245,0.816327
26,60,-0.0872665,0.698132,-0.174533,-0.174533,-0.110886,0.688286,-0.154292,-0.201744,4.72398,0.551405,-0.607245,0.816327
26,60,-0.0872665,0.698132,-0.174533,-0.174533,-0.110886,0.688286,-0.154292,-0.201744,4.72398,0.551405,-0.607245,0.816327
26,60,-0.0872665,0.698132,-0.174533,-0.174533,-0.110886,0.688286,-0.154292,-0.201744,4.72398,0.551405,-0.607245,0.816327
26,60,-0.0872665,0.698132,-0.174533,-0.174533,-0.110886,0.688286,-0.154292,-0.201744,4.72398,0.551405,-0.607245,0.816327
26,60,-0.0872665,0.698132,-0.174533,-0.174533,-0.110886,0.688286,-0.154292,-0.201744,4.72398,0.551405,-0.607245,0.816327
26,60,-0.0872665,0.698132,-0.174533,-0.174533,-0.110886,0.688286,-0.154292,-0.201744,4.72398,0.551405,-0.607245,0.816327
26,60,-0.0872665,0.698132,-0.174533,-0.174533,-0.110886,0.688286,-0.154292,-0.201744,4.72398,0.551405,-0.607245,0.816327
26,60,-0.0872665,0.698132,-0.174533,-0.174533,-0.110886,0.688286,-0.154292,-0.201744,4.72398,0.551405,-0.607245,0.816327
26,60,-0.0872665,0.698132,-0.174533,-0.174533,-0.110886,0.688286,-0.154292,-0.201744,4.72398,0.551405,-0.607245,0.816327
26,60,-0.0872665,0.698132,-0.174533,-0.174533,-0.110886,0.688286,-0.154292,-0.201744,4.72398,0.551405,-0.607245,0.816327
26,60,-0.0872665,0.698132,-0.174533,-0.174533,-0.110886,0.688286,-0.154292,-0.201744,4.72398,0.551405,-0.607245,0.816327
26,60,-0.0872665,0.698132,-0.174533,-0.174533,-0.110886,0.688286,-0.154292,-0.201744,4.72398,0.551405,-0.607245,0.816327
26,60,-0.0872665,0.698132,-0.174533,-0.174533,-0.110886,0.688286,-0.154292,-0.201744,4.72398,0.551405,-0.607245,0.816327
26,60,-0.0872665,0.698132,-0.174533,-0.174533,-0.110886,0.688286,-0.154292,-0.201744,4.72398,0.551405,-0.607245,0.816327
26,60,-0.0872665,0.698132,-0.174533,-0.174533,-0.110886,0.688286,-0.154292,-0.201744,4.72398,0.551405,-0.607245,0.816327
26,60,-0.0872665,0.698132,-0.174533,-0.174533,-0.110886,0.688286,-0.154292,-0.201744,4.72398,0.551405,-0.607245,0.816327
26,60,-0.0872665,0.698132,-0.174533,-0.174533,-0.110886,0.688286,-0.154292,-0.201744,4.72398,0.551405,-0.607245,0.816327
26,60,-0.0872665,0.698132,-0.174533,-0.174533,-0.110886,0.688286,-0.154292,-0.201744,4.72398,0.551405,-0.607245,0.816327
26,60,-0.0872665,0.698132,-0.174533,-0.174533,-0.110886,0.688286,-0.154292,-0.201744,4.72398,0.551405,-0.607245,0.816327
26,60,-0.0872665,0.698132,-0.174533,-0.174533,-0.110886,0.688286,-0.154292,-0.201744,4.72398,0.551405,-0.607245,0.816327
26,60,-0.0872665,0.698132,-0.174533,-0.174533,-0.110886,0.688286,-0.154292,-0.201744,4.72398,0.551405,-0.607245,0.816327
26,60,-0.0872665,0.698132,-0.174533,-0.174533,-0.110886,0.688286,-0.154292,-0.201744,4.72398,0.551405,-0.607245,0.816327
26,60,-0.0872665,0.698132,-0.174533,-0.174533,-0.110886,0.688286,-0.154292,-0.201744,4.72398,0.551405,-0.607245,0.816327
26,60,-0.0872665,0.698132,-0.174533,-0.174533,-0.110886,0.688286,-0.154292,-0.201744,4.72398,0.551405,-0.607245,0.816327
26,60,-0.0872665,0.698132,-0.174533,-0.174533,-0.110886,0.688286,-0.154292,-0.201744,4.72398,0.551405,-0.607245,0.816327
26,60,-0.0872665,0.698132,-0.174533,-0.174533,-0.110886,0.688286,-0.154224,-0.201701,4.72398,0.551405,-0.609286,0.815042
26,60,-0.0872665,0.698132,-0.174533,-0.174533,-0.110886,0.688286,-0.154224,-0.201701,4.72398,0.551405,-0.609286,0.815042
26,60,-0.0872665,0.698132,-0.174533,-0.174533,-0.110886,0.688286,-0.154224,-0.201701,4.72398,0.551405,-0.609286,0.815042
26,60,-0.0872665,0.698132,-0.174533,-0.174533,-0.110886,0.688286,-0.154224,-0.201701,4.72398,0.551405,-0.609286,0.815042
26,60,-0.0872665,0.698132,-0.174533,-0.174533,-0.110886,0.688286,-0.154224,-0.201701,4.72398,0.551405,-0.609286,0.815042
26,60,-0.0872665,0.698132,-0.174533,-0.174533,-0.110886,0.688286,-0.154224,-0.201701,4.72398,0.551405,-0.609286,0.815042
26,60,-0.0872665,0.698132,-0.174533,-0.174533,-0.110886,0.688286,-0.154224,-0.201701,4.72398,0.551405,-0.609286,0.815042
26,60,-0.0872665,0.698132,-0.174533,-0.174533,-0.110886,0.688286,-0.154224,-0.201701,4.72398,0.551405,-0.609286,0.815042
26,60,-0.0872665,0.698132,-0.174533,-0.174533,-0.110886,0.688286,-0.154224,-0.201701,4.72398,0.551405,-0.609286,0.815042
26,60,-0.0872665,0.698132,-0.174533,-0.174533,-0.110886,0.688286,-0.154224,-0.201701,4.72398,0.551405,-0.609286,0.815042
26,60,-0.0872665,0.698132,-0.174533,-0.174533,-0.110886,0.688286,-0.154224,-0.201701,4.72398,0.551405,-0.609286,0.815042
26,60,-0.0872665,0.698132,-0.174533,-0.174533,-0.110886,0.688286,-0.154155,-0.201658,4.72398,0.551405,-0.611342,0.813747
26,60,-0.0872665,0.698132,-0.174533,-0.174533,-0.110886,0.688286,-0.154155,-0.201658,4.72398,0.551405,-0.611342,0.813747
26,60,-0.0872665,0.698132,-0.174533,-0.174533,-0.110886,0.688286,-0.154155,-0.201658,4.72398,0.551405,-0.611342,0.813747
26,60,-0.0872665,0.698132,-0.174533,-0.174533,-0.110886,0.688286,-0.154155,-0.201658,4.72398,0.551405,-0.611342,0.813747
26,60,-0.0872665,0.698132,-0.174533,-0.174533,-0.110886,0.688286,-0.154155,-0.201658,4.72398,0.551405,-0.611342,0.813747
26,60,-0.0872665,0.698132,-0.174533,-0.174533,-0.110886,0.688286,-0.154155,-0.201658,4.72398,0.551405,-0.611342,0.813747
26,60,-0.0872665,0.698132,-0.174533,-0.174533,-0.110886,0.688286,-0.154155,-0.201658,4.72398,0.551405,-0.611342,0.813747
26,60,-0.0872665,0.698132,-0.174533,-0.174533,-0.110886,0.688286,-0.154155,-0.201658,4.72398,0.551405,-0.611342,0.813747
26,60,-0.0872665,0.698132,-0.174533,-0.174533,-0.110886,0.688286,-0.154155,-0.201658,4.72398,0.551405,-0.611342,0.813747
26,60,-0.0872665,0.698132,-0.174533,-0.174533,-0.110886,0.688286,-0.154155,-0.201658,4.72398,0.551405,-0.611342,0.813747
26,60,-0.0872665,0.698132,-0.174533,-0.174533,-0.110886,0.688286,-0.154155,-0.201658,4.72398,0.551405,-0.611342,0.813747
26,60,-0.0872665,0.698132,-0.174533,-0.174533,-0.110886,0.688286,-0.154155,-0.201658,4.72398,0.551405,-0.611342,0.813747
26,60,-0.0872665,0.698132,-0.174533,-0.174533,-0.110886,0.688286,-0.154155,-0.201658,4.72398,0.551405,-0.611342,0.813747
26,60,-0.0872665,0.698132,-0.174533,-0.174533,-0.110886,0.688286,-0.154155,-0.201658,4.72398,0.551405,-0.611342,0.813747
26,60,-0.0872665,0.698132,-0.174533,-0.174533,-0.110886,0.688286,-0.154155,-0.201658,4.72398,0.551405,-0.611342,0.813747
26,60,-0.0872665,0.698132,-0.174533,-0.174533,-0.110886,0.688286,-0.154155,-0.201658,4.72398,0.551405,-0.611342,0.813747
26,60,-0.0872665,0.698132,-0.174533,-0.174533,-0.110886,0.688286,-0.154155,-0.201658,4.72398,0.551405,-0.611342,0.813747
26,60,-0.0872665,0.698132,-0.174533,-0.174533,-0.110886,0.688286,-0.154155,-0.201658,4.72398,0.551405,-0.611342,0.813747
26,60,-0.0872665,0.698132,-0.174533,-0.174533,-0.110886,0.688286,-0.154155,-0.201658,4.72398,0.551405,-0.611342,0.813747
26,60,-0.0872665,0.698132,-0.174533,-0.174533,-0.110886,0.688286,-0.154155,-0.201658,4.72398,0.551405,-0.611342,0.813747
26,60,-0.0872665,0.698132,-0.174533,-0.174533,-0.110886,0.688286,-0.154155,-0.201658,4.72398,0.551405,-0.611342,0.813747
26,60,-0.0872665,0.698132,-0.174533,-0.174533,-0.110886,0.688286,-0.154155,-0.201658,4.72398,0.551405,-0.611342,0.813747
26,60,-0.0872665,0.698132,-0.174533,-0.174533,-0.110886,0.688286,-0.154155,-0.201658,4.72398,0.551405,-0.611342,0.813747
26,60,-0.0872665,0.698132,-0.174533,-0.174533,-0.110886,0.688286,-0.154155,-0.201658,4.72398,0.551405,-0.611342,0.813747
26,60,-0.0872665,0.698132,-0.174533,-0.174533,-0.110886,0.688286,-0.154155,-0.201658,4.72398,0.551405,-0.611342,0.813747
26,60,-0.0872665,0.698132,-0.174533,-0.174533,-0.110886,0.688286,-0.154155,-0.201658,4.72398,0.551405,-0.611342,0.813747
26,60,-0.0872665,0.698132,-0.174533,-0.174533,-0.110886,0.688286,-0.154155,-0.201658,4.72398,0.551405,-0.611342,0.813747
26,60,-0.0872665,0.698132,-0.174533,-0.174533,-0.110886,0.688286,-0.154155,-0.201658,4.72398,0.551405,-0.611342,0.813747
26,60,-0.0872665,0.698132,-0.174533,-0.174533,-0.110886,0.688286,-0.154155,-0.201658,4.72398,0.551405,-0.611342,0.813747
26,60,-0.0872665,0.698132,-0.174533,-0.174533,-0.110886,0.688286,-0.154155,-0.201658,4.72398,0.551405,-0.611342,0.813747
26,60,-0.0872665,0.698132,-0.174533,-0.174533,-0.110886,0.688286,-0.154155,-0.201658,4.72398,0.551405,-0.611342,0.813747
26,60,-0.0872665,0.698132,-0.174533,-0.174533,-0.110886,0.688286,-0.154155,-0.201658,4.72398,0.551405,-0.611342,0.813747
26,60,-0.0872665,0.698132,-0.174533,-0.174533,-0.110886,0.688286,-0.154155,-0.201658,4.72398,0.551405,-0.611342,0.813747
26,60,-0.0872665,0.698132,-0.174533,-0.174533,-0.110886,0.688286,-0.154155,-0.201658,4.72398,0.551405,-0.611342,0.813747
26,60,-0.0872665,0.698132,-0.174533,-0.174533,-0.110886,0.688286,-0.154155,-0.201658,4.72398,0.551405,-0.611342,0.813747
26,60,-0.0872665,0.698132,-0.174533,-0.174533,-0.110886,0.688286,-0.154155,-0.201658,4.72398,0.551405,-0.611342,0.813747
26,60,-0.0872665,0.698132,-0.174533,-0.174533,-0.110886,0.688286,-0.154155,-0.201658,4.72398,0.551405,-0.611342,0.813747
26,60,-0.0872665,0.698132,-0.174533,-0.174533,-0.110886,0.688286,-0.154158,-0.201718,4.72398,0.551405,-0.61125,0.815543
26,60,-0.0872665,0.698132,-0.174533,-0.174533,-0.110886,0.688286,-0.154158,-0.201718,4.72398,0.551405,-0.61125,0.815543
26,60,-0.0872665,0.698132,-0.174533,-0.174533,-0.110886,0.688286,-0.154158,-0.201718,4.72398,0.551405,-0.61125,0.815543
26,60,-0.0872665,0.698132,-0.174533,-0.174533,-0.110886,0.688286,-0.154158,-0.201718,4.72398,0.551405,-0.61125,0.815543
26,60,-0.0872665,0.698132,-0.174533,-0.174533,-0.110886,0.688286,-0.154158,-0.201718,4.72398,0.551405,-0.61125,0.815543
26,60,-0.0872665,0.698132,-0.174533,-0.174533,-0.110886,0.688286,-0.154158,-0.201718,4.72398,0.551405,-0.61125,0.815543
26,60,-0.0872665,0.698132,-0.174533,-0.174533,-0.110886,0.688286,-0.154158,-0.201718,4.72398,0.551405,-0.61125,0.815543
26,60,-0.0872665,0.698132,-0.174533,-0.174533,-0.110886,0.688286,-0.154158,-0.201718,4.72398,0.551405,-0.61125,0.815543
26,60,-0.0872665,0.698132,-0.174533,-0.174533,-0.110886,0.688286,-0.154158,-0.201718,4.72398,0.551405,-0.61125,0.815543
26,60,-0.0872665,0.698132,-0.174533,-0.174533,-0.110886,0.688286,-0.154158,-0.201718,4.72398,0.551405,-0.61125,0.815543
26,60,-0.0872665,0.698132,-0.174533,-0.174533,-0.110886,0.688286,-0.154158,-0.201718,4.72398,0.551405,-0.61125,0.815543
26,60,-0.0872665,0.698132,-0.174533,-0.174533,-0.110886,0.688286,-0.154158,-0.201718,4.72398,0.551405,-0.61125,0.815543
26,60,-0.0872665,0.698132,-0.174533,-0.174533,-0.110886,0.688286,-0.154158,-0.201718,4.72398,0.551405,-0.61125,0.815543
26,60,-0.0872665,0.698132,-0.174533,-0.174533,-0.110886,0.688286,-0.154158,-0.201718,4.72398,0.551405,-0.61125,0.815543
26,60,-0.0872665,0.698132,-0.174533,-0.174533,-0.110886,0.688286,-0.154158,-0.201718,4.72398,0.551405,-0.61125,0.815543
26,60,-0.0872665,0.698132,-0.174533,-0.174533,-0.110886,0.688286,-0.154158,-0.201718,4.72398,0.551405,-0.61125,0.815543
26,60,-0.0872665,0.698132,-0.174533,-0.174533,-0.110886,0.688286,-0.154158,-0.201718,4.72398,0.551405,-0.61125,0.815543
26,60,-0.0872665,0.698132,-0.174533,-0.174533,-0.110886,0.688286,-0.154158,-0.201718,4.72398,0.551405,-0.61125,0.815543
26,60,-0.0872665,0.698132,-0.174533,-0.174533,-0.110886,0.688286,-0.15409,-0.201675,4.72398,0.551405,-0.613319,0.81424
26,60,-0.0872665,0.698132,-0.174533,-0.174533,-0.110886,0.688286,-0.15409,-0.201675,4.72398,0.551405,-0.613319,0.81424
26,60,-0.0872665,0.698132,-0.174533,-0.174533,-0.110886,0.688286,-0.15409,-0.201675,4.72398,0.551405,-0.613319,0.81424
26,60,-0.0872665,0.698132,-0.174533,-0.174533,-0.110886,0.688286,-0.15409,-0.201675,4.72398,0.551405,-0.613319,0.81424
26,60,-0.0872665,0.698132,-0.174533,-0.174533,-0.110886,0.688286,-0.15409,-0.201675,4.72398,0.551405,-0.613319,0.81424
26,60,-0.0872665,0.698132,-0.174533,-0.174533,-0.110886,0.688286,-0.15409,-0.201675,4.72398,0.551405,-0.613319,0.81424
26,60,-0.0872665,0.698132,-0.174533,-0.174533,-0.110886,0.688286,-0.15409,-0.201675,4.72398,0.551405,-0.613319,0.81424
26,60,-0.0872665,0.698132,-0.174533,-0.174533,-0.110886,0.688286,-0.15409,-0.201675,4.72398,0.551405,-0.613319,0.81424
26,60,-0.0872665,0.698132,-0.174533,-0.174533,-0.110886,0.688286,-0.15409,-0.201675,4.72398,0.551405,-0.613319,0.81424
26,60,-0.0872665,0.698132,-0.174533,-0.174533,-0.110886,0.688286,-0.15409,-0.201675,4.72398,0.551405,-0.613319,0.81424
26,60,-0.0872665,0.698132,-0.174533,-0.174533,-0.110886,0.688286,-0.15409,-0.201675,4.72398,0.551405,-0.613319,0.81424
26,60,-0.0872665,0.698132,-0.174533,-0.174533,-0.110886,0.688286,-0.15409,-0.201675,4.72398,0.551405,-0.613319,0.81424
26,60,-0.0872665,0.698132,-0.174533,-0.174533,-0.110886,0.688286,-0.15409,-0.201675,4.72398,0.551405,-0.613319,0.81424
26,60,-0.0872665,0.698132,-0.174533,-0.174533,-0.110886,0.688286,-0.15409,-0.201675,4.72398,0.551405,-0.613319,0.81424
26,60,-0.0872665,0.698132,-0.174533,-0.174533,-0.110886,0.688286,-0.15409,-0.201675,4.72398,0.551405,-0.613319,0.81424
26,60,-0.0872665,0.698132,-0.174533,-0.174533,-0.110886,0.688286,-0.15409,-0.201675,4.72398,0.551405,-0.613319,0.81424
26,60,-0.0872665,0.698132,-0.174533,-0.174533,-0.110886,0.688286,-0.15409,-0.201675,4.72398,0.551405,-0.613319,0.81424
26,60,-0.0872665,0.698132,-0.174533,-0.174533,-0.110886,0.688286,-0.15409,-0.201675,4.72398,0.551405,-0.613319,0.81424
26,60,-0.0872665,0.698132,-0.174533,-0.174533,-0.110886,0.688286,-0.15409,-0.201675,4.72398,0.551405,-0.613319,0.81424
26,60,-0.0872665,0.698132,-0.174533,-0.174533,-0.110886,0.688286,-0.15409,-0.201675,4.72398,0.551405,-0.613319,0.81424
26,60,-0.0872665,0.698132,-0.174533,-0.174533,-0.110886,0.688286,-0.15409,-0.201675,4.72398,0.551405,-0.613319,0.81424
26,60,-0.0872665,0.698132,-0.174533,-0.174533,-0.110886,0.688286,-0.15409,-0.201675,4.72398,0.551405,-0.613319,0.81424
26,60,-0.0872665,0.698132,-0.174533,-0.174533,-0.110886,0.688286,-0.15409,-0.201675,4.72398,0.551405,-0.613319,0.81424
26,60,-0.0872665,0.698132,-0.174533,-0.174533,-0.110886,0.688286,-0.15409,-0.201675,4.72398,0.551405,-0.613319,0.81424
26,60,-0.0872665,0.698132,-0.174533,-0.174533,-0.110886,0.688286,-0.15409,-0.201675,4.72398,0.551405,-0.613319,0.81424
26,60,-0.0872665,0.698132,-0.174533,-0.174533,-0.110886,0.688286,-0.15409,-0.201675,4.72398,0.551405,-0.613319,0.81424
26,60,-0.0872665,0.698132,-0.174533,-0.174533,-0.110886,0.688286,-0.15409,-0.201675,4.72398,0.551405,-0.613319,0.81424
26,60,-0.0872665,0.698132,-0.174533,-0.174533,-0.110886,0.688286,-0.15409,-0.201675,4.72398,0.551405,-0.613319,0.81424
26,60,-0.0872665,0.698132,-0.174533,-0.174533,-0.110886,0.688286,-0.15409,-0.201675,4.72398,0.551405,-0.613319,0.81424
26,60,-0.0872665,0.698132,-0.174533,-0.174533,-0.110886,0.688286,-0.15409,-0.201675,4.72398,0.551405,-0.613319,0.81424
26,60,-0.0872665,0.698132,-0.174533,-0.174533,-0.110886,0.688286,-0.15409,-0.201675,4.72398,0.551405,-0.613319,0.81424
26,60,-0.0872665,0.698132,-0.174533,-0.174533,-0.110886,0.688286,-0.15409,-0.201675,4.72398,0.551405,-0.613319,0.81424
26,60,-0.0872665,0.698132,-0.174533,-0.174533,-0.110886,0.688286,-0.15409,-0.201675,4.72398,0.551405,-0.613319,0.81424
26,60,-0.0872665,0.698132,-0.174533,-0.174533,-0.110886,0.688286,-0.15409,-0.201675,4.72398,0.551405,-0.613319,0.81424
26,60,-0.0872665,0.698132,-0.174533,-0.174533,-0.110886,0.688286,-0.15409,-0.201675,4.72398,0.551405,-0.613319,0.81424
26,60,-0.0872665,0.698132,-0.174533,-0.174533,-0.110886,0.688286,-0.15409,-0.201675,4.72398,0.551405,-0.613319,0.81424
26,60,-0.0872665,0.698132,-0.174533,-0.174533,-0.110886,0.688286,-0.15409,-0.201675,4.72398,0.551405,-0.613319,0.81424
26,60,-0.0872665,0.698132,-0.174533,-0.174533,-0.110886,0.688286,-0.154093,-0.201734,4.72398,0.551405,-0.613227,0.816034
26,60,-0.0872665,0.698132,-0.174533,-0.174533,-0.110886,0.688286,-0.154093,-0.201734,4.72398,0.551405,-0.613227,0.816034
26,60,-0.0872665,0.698132,-0.174533,-0.174533,-0.110886,0.688286,-0.154093,-0.201734,4.72398,0.551405,-0.613227,0.816034
26,60,-0.0872665,0.698132,-0.174533,-0.174533,-0.110886,0.688286,-0.154093,-0.201734,4.72398,0.551405,-0.613227,0.816034
26,60,-0.0872665,0.698132,-0.174533,-0.174533,-0.110886,0.688286,-0.154093,-0.201734,4.72398,0.551405,-0.613227,0.816034
26,60,-0.0872665,0.698132,-0.174533,-0.174533,-0.110886,0.688286,-0.154025,-0.201691,4.72398,0.551405,-0.615311,0.814722
26,60,-0.0872665,0.698132,-0.174533,-0.174533,-0.110886,0.688286,-0.154025,-0.201691,4.72398,0.551405,-0.615311,0.814722
26,60,-0.0872665,0.698132,-0.174533,-0.174533,-0.110886,0.688286,-0.154025,-0.201691,4.72398,0.551405,-0.615311,0.814722
26,60,-0.0872665,0.698132,-0.174533,-0.174533,-0.110886,0.688286,-0.154025,-0.201691,4.72398,0.551405,-0.615311,0.814722
26,60,-0.0872665,0.698132,-0.174533,-0.174533,-0.110886,0.688286,-0.154025,-0.201691,4.72398,0.551405,-0.615311,0.814722
26,60,-0.0872665,0.698132,-0.174533,-0.174533,-0.110886,0.688286,-0.154025,-0.201691,4.72398,0.551405,-0.615311,0.814722
26,60,-0.0872665,0.698132,-0.174533,-0.174533,-0.110886,0.688286,-0.154025,-0.201691,4.72398,0.551405,-0.615311,0.814722
26,60,-0.0872665,0.698132,-0.174533,-0.174533,-0.110886,0.688286,-0.154025,-0.201691,4.72398,0.551405,-0.615311,0.814722
26,60,-0.0872665,0.698132,-0.174533,-0.174533,-0.110886,0.688286,-0.154025,-0.201691,4.72398,0.551405,-0.615311,0.814722
26,60,-0.0872665,0.698132,-0.174533,-0.174533,-0.110886,0.688286,-0.154025,-0.201691,4.72398,0.551405,-0.615311,0.814722
26,60,-0.0872665,0.698132,-0.174533,-0.174533,-0.110886,0.688286,-0.154025,-0.201691,4.72398,0.551405,-0.615311,0.814722
26,60,-0.0872665,0.698132,-0.174533,-0.174533,-0.110886,0.688286,-0.154025,-0.201691,4.72398,0.551405,-0.615311,0.814722
26,60,-0.0872665,0.698132,-0.174533,-0.174533,-0.110886,0.688286,-0.154025,-0.201691,4.72398,0.551405,-0.615311,0.814722
26,60,-0.0872665,0.698132,-0.174533,-0.174533,-0.110886,0.688286,-0.154025,-0.201691,4.72398,0.551405,-0.615311,0.814722
26,60,-0.0872665,0.698132,-0.174533,-0.174533,-0.110886,0.688286,-0.154025,-0.201691,4.72398,0.551405,-0.615311,0.814722
26,60,-0.0872665,0.698132,-0.174533,-0.174533,-0.110886,0.688286,-0.154025,-0.201691,4.72398,0.551405,-0.615311,0.814722
26,60,-0.0872665,0.698132,-0.174533,-0.174533,-0.110886,0.688286,-0.154025,-0.201691,4.72398,0.551405,-0.615311,0.814722
26,60,-0.0872665,0.698132,-0.174533,-0.174533,-0.110886,0.688286,-0.154025,-0.201691,4.72398,0.551405,-0.615311,0.814722
26,60,-0.0872665,0.698132,-0.174533,-0.174533,-0.110886,0.688286,-0.154025,-0.201691,4.72398,0.551405,-0.615311,0.814722
26,60,-0.0872665,0.698132,-0.174533,-0.174533,-0.110886,0.688286,-0.154025,-0.201691,4.72398,0.551405,-0.615311,0.814722
26,60,-0.0872665,0.698132,-0.174533,-0.174533,-0.110886,0.688286,-0.154025,-0.201691,4.72398,0.551405,-0.615311,0.814722
26,60,-0.0872665,0.698132,-0.174533,-0.174533,-0.110886,0.688286,-0.154025,-0.201691,4.72398,0.551405,-0.615311,0.814722
26,60,-0.0872665,0.698132,-0.174533,-0.174533,-0.110886,0.688286,-0.154025,-0.201691,4.72398,0.551405,-0.615311,0.814722
26,60,-0.0872665,0.698132,-0.174533,-0.174533,-0.110886,0.688286,-0.154025,-0.201691,4.72398,0.551405,-0.615311,0.814722
26,60,-0.0872665,0.698132,-0.174533,-0.174533,-0.110886,0.688286,-0.154025,-0.201691,4.72398,0.551405,-0.615311,0.814722
26,60,-0.0872665,0.698132,-0.174533,-0.174533,-0.110886,0.688286,-0.154025,-0.201691,4.72398,0.551405,-0.615311,0.814722
26,60,-0.0872665,0.698132,-0.174533,-0.174533,-0.110886,0.688286,-0.154025,-0.201691,4.72398,0.551405,-0.615311,0.814722
26,60,-0.0872665,0.698132,-0.174533,-0.174533,-0.110886,0.688286,-0.154025,-0.201691,4.72398,0.551405,-0.615311,0.814722
26,60,-0.0872665,0.698132,-0.174533,-0.174533,-0.110886,0.688286,-0.154025,-0.201691,4.72398,0.551405,-0.615311,0.814722
26,60,-0.0872665,0.698132,-0.174533,-0.174533,-0.110886,0.688286,-0.154025,-0.201691,4.72398,0.551405,-0.615311,0.814722
26,60,-0.0872665,0.698132,-0.174533,-0.174533,-0.110886,0.688286,-0.154025,-0.201691,4.72398,0.551405,-0.615311,0.814722
26,60,-0.0872665,0.698132,-0.174533,-0.174533,-0.110886,0.688286,-0.154025,-0.201691,4.72398,0.551405,-0.615311,0.814722
26,60,-0.0872665,0.698132,-0.174533,-0.174533,-0.110886,0.688286,-0.154025,-0.201691,4.72398,0.551405,-0.615311,0.814722
26,60,-0.0872665,0.698132,-0.174533,-0.174533,-0.110886,0.688286,-0.154028,-0.201751,4.72398,0.551405,-0.615218,0.816527
26,60,-0.0872665,0.698132,-0.174533,-0.174533,-0.110886,0.688286,-0.154028,-0.201751,4.72398,0.551405,-0.615218,0.816527
26,60,-0.0872665,0.698132,-0.174533,-0.174533,-0.110886,0.688286,-0.154028,-0.201751,4.72398,0.551405,-0.615218,0.816527
26,60,-0.0872665,0.698132,-0.174533,-0.174533,-0.110886,0.688286,-0.154028,-0.201751,4.72398,0.551405,-0.615218,0.816527
26,60,-0.0872665,0.698132,-0.174533,-0.174533,-0.110886,0.688286,-0.154028,-0.201751,4.72398,0.551365,-0.615218,0.816527
26,60,-0.0872665,0.698132,-0.174533,-0.174533,-0.110886,0.688286,-0.154028,-0.201751,4.72398,0.551365,-0.615218,0.816527
26,60,-0.0872665,0.698132,-0.174533,-0.174533,-0.110886,0.688286,-0.153959,-0.201708,4.72398,0.551365,-0.617235,0.815257
26,60,-0.0872665,0.698132,-0.174533,-0.174533,-0.110886,0.688286,-0.153959,-0.201708,4.72398,0.551365,-0.617235,0.815257
26,60,-0.0872665,0.698132,-0.174533,-0.174533,-0.110886,0.688286,-0.153959,-0.201708,4.72398,0.551365,-0.617235,0.815257
26,60,-0.0872665,0.698132,-0.174533,-0.174533,-0.110886,0.688286,-0.153959,-0.201708,4.72398,0.551365,-0.617235,0.815257
26,60,-0.0872665,0.698132,-0.174533,-0.174533,-0.110886,0.688286,-0.153959,-0.201708,4.72398,0.551365,-0.617235,0.815257
26,60,-0.0872665,0.698132,-0.174533,-0.174533,-0.110886,0.688286,-0.153959,-0.201708,4.72398,0.551365,-0.617235,0.815257
26,60,-0.0872665,0.698132,-0.174533,-0.174533,-0.110886,0.688286,-0.153959,-0.201708,4.72398,0.551365,-0.617235,0.815257
26,60,-0.0872665,0.698132,-0.174533,-0.174533,-0.110886,0.688286,-0.153959,-0.201708,4.72398,0.551365,-0.617235,0.815257
26,60,-0.0872665,0.698132,-0.174533,-0.174533,-0.110886,0.688286,-0.153959,-0.201708,4.72398,0.551365,-0.617235,0.815257
26,60,-0.0872665,0.698132,-0.174533,-0.174533,-0.110886,0.688286,-0.153959,-0.201708,4.72398,0.551365,-0.617235,0.815257
26,60,-0.0872665,0.698132,-0.174533,-0.174533,-0.110886,0.688286,-0.153959,-0.201708,4.72398,0.551365,-0.617235,0.815257
26,60,-0.0872665,0.698132,-0.174533,-0.174533,-0.110886,0.688286,-0.153959,-0.201708,4.72398,0.551365,-0.617235,0.815257
26,60,-0.0872665,0.698132,-0.174533,-0.174533,-0.110886,0.688286,-0.153959,-0.201708,4.72398,0.551365,-0.617235,0.815257
26,60,-0.0872665,0.698132,-0.174533,-0.174533,-0.110886,0.688286,-0.153959,-0.201708,4.72398,0.551365,-0.617235,0.815257
26,60,-0.0872665,0.698132,-0.174533,-0.174533,-0.110886,0.688286,-0.153959,-0.201708,4.72398,0.551365,-0.617235,0.815257
26,60,-0.0872665,0.698132,-0.174533,-0.174533,-0.110886,0.688286,-0.153959,-0.201708,4.72398,0.551365,-0.617235,0.815257
26,60,-0.0872665,0.698132,-0.174533,-0.174533,-0.110886,0.688286,-0.153959,-0.201708,4.72398,0.551365,-0.617235,0.815257
26,60,-0.0872665,0.698132,-0.174533,-0.174533,-0.110886,0.688286,-0.153959,-0.201708,4.72398,0.551365,-0.617235,0.815257
26,60,-0.0872665,0.698132,-0.174533,-0.174533,-0.110886,0.688286,-0.153959,-0.201708,4.72398,0.551365,-0.617235,0.815257
26,60,-0.0872665,0.698132,-0.174533,-0.174533,-0.110886,0.688286,-0.153959,-0.201708,4.72398,0.551365,-0.617235,0.815257
26,60,-0.0872665,0.698132,-0.174533,-0.174533,-0.110886,0.688286,-0.153959,-0.201708,4.72398,0.551365,-0.617235,0.815257
26,60,-0.0872665,0.698132,-0.174533,-0.174533,-0.110886,0.688286,-0.153959,-0.201708,4.72398,0.551365,-0.617235,0.815257
26,60,-0.0872665,0.698132,-0.174533,-0.174533,-0.110886,0.688286,-0.153959,-0.201708,4.72398,0.551365,-0.617235,0.815257
26,60,-0.0872665,0.698132,-0.174533,-0.174533,-0.110886,0.688286,-0.153959,-0.201708,4.72398,0.551365,-0.617235,0.815257
26,60,-0.0872665,0.698132,-0.174533,-0.174533,-0.110886,0.688286,-0.153959,-0.201708,4.72398,0.551365,-0.617235,0.815257
26,60,-0.0872665,0.698132,-0.174533,-0.174533,-0.110886,0.688286,-0.153959,-0.201708,4.72398,0.551365,-0.617235,0.815257
26,60,-0.0872665,0.698132,-0.174533,-0.174533,-0.110886,0.688286,-0.153959,-0.201708,4.72398,0.551365,-0.617235,0.815257
26,60,-0.0872665,0.698132,-0.174533,-0.174533,-0.110886,0.688286,-0.153959,-0.201708,4.72398,0.551365,-0.617235,0.815257
26,60,-0.0872665,0.698132,-0.174533,-0.174533,-0.110886,0.688286,-0.153959,-0.201708,4.72398,0.551365,-0.617235,0.815257
26,60,-0.0872665,0.698132,-0.174533,-0.174533,-0.110886,0.688286,-0.153959,-0.201708,4.72398,0.551365,-0.617235,0.815257
26,60,-0.0872665,0.698132,-0.174533,-0.174533,-0.110886,0.688286,-0.153962,-0.201768,4.72398,0.551365,-0.617144,0.817042
26,60,-0.0872665,0.698132,-0.174533,-0.174533,-0.110886,0.688286,-0.153962,-0.201768,4.72398,0.551365,-0.617144,0.817042
26,60,-0.0872665,0.698132,-0.174533,-0.174533,-0.110886,0.688286,-0.153962,-0.201768,4.72398,0.551365,-0.617144,0.817042
26,60,-0.0872665,0.698132,-0.174533,-0.174533,-0.110886,0.688286,-0.153962,-0.201768,4.72398,0.551365,-0.617144,0.817042
26,60,-0.0872665,0.698132,-0.174533,-0.174533,-0.110886,0.688286,-0.153962,-0.201768,4.72398,0.551365,-0.617144,0.817042
26,60,-0.0872665,0.698132,-0.174533,-0.174533,-0.110886,0.688286,-0.153962,-0.201768,4.72398,0.551365,-0.617144,0.817042
26,60,-0.0872665,0.698132,-0.174533,-0.174533,-0.110886,0.688286,-0.153962,-0.201768,4.72398,0.551365,-0.617144,0.817042
26,60,-0.0872665,0.698132,-0.174533,-0.174533,-0.110886,0.688286,-0.153962,-0.201768,4.72398,0.551365,-0.617144,0.817042
26,60,-0.0872665,0.698132,-0.174533,-0.174533,-0.110886,0.688286,-0.153962,-0.201768,4.72398,0.551365,-0.617144,0.817042
26,60,-0.0872665,0.698132,-0.174533,-0.174533,-0.110886,0.688286,-0.153962,-0.201768,4.72398,0.551365,-0.617144,0.817042
26,60,-0.0872665,0.698132,-0.174533,-0.174533,-0.110886,0.688286,-0.153962,-0.201768,4.72398,0.551365,-0.617144,0.817042
26,60,-0.0872665,0.698132,-0.174533,-0.174533,-0.110886,0.688286,-0.153962,-0.201768,4.72398,0.551365,-0.617144,0.817042
26,60,-0.0872665,0.698132,-0.174533,-0.174533,-0.110886,0.688286,-0.153962,-0.201768,4.72398,0.551365,-0.617144,0.817042
26,60,-0.0872665,0.698132,-0.174533,-0.174533,-0.110886,0.688286,-0.153894,-0.201725,4.72398,0.551365,-0.619206,0.815744
26,60,-0.0872665,0.698132,-0.174533,-0.174533,-0.110886,0.688286,-0.153894,-0.201725,4.72398,0.551365,-0.619206,0.815744
26,60,-0.0872665,0.698132,-0.174533,-0.174533,-0.110886,0.688286,-0.153894,-0.201725,4.72398,0.551365,-0.619206,0.815744
26,60,-0.0872665,0.698132,-0.174533,-0.174533,-0.110886,0.688286,-0.153894,-0.201725,4.72398,0.551365,-0.619206,0.815744
26,60,-0.0872665,0.698132,-0.174533,-0.174533,-0.110886,0.688286,-0.153894,-0.201725,4.72398,0.551365,-0.619206,0.815744
26,60,-0.0872665,0.698132,-0.174533,-0.174533,-0.110886,0.688286,-0.153894,-0.201725,4.72398,0.551365,-0.619206,0.815744
26,60,-0.0872665,0.698132,-0.174533,-0.174533,-0.110886,0.688286,-0.153894,-0.201725,4.72398,0.551365,-0.619206,0.815744
26,60,-0.0872665,0.698132,-0.174533,-0.174533,-0.110886,0.688286,-0.153894,-0.201725,4.72398,0.551365,-0.619206,0.815744
26,60,-0.0872665,0.698132,-0.174533,-0.174533,-0.110886,0.688286,-0.153894,-0.201725,4.72398,0.551365,-0.619206,0.815744
26,60,-0.0872665,0.698132,-0.174533,-0.174533,-0.110886,0.688286,-0.153894,-0.201725,4.72398,0.551365,-0.619206,0.815744
26,60,-0.0872665,0.698132,-0.174533,-0.174533,-0.110886,0.688286,-0.153894,-0.201725,4.72398,0.551365,-0.619206,0.815744
26,60,-0.0872665,0.698132,-0.174533,-0.174533,-0.110886,0.688286,-0.153894,-0.201725,4.72398,0.551365,-0.619206,0.815744
26,60,-0.0872665,0.698132,-0.174533,-0.174533,-0.110886,0.688286,-0.153826,-0.201682,4.72398,0.551365,-0.62125,0.814457
26,60,-0.0872665,0.698132,-0.174533,-0.174533,-0.110886,0.688286,-0.153826,-0.201682,4.72398,0.551365,-0.62125,0.814457
26,60,-0.0872665,0.698132,-0.174533,-0.174533,-0.110886,0.688286,-0.153826,-0.201682,4.72398,0.551365,-0.62125,0.814457
26,60,-0.0872665,0.698132,-0.174533,-0.174533,-0.110886,0.688286,-0.153826,-0.201682,4.72398,0.551365,-0.62125,0.814457
26,60,-0.0872665,0.698132,-0.174533,-0.174533,-0.110886,0.688286,-0.153757,-0.201639,4.72398,0.551365,-0.62331,0.81316
26,60,-0.0872665,0.698132,-0.174533,-0.174533,-0.110886,0.688286,-0.153757,-0.201639,4.72398,0.551365,-0.62331,0.81316
26,60,-0.0872665,0.698132,-0.174533,-0.174533,-0.110886,0.688286,-0.15376,-0.201698,4.72398,0.551365,-0.623218,0.814963
26,60,-0.0872665,0.698132,-0.174533,-0.174533,-0.110886,0.688286,-0.15376,-0.201698,4.72398,0.551365,-0.623218,0.814963
26,60,-0.0872665,0.698132,-0.174533,-0.174533,-0.110886,0.688286,-0.15376,-0.201698,4.72398,0.551365,-0.623218,0.814963
26,60,-0.0872665,0.698132,-0.174533,-0.174533,-0.110886,0.688286,-0.15376,-0.201698,4.72398,0.551365,-0.623218,0.814963
26,60,-0.0872665,0.698132,-0.174533,-0.174533,-0.110886,0.688286,-0.15376,-0.201698,4.72398,0.551365,-0.623218,0.814963
26,60,-0.0872665,0.698132,-0.174533,-0.174533,-0.110886,0.688286,-0.15376,-0.201698,4.72398,0.551365,-0.623218,0.814963
26,60,-0.0872665,0.698132,-0.174533,-0.174533,-0.110886,0.688286,-0.15376,-0.201698,4.72398,0.551365,-0.623218,0.814963
26,60,-0.0872665,0.698132,-0.174533,-0.174533,-0.110886,0.688286,-0.15376,-0.201698,4.72398,0.551365,-0.623218,0.814963
26,60,-0.0872665,0.698132,-0.174533,-0.174533,-0.110886,0.688286,-0.15376,-0.201698,4.72398,0.551365,-0.623218,0.814963
26,60,-0.0872665,0.698132,-0.174533,-0.174533,-0.110886,0.688286,-0.15376,-0.201698,4.72398,0.551365,-0.623218,0.814963
26,60,-0.0872665,0.698132,-0.174533,-0.174533,-0.110886,0.688286,-0.15376,-0.201698,4.72398,0.551365,-0.623218,0.814963
26,60,-0.0872665,0.698132,-0.174533,-0.174533,-0.110886,0.688286,-0.15376,-0.201698,4.72398,0.551365,-0.623218,0.814963
26,60,-0.0872665,0.698132,-0.174533,-0.174533,-0.110886,0.688286,-0.15376,-0.201698,4.72398,0.551365,-0.623218,0.814963
26,60,-0.0872665,0.698132,-0.174533,-0.174533,-0.110886,0.688286,-0.15376,-0.201698,4.72398,0.551365,-0.623218,0.814963
26,60,-0.0872665,0.698132,-0.174533,-0.174533,-0.110886,0.688286,-0.153763,-0.201758,4.72398,0.551365,-0.623125,0.816781
26,60,-0.0872665,0.698132,-0.174533,-0.174533,-0.110886,0.688286,-0.153763,-0.201758,4.72398,0.551365,-0.623125,0.816781
26,60,-0.0872665,0.698132,-0.174533,-0.174533,-0.110886,0.688286,-0.153763,-0.201758,4.72398,0.551365,-0.623125,0.816781
26,60,-0.0872665,0.698132,-0.174533,-0.174533,-0.110886,0.688286,-0.153763,-0.201758,4.72398,0.551365,-0.623125,0.816781
26,60,-0.0872665,0.698132,-0.174533,-0.174533,-0.110886,0.688286,-0.153763,-0.201758,4.72398,0.551365,-0.623125,0.816781
26,60,-0.0872665,0.698132,-0.174533,-0.174533,-0.110886,0.688286,-0.153763,-0.201758,4.72398,0.551365,-0.623125,0.816781
26,60,-0.0872665,0.698132,-0.174533,-0.174533,-0.110886,0.688286,-0.153763,-0.201758,4.72398,0.551365,-0.623125,0.816781
26,60,-0.0872665,0.698132,-0.174533,-0.174533,-0.110886,0.688235,-0.153763,-0.201758,4.72398,0.554324,-0.623125,0.816781
26,60,-0.0872665,0.698132,-0.174533,-0.174533,-0.110886,0.688235,-0.153695,-0.201715,4.72398,0.554324,-0.625191,0.81548
26,60,-0.0872665,0.698132,-0.174533,-0.174533,-0.110886,0.688235,-0.153695,-0.201715,4.72398,0.554324,-0.625191,0.81548
26,60,-0.0872665,0.698132,-0.174533,-0.174533,-0.110886,0.688235,-0.153695,-0.201715,4.72398,0.554324,-0.625191,0.81548
26,60,-0.0872665,0.698132,-0.174533,-0.174533,-0.110886,0.688235,-0.153695,-0.201715,4.72398,0.554324,-0.625191,0.81548
26,60,-0.0872665,0.698132,-0.174533,-0.174533,-0.110886,0.688235,-0.153695,-0.201715,4.72398,0.554324,-0.625191,0.81548
26,60,-0.0872665,0.698132,-0.174533,-0.174533,-0.110886,0.688235,-0.153695,-0.201715,4.72398,0.554324,-0.625191,0.81548
26,60,-0.0872665,0.698132,-0.174533,-0.174533,-0.110886,0.688235,-0.153695,-0.201715,4.72398,0.554324,-0.625191,0.81548
26,60,-0.0872665,0.698132,-0.174533,-0.174533,-0.110886,0.688235,-0.153695,-0.201715,4.72398,0.554324,-0.625191,0.81548
26,60,-0.0872665,0.698132,-0.174533,-0.174533,-0.110886,0.688235,-0.153695,-0.201715,4.72398,0.554324,-0.625191,0.81548
26,60,-0.0872665,0.698132,-0.174533,-0.174533,-0.110886,0.688235,-0.153695,-0.201715,4.72398,0.554324,-0.625191,0.81548
26,60,-0.0872665,0.698132,-0.174533,-0.174533,-0.110886,0.688235,-0.153695,-0.201715,4.72398,0.554324,-0.625191,0.81548
26,60,-0.0872665,0.698132,-0.174533,-0.174533,-0.110886,0.688235,-0.153695,-0.201715,4.72398,0.554324,-0.625191,0.81548
26,60,-0.0872665,0.698132,-0.174533,-0.174533,-0.110886,0.688235,-0.153695,-0.201715,4.72398,0.554324,-0.625191,0.81548
26,60,-0.0872665,0.698132,-0.174533,-0.174533,-0.110886,0.688235,-0.153695,-0.201715,4.72398,0.554324,-0.625191,0.81548
26,60,-0.0872665,0.698132,-0.174533,-0.174533,-0.110886,0.688235,-0.153695,-0.201715,4.72398,0.554324,-0.625191,0.81548
26,60,-0.0872665,0.698132,-0.174533,-0.174533,-0.110886,0.688235,-0.153695,-0.201715,4.72398,0.554324,-0.625191,0.81548
26,60,-0.0872665,0.698132,-0.174533,-0.174533,-0.110886,0.688235,-0.153695,-0.201715,4.72398,0.554324,-0.625191,0.81548
26,60,-0.0872665,0.698132,-0.174533,-0.174533,-0.110886,0.688235,-0.153698,-0.201775,4.72398,0.554324,-0.625101,0.817253
26,60,-0.0872665,0.698132,-0.174533,-0.174533,-0.110886,0.688235,-0.153698,-0.201775,4.72398,0.554324,-0.625101,0.817253
26,60,-0.0872665,0.698132,-0.174533,-0.174533,-0.110886,0.688235,-0.153698,-0.201775,4.72398,0.554324,-0.625101,0.817253
26,60,-0.0872665,0.698132,-0.174533,-0.174533,-0.110886,0.688235,-0.153698,-0.201775,4.72398,0.554324,-0.625101,0.817253
26,60,-0.0872665,0.698132,-0.174533,-0.174533,-0.110886,0.688235,-0.153698,-0.201775,4.72398,0.554324,-0.625101,0.817253
26,60,-0.0872665,0.698132,-0.174533,-0.174533,-0.110886,0.688235,-0.153698,-0.201775,4.72398,0.554324,-0.625101,0.817253
26,60,-0.0872665,0.698132,-0.174533,-0.174533,-0.110886,0.688235,-0.153698,-0.201775,4.72398,0.554324,-0.625101,0.817253
26,60,-0.0872665,0.698132,-0.174533,-0.174533,-0.110886,0.688235,-0.153698,-0.201775,4.72398,0.554324,-0.625101,0.817253
26,60,-0.0872665,0.698132,-0.174533,-0.174533,-0.110886,0.688235,-0.153698,-0.201775,4.72398,0.554324,-0.625101,0.817253
26,60,-0.0872665,0.698132,-0.174533,-0.174533,-0.110886,0.688235,-0.153698,-0.201775,4.72398,0.554324,-0.625101,0.817253
26,60,-0.0872665,0.698132,-0.174533,-0.174533,-0.110886,0.688235,-0.153698,-0.201775,4.72398,0.554324,-0.625101,0.817253
26,60,-0.0872665,0.698132,-0.174533,-0.174533,-0.110886,0.688235,-0.153698,-0.201775,4.72398,0.554324,-0.625101,0.817253
26,60,-0.0872665,0.698132,-0.174533,-0.174533,-0.110886,0.688235,-0.153698,-0.201775,4.72398,0.554324,-0.625101,0.817253
26,60,-0.0872665,0.698132,-0.174533,-0.174533,-0.110886,0.688235,-0.153698,-0.201775,4.72398,0.554324,-0.625101,0.817253
26,60,-0.0872665,0.698132,-0.174533,-0.174533,-0.110886,0.688235,-0.153698,-0.201775,4.72398,0.554324,-0.625101,0.817253
26,60,-0.0872665,0.698132,-0.174533,-0.174533,-0.110886,0.688235,-0.153698,-0.201775,4.72398,0.554324,-0.625101,0.817253
26,60,-0.0872665,0.698132,-0.174533,-0.174533,-0.110886,0.688235,-0.153698,-0.201775,4.72398,0.554324,-0.625101,0.817253
26,60,-0.0872665,0.698132,-0.174533,-0.174533,-0.110886,0.688235,-0.153698,-0.201775,4.72398,0.554324,-0.625101,0.817253
26,60,-0.0872665,0.698132,-0.174533,-0.174533,-0.110886,0.688235,-0.153698,-0.201775,4.72398,0.554324,-0.625101,0.817253
26,60,-0.0872665,0.698132,-0.174533,-0.174533,-0.110886,0.688235,-0.153698,-0.201775,4.72398,0.554324,-0.625101,0.817253
26,60,-0.0872665,0.698132,-0.174533,-0.174533,-0.110886,0.688235,-0.153698,-0.201775,4.72398,0.554324,-0.625101,0.817253
26,60,-0.0872665,0.698132,-0.174533,-0.174533,-0.110886,0.688235,-0.153698,-0.201775,4.72398,0.554324,-0.625101,0.817253
26,60,-0.0872665,0.698132,-0.174533,-0.174533,-0.110886,0.688235,-0.153698,-0.201775,4.72398,0.554324,-0.625101,0.817253
26,60,-0.0872665,0.698132,-0.174533,-0.174533,-0.110886,0.688235,-0.153698,-0.201775,4.72398,0.554324,-0.625101,0.817253
26,60,-0.0872665,0.698132,-0.174533,-0.174533,-0.110886,0.688235,-0.153698,-0.201775,4.72398,0.554324,-0.625101,0.817253
26,60,-0.0872665,0.698132,-0.174533,-0.174533,-0.110886,0.688235,-0.15363,-0.201731,4.72398,0.554324,-0.627161,0.815956
26,60,-0.0872665,0.698132,-0.174533,-0.174533,-0.110886,0.688235,-0.15363,-0.201731,4.72398,0.554324,-0.627161,0.815956
26,60,-0.0872665,0.698132,-0.174533,-0.174533,-0.110886,0.688235,-0.15363,-0.201731,4.72398,0.554324,-0.627161,0.815956
26,60,-0.0872665,0.698132,-0.174533,-0.174533,-0.110886,0.688235,-0.15363,-0.201731,4.72398,0.554324,-0.627161,0.815956
26,60,-0.0872665,0.698132,-0.174533,-0.174533,-0.110886,0.688235,-0.15363,-0.201731,4.72398,0.554324,-0.627161,0.815956
26,60,-0.0872665,0.698132,-0.174533,-0.174533,-0.110886,0.688235,-0.15363,-0.201731,4.72398,0.554324,-0.627161,0.815956
26,60,-0.0872665,0.698132,-0.174533,-0.174533,-0.110886,0.688235,-0.15363,-0.201731,4.72398,0.554324,-0.627161,0.815956
26,60,-0.0872665,0.698132,-0.174533,-0.174533,-0.110886,0.688235,-0.15363,-0.201731,4.72398,0.554324,-0.627161,0.815956
26,60,-0.0872665,0.698132,-0.174533,-0.174533,-0.110886,0.688235,-0.15363,-0.201731,4.72398,0.554324,-0.627161,0.815956
26,60,-0.0872665,0.698132,-0.174533,-0.174533,-0.110886,0.688235,-0.15363,-0.201731,4.72398,0.554324,-0.627161,0.815956
26,60,-0.0872665,0.698132,-0.174533,-0.174533,-0.110886,0.688235,-0.15363,-0.201731,4.72398,0.554324,-0.627161,0.815956
26,60,-0.0872665,0.698132,-0.174533,-0.174533,-0.110886,0.688235,-0.153633,-0.201791,4.72398,0.554324,-0.62707,0.817751
26,60,-0.0872665,0.698132,-0.174533,-0.174533,-0.110886,0.688235,-0.153633,-0.201791,4.72398,0.554324,-0.62707,0.817751
26,60,-0.0872665,0.698132,-0.174533,-0.174533,-0.110886,0.688235,-0.153564,-0.201748,4.72398,0.554324,-0.629121,0.81646
26,60,-0.0872665,0.698132,-0.174533,-0.174533,-0.110886,0.688235,-0.153564,-0.201748,4.72398,0.554324,-0.629121,0.81646
26,60,-0.0872665,0.698132,-0.174533,-0.174533,-0.110886,0.688235,-0.153564,-0.201748,4.72398,0.554324,-0.629121,0.81646
26,60,-0.0872665,0.698132,-0.174533,-0.174533,-0.110886,0.688235,-0.153564,-0.201748,4.72398,0.554324,-0.629121,0.81646
26,60,-0.0872665,0.698132,-0.174533,-0.174533,-0.110886,0.688235,-0.153564,-0.201748,4.72398,0.554324,-0.629121,0.81646
26,60,-0.0872665,0.698132,-0.174533,-0.174533,-0.110886,0.688235,-0.153564,-0.201748,4.72398,0.554324,-0.629121,0.81646
26,60,-0.0872665,0.698132,-0.174533,-0.174533,-0.110886,0.688235,-0.153564,-0.201748,4.72398,0.554324,-0.629121,0.81646
26,60,-0.0872665,0.698132,-0.174533,-0.174533,-0.110886,0.688235,-0.153564,-0.201748,4.72398,0.554324,-0.629121,0.81646
26,60,-0.0872665,0.698132,-0.174533,-0.174533,-0.110886,0.688235,-0.153564,-0.201748,4.72398,0.554324,-0.629121,0.81646
26,60,-0.0872665,0.698132,-0.174533,-0.174533,-0.110886,0.688235,-0.153564,-0.201748,4.72398,0.554324,-0.629121,0.81646
26,60,-0.0872665,0.698132,-0.174533,-0.174533,-0.110886,0.688235,-0.153564,-0.201748,4.72398,0.554324,-0.629121,0.81646
26,60,-0.0872665,0.698132,-0.174533,-0.174533,-0.110886,0.688235,-0.153564,-0.201748,4.72398,0.554324,-0.629121,0.81646
26,60,-0.0872665,0.698132,-0.174533,-0.174533,-0.110886,0.688235,-0.153564,-0.201748,4.72398,0.554324,-0.629121,0.81646
26,60,-0.0872665,0.698132,-0.174533,-0.174533,-0.110886,0.688235,-0.153564,-0.201748,4.72398,0.554324,-0.629121,0.81646
26,60,-0.0872665,0.698132,-0.174533,-0.174533,-0.110886,0.688235,-0.153564,-0.201748,4.72398,0.554324,-0.629121,0.81646
26,60,-0.0872665,0.698132,-0.174533,-0.174533,-0.110886,0.688235,-0.153564,-0.201748,4.72398,0.554324,-0.629121,0.81646
26,60,-0.0872665,0.698132,-0.174533,-0.174533,-0.110886,0.688235,-0.153564,-0.201748,4.72398,0.554324,-0.629121,0.81646
26,60,-0.0872665,0.698132,-0.174533,-0.174533,-0.110886,0.688235,-0.153564,-0.201748,4.72398,0.554324,-0.629121,0.81646
26,60,-0.0872665,0.698132,-0.174533,-0.174533,-0.110886,0.688235,-0.153564,-0.201748,4.72398,0.554324,-0.629121,0.81646
26,60,-0.0872665,0.698132,-0.174533,-0.174533,-0.110886,0.688235,-0.153564,-0.201748,4.72398,0.554324,-0.629121,0.81646
26,60,-0.0872665,0.698132,-0.174533,-0.174533,-0.110886,0.688235,-0.153564,-0.201748,4.72398,0.554324,-0.629121,0.81646
26,60,-0.0872665,0.698132,-0.174533,-0.174533,-0.110886,0.688235,-0.153564,-0.201748,4.72398,0.554324,-0.629121,0.81646
26,60,-0.0872665,0.698132,-0.174533,-0.174533,-0.110886,0.688235,-0.153564,-0.201748,4.72398,0.554324,-0.629121,0.81646
26,60,-0.0872665,0.698132,-0.174533,-0.174533,-0.110886,0.688235,-0.153564,-0.201748,4.72398,0.554324,-0.629121,0.81646
26,60,-0.0872665,0.698132,-0.174533,-0.174533,-0.110886,0.688235,-0.153564,-0.201748,4.72398,0.554324,-0.629121,0.81646
26,60,-0.0872665,0.698132,-0.174533,-0.174533,-0.110886,0.688235,-0.153564,-0.201748,4.72398,0.554324,-0.629121,0.81646
26,60,-0.0872665,0.698132,-0.174533,-0.174533,-0.110886,0.688235,-0.153564,-0.201748,4.72398,0.554324,-0.629121,0.81646
26,60,-0.0872665,0.698132,-0.174533,-0.174533,-0.110886,0.688235,-0.153564,-0.201748,4.72398,0.554324,-0.629121,0.81646
26,60,-0.0872665,0.698132,-0.174533,-0.174533,-0.110886,0.688235,-0.153567,-0.201808,4.72398,0.554324,-0.62903,0.81825
26,60,-0.0872665,0.698132,-0.174533,-0.174533,-0.110886,0.688235,-0.153567,-0.201808,4.72398,0.554324,-0.62903,0.81825
26,60,-0.0872665,0.698132,-0.174533,-0.174533,-0.110886,0.688235,-0.153567,-0.201808,4.72398,0.554324,-0.62903,0.81825
26,60,-0.0872665,0.698132,-0.174533,-0.174533,-0.110886,0.688235,-0.153567,-0.201808,4.72398,0.554324,-0.62903,0.81825
26,60,-0.0872665,0.698132,-0.174533,-0.174533,-0.110886,0.688235,-0.153567,-0.201808,4.72398,0.554324,-0.62903,0.81825
26,60,-0.0872665,0.698132,-0.174533,-0.174533,-0.110886,0.688235,-0.153567,-0.201808,4.72398,0.554324,-0.62903,0.81825
26,60,-0.0872665,0.698132,-0.174533,-0.174533,-0.110886,0.688235,-0.153567,-0.201808,4.72398,0.554324,-0.62903,0.81825
26,60,-0.0872665,0.698132,-0.174533,-0.174533,-0.110886,0.688235,-0.153567,-0.201808,4.72398,0.554324,-0.62903,0.81825
26,60,-0.0872665,0.698132,-0.174533,-0.174533,-0.110886,0.688235,-0.153567,-0.201808,4.72398,0.554324,-0.62903,0.81825
26,60,-0.0872665,0.698132,-0.174533,-0.174533,-0.110886,0.688235,-0.153567,-0.201808,4.72398,0.554324,-0.62903,0.81825
26,60,-0.0872665,0.698132,-0.174533,-0.174533,-0.110886,0.688235,-0.153567,-0.201808,4.72398,0.554324,-0.62903,0.81825
26,60,-0.0872665,0.698132,-0.174533,-0.174533,-0.110886,0.688235,-0.153567,-0.201808,4.72398,0.554324,-0.62903,0.81825
26,60,-0.0872665,0.698132,-0.174533,-0.174533,-0.110886,0.688235,-0.153567,-0.201808,4.72398,0.554324,-0.62903,0.81825
26,60,-0.0872665,0.698132,-0.174533,-0.174533,-0.110886,0.688235,-0.153567,-0.201808,4.72398,0.554324,-0.62903,0.81825
26,60,-0.0872665,0.698132,-0.174533,-0.174533,-0.110886,0.688235,-0.153567,-0.201808,4.72398,0.554324,-0.62903,0.81825
26,60,-0.0872665,0.698132,-0.174533,-0.174533,-0.110886,0.688235,-0.153567,-0.201808,4.72398,0.554324,-0.62903,0.81825
26,60,-0.0872665,0.698132,-0.174533,-0.174533,-0.110886,0.688235,-0.153567,-0.201808,4.72398,0.554324,-0.62903,0.81825
26,60,-0.0872665,0.698132,-0.174533,-0.174533,-0.110886,0.688235,-0.153567,-0.201808,4.72398,0.554324,-0.62903,0.81825
26,60,-0.0872665,0.698132,-0.174533,-0.174533,-0.110886,0.688235,-0.153567,-0.201808,4.72398,0.554324,-0.62903,0.81825
26,60,-0.0872665,0.698132,-0.174533,-0.174533,-0.110886,0.688235,-0.153567,-0.201808,4.72398,0.554324,-0.62903,0.81825
26,60,-0.0872665,0.698132,-0.174533,-0.174533,-0.110886,0.688235,-0.153567,-0.201808,4.72398,0.554324,-0.62903,0.81825
26,60,-0.0872665,0.698132,-0.174533,-0.174533,-0.110886,0.688235,-0.153567,-0.201808,4.72398,0.554324,-0.62903,0.81825
26,60,-0.0872665,0.698132,-0.174533,-0.174533,-0.110886,0.688235,-0.153567,-0.201808,4.72398,0.554324,-0.62903,0.81825
26,60,-0.0872665,0.698132,-0.174533,-0.174533,-0.110886,0.688235,-0.153567,-0.201808,4.72398,0.554324,-0.62903,0.81825
26,60,-0.0872665,0.698132,-0.174533,-0.174533,-0.110886,0.688235,-0.153567,-0.201808,4.72398,0.554324,-0.62903,0.81825
26,60,-0.0872665,0.698132,-0.174533,-0.174533,-0.110886,0.688235,-0.153567,-0.201808,4.72398,0.554324,-0.62903,0.81825
26,60,-0.0872665,0.698132,-0.174533,-0.174533,-0.110886,0.688235,-0.153567,-0.201808,4.72398,0.554324,-0.62903,0.81825
26,60,-0.0872665,0.698132,-0.174533,-0.174533,-0.110886,0.688235,-0.153567,-0.201808,4.72398,0.554324,-0.62903,0.81825
26,60,-0.0872665,0.698132,-0.174533,-0.174533,-0.110886,0.688235,-0.153567,-0.201808,4.72398,0.554324,-0.62903,0.81825
26,60,-0.0872665,0.698132,-0.174533,-0.174533,-0.110886,0.688235,-0.153567,-0.201808,4.72398,0.554324,-0.62903,0.81825
26,60,-0.0872665,0.698132,-0.174533,-0.174533,-0.110886,0.688235,-0.153567,-0.201808,4.72398,0.554324,-0.62903,0.81825
26,60,-0.0872665,0.698132,-0.174533,-0.174533,-0.110886,0.688235,-0.153567,-0.201808,4.72398,0.554324,-0.62903,0.81825
26,60,-0.0872665,0.698132,-0.174533,-0.174533,-0.110886,0.688235,-0.153567,-0.201808,4.72398,0.554324,-0.62903,0.81825
26,60,-0.0872665,0.698132,-0.174533,-0.174533,-0.110886,0.688235,-0.153567,-0.201808,4.72398,0.554324,-0.62903,0.81825
26,60,-0.0872665,0.698132,-0.174533,-0.174533,-0.110886,0.688235,-0.153567,-0.201808,4.72398,0.554324,-0.62903,0.81825
26,60,-0.0872665,0.698132,-0.174533,-0.174533,-0.110886,0.688235,-0.15357,-0.201868,4.72398,0.554324,-0.628938,0.820041
26,60,-0.0872665,0.698132,-0.174533,-0.174533,-0.110886,0.688235,-0.15357,-0.201868,4.72398,0.554324,-0.628938,0.820041
26,60,-0.0872665,0.698132,-0.174533,-0.174533,-0.110886,0.688235,-0.15357,-0.201868,4.72398,0.554324,-0.628938,0.820041
26,60,-0.0872665,0.698132,-0.174533,-0.174533,-0.110886,0.688235,-0.15357,-0.201868,4.72398,0.554324,-0.628938,0.820041
26,60,-0.0872665,0.698132,-0.174533,-0.174533,-0.110886,0.688235,-0.15357,-0.201868,4.72398,0.554324,-0.628938,0.820041
26,60,-0.0872665,0.698132,-0.174533,-0.174533,-0.110886,0.688235,-0.15357,-0.201868,4.72398,0.554324,-0.628938,0.820041
26,60,-0.0872665,0.698132,-0.174533,-0.174533,-0.110886,0.688235,-0.15357,-0.201868,4.72398,0.554324,-0.628938,0.820041
26,60,-0.0872665,0.698132,-0.174533,-0.174533,-0.110886,0.688235,-0.15357,-0.201868,4.72398,0.554324,-0.628938,0.820041
26,60,-0.0872665,0.698132,-0.174533,-0.174533,-0.110886,0.688235,-0.15357,-0.201868,4.72398,0.554324,-0.628938,0.820041
26,60,-0.0872665,0.698132,-0.174533,-0.174533,-0.110886,0.688235,-0.15357,-0.201868,4.72398,0.554324,-0.628938,0.820041
26,60,-0.0872665,0.698132,-0.174533,-0.174533,-0.110886,0.688235,-0.15357,-0.201868,4.72398,0.554324,-0.628938,0.820041
26,60,-0.0872665,0.698132,-0.174533,-0.174533,-0.110886,0.688235,-0.15357,-0.201868,4.72398,0.554324,-0.628938,0.820041
26,60,-0.0872665,0.698132,-0.174533,-0.174533,-0.110886,0.688235,-0.15357,-0.201868,4.72398,0.554324,-0.628938,0.820041
26,60,-0.0872665,0.698132,-0.174533,-0.174533,-0.110886,0.688235,-0.15357,-0.201868,4.72398,0.554324,-0.628938,0.820041
26,60,-0.0872665,0.698132,-0.174533,-0.174533,-0.110886,0.688235,-0.15357,-0.201868,4.72398,0.554324,-0.628938,0.820041
26,60,-0.0872665,0.698132,-0.174533,-0.174533,-0.110886,0.688235,-0.15357,-0.201868,4.72398,0.554324,-0.628938,0.820041
26,60,-0.0872665,0.698132,-0.174533,-0.174533,-0.110886,0.688235,-0.15357,-0.201868,4.72398,0.554324,-0.628938,0.820041
26,60,-0.0872665,0.698132,-0.174533,-0.174533,-0.110886,0.688235,-0.15357,-0.201868,4.72398,0.554324,-0.628938,0.820041
26,60,-0.0872665,0.698132,-0.174533,-0.174533,-0.110886,0.688235,-0.15357,-0.201868,4.72398,0.554324,-0.628938,0.820041
26,60,-0.0872665,0.698132,-0.174533,-0.174533,-0.110886,0.688235,-0.15357,-0.201868,4.72398,0.554324,-0.628938,0.820041
26,60,-0.0872665,0.698132,-0.174533,-0.174533,-0.110886,0.688235,-0.15357,-0.201868,4.72398,0.554324,-0.628938,0.820041
26,60,-0.0872665,0.698132,-0.174533,-0.174533,-0.110886,0.688235,-0.15357,-0.201868,4.72398,0.554324,-0.628938,0.820041
26,60,-0.0872665,0.698132,-0.174533,-0.174533,-0.110886,0.688235,-0.15357,-0.201868,4.72398,0.554324,-0.628938,0.820041
26,60,-0.0872665,0.698132,-0.174533,-0.174533,-0.110886,0.688235,-0.15357,-0.201868,4.72398,0.554324,-0.628938,0.820041
26,60,-0.0872665,0.698132,-0.174533,-0.174533,-0.110886,0.688235,-0.15357,-0.201868,4.72398,0.554324,-0.628938,0.820041
26,60,-0.0872665,0.698132,-0.174533,-0.174533,-0.110886,0.688235,-0.15357,-0.201868,4.72398,0.554324,-0.628938,0.820041
26,60,-0.0872665,0.698132,-0.174533,-0.174533,-0.110886,0.688235,-0.15357,-0.201868,4.72398,0.554324,-0.628938,0.820041
26,60,-0.0872665,0.698132,-0.174533,-0.174533,-0.110886,0.688235,-0.15357,-0.201868,4.72398,0.554324,-0.628938,0.820041
26,60,-0.0872665,0.698132,-0.174533,-0.174533,-0.110886,0.688235,-0.15357,-0.201868,4.72398,0.554324,-0.628938,0.820041
26,60,-0.0872665,0.698132,-0.174533,-0.174533,-0.110886,0.688235,-0.15357,-0.201868,4.72398,0.554324,-0.628938,0.820041
26,60,-0.0872665,0.698132,-0.174533,-0.174533,-0.110886,0.688235,-0.15357,-0.201868,4.72398,0.554324,-0.628938,0.820041
26,60,-0.0872665,0.698132,-0.174533,-0.174533,-0.110886,0.688235,-0.15357,-0.201868,4.72398,0.554324,-0.628938,0.820041
26,60,-0.0872665,0.698132,-0.174533,-0.174533,-0.110886,0.688235,-0.15357,-0.201868,4.72398,0.554324,-0.628938,0.820041
26,60,-0.0872665,0.698132,-0.174533,-0.174533,-0.110886,0.688235,-0.15357,-0.201868,4.72398,0.554324,-0.628938,0.820041
26,60,-0.0872665,0.698132,-0.174533,-0.174533,-0.110886,0.688235,-0.15357,-0.201868,4.72398,0.554324,-0.628938,0.820041
26,60,-0.0872665,0.698132,-0.174533,-0.174533,-0.110886,0.688235,-0.15357,-0.201868,4.72398,0.554324,-0.628938,0.820041
26,60,-0.0872665,0.698132,-0.174533,-0.174533,-0.110886,0.688235,-0.15357,-0.201868,4.72398,0.554324,-0.628938,0.820041
26,60,-0.0872665,0.698132,-0.174533,-0.174533,-0.110886,0.688235,-0.15357,-0.201868,4.72398,0.554324,-0.628938,0.820041
26,60,-0.0872665,0.698132,-0.174533,-0.174533,-0.110886,0.688235,-0.15357,-0.201868,4.72398,0.554324,-0.628938,0.820041
26,60,-0.0872665,0.698132,-0.174533,-0.174533,-0.110886,0.688235,-0.15357,-0.201868,4.72398,0.554324,-0.628938,0.820041
26,60,-0.0872665,0.698132,-0.174533,-0.174533,-0.110886,0.688235,-0.15357,-0.201868,4.72398,0.554324,-0.628938,0.820041
26,60,-0.0872665,0.698132,-0.174533,-0.174533,-0.110886,0.688235,-0.15357,-0.201868,4.72398,0.554324,-0.628938,0.820041
26,60,-0.0872665,0.698132,-0.174533,-0.174533,-0.110886,0.688235,-0.15357,-0.201868,4.72398,0.554324,-0.628938,0.820041
26,60,-0.0872665,0.698132,-0.174533,-0.174533,-0.110886,0.688235,-0.15357,-0.201868,4.72398,0.554324,-0.628938,0.820041
26,60,-0.0872665,0.698132,-0.174533,-0.174533,-0.110886,0.688235,-0.15357,-0.201868,4.72398,0.554324,-0.628938,0.820041
26,60,-0.0872665,0.698132,-0.174533,-0.174533,-0.110886,0.688235,-0.15357,-0.201868,4.72398,0.554324,-0.628938,0.820041
26,60,-0.0872665,0.698132,-0.174533,-0.174533,-0.110886,0.688235,-0.15357,-0.201868,4.72398,0.554324,-0.628938,0.820041
26,60,-0.0872665,0.698132,-0.174533,-0.174533,-0.110886,0.688235,-0.15357,-0.201868,4.72398,0.554324,-0.628938,0.820041
26,60,-0.0872665,0.698132,-0.174533,-0.174533,-0.110886,0.688235,-0.153502,-0.201824,4.72398,0.554324,-0.630989,0.81875
26,60,-0.0872665,0.698132,-0.174533,-0.174533,-0.110886,0.688235,-0.153502,-0.201824,4.72398,0.554324,-0.630989,0.81875
26,60,-0.0872665,0.698132,-0.174533,-0.174533,-0.110886,0.688235,-0.153502,-0.201824,4.72398,0.554324,-0.630989,0.81875
26,60,-0.0872665,0.698132,-0.174533,-0.174533,-0.110886,0.688235,-0.153502,-0.201824,4.72398,0.554324,-0.630989,0.81875
26,60,-0.0872665,0.698132,-0.174533,-0.174533,-0.110886,0.688235,-0.153502,-0.201824,4.72398,0.554324,-0.630989,0.81875
26,60,-0.0872665,0.698132,-0.174533,-0.174533,-0.110886,0.688235,-0.153502,-0.201824,4.72398,0.554324,-0.630989,0.81875
26,60,-0.0872665,0.698132,-0.174533,-0.174533,-0.110886,0.688235,-0.153502,-0.201824,4.72398,0.554324,-0.630989,0.81875
26,60,-0.0872665,0.698132,-0.174533,-0.174533,-0.110886,0.688235,-0.153502,-0.201824,4.72398,0.554324,-0.630989,0.81875
26,60,-0.0872665,0.698132,-0.174533,-0.174533,-0.110886,0.688235,-0.153502,-0.201824,4.72398,0.554324,-0.630989,0.81875
26,60,-0.0872665,0.698132,-0.174533,-0.174533,-0.110886,0.688235,-0.153502,-0.201824,4.72398,0.554324,-0.630989,0.81875
26,60,-0.0872665,0.698132,-0.174533,-0.174533,-0.110886,0.688235,-0.153502,-0.201824,4.72398,0.554324,-0.630989,0.81875
26,60,-0.0872665,0.698132,-0.174533,-0.174533,-0.110886,0.688235,-0.153502,-0.201824,4.72398,0.554324,-0.630989,0.81875
26,60,-0.0872665,0.698132,-0.174533,-0.174533,-0.110886,0.688235,-0.153502,-0.201824,4.72398,0.554324,-0.630989,0.818749
26,60,-0.0872665,0.698132,-0.174533,-0.174533,-0.110886,0.688235,-0.153502,-0.201824,4.72398,0.554324,-0.630989,0.818749
26,60,-0.0872665,0.698132,-0.174533,-0.174533,-0.110886,0.688235,-0.153502,-0.201824,4.72398,0.554324,-0.630989,0.818748
26,60,-0.0872665,0.698132,-0.174533,-0.174533,-0.110886,0.688235,-0.153502,-0.201824,4.72398,0.554324,-0.630989,0.818747
26,60,-0.0872665,0.698132,-0.174533,-0.174533,-0.110886,0.688235,-0.153502,-0.201824,4.72398,0.554324,-0.630989,0.818747
26,60,-0.0872665,0.698132,-0.174533,-0.174533,-0.110886,0.688235,-0.153502,-0.201824,4.72398,0.554324,-0.630989,0.818746
26,60,-0.0872665,0.698132,-0.174533,-0.174533,-0.110886,0.688235,-0.153502,-0.201824,4.72398,0.554324,-0.630989,0.818745
26,60,-0.0872665,0.698132,-0.174533,-0.174533,-0.110886,0.688235,-0.153564,-0.201805,4.72398,0.554324,-0.629121,0.818172
26,60,-0.0872665,0.698132,-0.174533,-0.174533,-0.110886,0.688235,-0.153564,-0.201805,4.72398,0.554324,-0.629121,0.818172
26,60,-0.0872665,0.698132,-0.174533,-0.174533,-0.110886,0.688235,-0.153564,-0.201805,4.72398,0.554324,-0.629121,0.818171
26,60,-0.0872665,0.698132,-0.174533,-0.174533,-0.110886,0.688235,-0.153564,-0.201805,4.72398,0.554324,-0.629121,0.818171
26,60,-0.0872665,0.698132,-0.174533,-0.174533,-0.110886,0.688235,-0.153564,-0.201805,4.72398,0.554324,-0.629121,0.81817
26,60,-0.0872665,0.698132,-0.174533,-0.174533,-0.110886,0.688235,-0.153564,-0.201805,4.72398,0.554324,-0.629121,0.81817
26,60,-0.0872665,0.698132,-0.174533,-0.174533,-0.110886,0.688235,-0.153564,-0.201805,4.72398,0.554324,-0.629121,0.818169
26,60,-0.0872665,0.698132,-0.174533,-0.174533,-0.110886,0.688235,-0.153564,-0.201805,4.72398,0.554324,-0.629121,0.818169
26,60,-0.0872665,0.698132,-0.174533,-0.174533,-0.110886,0.688235,-0.153564,-0.201805,4.72398,0.554324,-0.629121,0.818168
26,60,-0.0872665,0.698132,-0.174533,-0.174533,-0.110886,0.688235,-0.153564,-0.201805,4.72398,0.554324,-0.629121,0.818168
26,60,-0.0872665,0.698132,-0.174533,-0.174533,-0.110886,0.688235,-0.153564,-0.201805,4.72398,0.554324,-0.629121,0.818167
26,60,-0.0872665,0.698132,-0.174533,-0.174533,-0.110886,0.688235,-0.153564,-0.201805,4.72398,0.554324,-0.629121,0.818167
26,60,-0.0872665,0.698132,-0.174533,-0.174533,-0.110886,0.688235,-0.153564,-0.201805,4.72398,0.554324,-0.629121,0.818166
26,60,-0.0872665,0.698132,-0.174533,-0.174533,-0.110886,0.688235,-0.153564,-0.201805,4.72398,0.554324,-0.629121,0.818166
26,60,-0.0872665,0.698132,-0.174533,-0.174533,-0.110886,0.688235,-0.153564,-0.201805,4.72398,0.554324,-0.629121,0.818166
26,60,-0.0872665,0.698132,-0.174533,-0.174533,-0.110886,0.688235,-0.153564,-0.201805,4.72398,0.554324,-0.629121,0.818165
26,60,-0.0872665,0.698132,-0.174533,-0.174533,-0.110886,0.688235,-0.153564,-0.201805,4.72398,0.554324,-0.629121,0.818165
26,60,-0.0872665,0.698132,-0.174533,-0.174533,-0.110886,0.688235,-0.153564,-0.201805,4.72398,0.554324,-0.629121,0.818164
26,60,-0.0872665,0.698132,-0.174533,-0.174533,-0.110886,0.688235,-0.153564,-0.201805,4.72398,0.554324,-0.629121,0.818164
26,60,-0.0872665,0.698132,-0.174533,-0.174533,-0.110886,0.688235,-0.153564,-0.201805,4.72398,0.554324,-0.629121,0.818164
26,60,-0.0872665,0.698132,-0.174533,-0.174533,-0.110886,0.688235,-0.153564,-0.201805,4.72398,0.554324,-0.629121,0.818163
26,60,-0.0872665,0.698132,-0.174533,-0.174533,-0.110886,0.688235,-0.153564,-0.201805,4.72398,0.554324,-0.629121,0.818163
26,60,-0.0872665,0.698132,-0.174533,-0.174533,-0.110886,0.688235,-0.153564,-0.201805,4.72398,0.554324,-0.629121,0.818163
26,60,-0.0872665,0.698132,-0.174533,-0.174533,-0.110886,0.688235,-0.153564,-0.201805,4.72398,0.554212,-0.629121,0.818162
26,60,-0.0872665,0.698132,-0.174533,-0.174533,-0.110886,0.688235,-0.153564,-0.201805,4.72398,0.554212,-0.629121,0.818162
26,60,-0.0872665,0.698132,-0.174533,-0.174533,-0.110886,0.688235,-0.153564,-0.201805,4.72398,0.554212,-0.629121,0.818162
26,60,-0.0872665,0.698132,-0.174533,-0.174533,-0.110886,0.688235,-0.153564,-0.201805,4.72398,0.554212,-0.629121,0.818161
26,60,-0.0872665,0.698132,-0.174533,-0.174533,-0.110886,0.688235,-0.153564,-0.201805,4.72398,0.554212,-0.629121,0.818161
26,60,-0.0872665,0.698132,-0.174533,-0.174533,-0.110886,0.688235,-0.153626,-0.201786,4.72398,0.554212,-0.627257,0.81759
26,60,-0.0872665,0.698132,-0.174533,-0.174533,-0.110886,0.688235,-0.153626,-0.201786,4.72398,0.554212,-0.627257,0.817589
26,60,-0.0872665,0.698132,-0.174533,-0.174533,-0.110886,0.688235,-0.153626,-0.201786,4.72398,0.554212,-0.627257,0.817589
26,60,-0.0872665,0.698132,-0.174533,-0.174533,-0.110886,0.688235,-0.153626,-0.201786,4.72398,0.554212,-0.627257,0.817589
26,60,-0.0872665,0.698132,-0.174533,-0.174533,-0.110886,0.688235,-0.153626,-0.201786,4.72398,0.554212,-0.627257,0.817589
26,60,-0.0872665,0.698132,-0.174533,-0.174533,-0.110886,0.688235,-0.153626,-0.201786,4.72398,0.554212,-0.627257,0.817588
26,60,-0.0872665,0.698132,-0.174533,-0.174533,-0.110886,0.688235,-0.153626,-0.201786,4.72398,0.554212,-0.627257,0.817588
26,60,-0.0872665,0.698132,-0.174533,-0.174533,-0.110886,0.688235,-0.153626,-0.201786,4.72398,0.554212,-0.627257,0.817588
26,60,-0.0872665,0.698132,-0.174533,-0.174533,-0.110886,0.688235,-0.153626,-0.201786,4.72398,0.554212,-0.627257,0.817588
26,60,-0.0872665,0.698132,-0.174533,-0.174533,-0.110886,0.688235,-0.153626,-0.201786,4.72398,0.554212,-0.627257,0.817587
26,60,-0.0872665,0.698132,-0.174533,-0.174533,-0.110886,0.688235,-0.153626,-0.201786,4.72398,0.554212,-0.627257,0.817587
26,60,-0.0872665,0.698132,-0.174533,-0.174533,-0.110886,0.688235,-0.153626,-0.201786,4.72398,0.554212,-0.627257,0.817587
26,60,-0.0872665,0.698132,-0.174533,-0.174533,-0.110886,0.688235,-0.153626,-0.201786,4.72398,0.554212,-0.627257,0.817587
26,60,-0.0872665,0.698132,-0.174533,-0.174533,-0.110886,0.688235,-0.153626,-0.201786,4.72398,0.554212,-0.627257,0.817586
26,60,-0.0872665,0.698132,-0.174533,-0.174533,-0.110886,0.688235,-0.153626,-0.201786,4.72398,0.554212,-0.627257,0.817586
26,60,-0.0872665,0.698132,-0.174533,-0.174533,-0.110886,0.688235,-0.153626,-0.201786,4.72398,0.554212,-0.627257,0.817586
26,60,-0.0872665,0.698132,-0.174533,-0.174533,-0.110886,0.688235,-0.153626,-0.201786,4.72398,0.554212,-0.627257,0.817586
26,60,-0.0872665,0.698132,-0.174533,-0.174533,-0.110886,0.688235,-0.153626,-0.201786,4.72398,0.554212,-0.627257,0.817585
26,60,-0.0872665,0.698132,-0.174533,-0.174533,-0.110886,0.688235,-0.153626,-0.201786,4.72398,0.554212,-0.627257,0.817585
26,60,-0.0872665,0.698132,-0.174533,-0.174533,-0.110886,0.688235,-0.153626,-0.201786,4.72398,0.554212,-0.627257,0.817585
26,60,-0.0872665,0.698132,-0.174533,-0.174533,-0.110886,0.688235,-0.153626,-0.201786,4.72398,0.554212,-0.627257,0.817585
26,60,-0.0872665,0.698132,-0.174533,-0.174533,-0.110886,0.688235,-0.153626,-0.201786,4.72398,0.554212,-0.627257,0.817585
26,60,-0.0872665,0.698132,-0.174533,-0.174533,-0.110886,0.688235,-0.153626,-0.201786,4.72398,0.554212,-0.627257,0.817584
26,60,-0.0872665,0.698132,-0.174533,-0.174533,-0.110886,0.688235,-0.153626,-0.201786,4.72398,0.554212,-0.627257,0.817584
26,60,-0.0872665,0.698132,-0.174533,-0.174533,-0.110886,0.688235,-0.153626,-0.201786,4.72398,0.554212,-0.627257,0.817584
26,60,-0.0872665,0.698132,-0.174533,-0.174533,-0.110886,0.688235,-0.153626,-0.201786,4.72398,0.554212,-0.627257,0.817584
26,60,-0.0872665,0.698132,-0.174533,-0.174533,-0.110886,0.688235,-0.153626,-0.201786,4.72398,0.554212,-0.627257,0.817584
26,60,-0.0872665,0.698132,-0.174533,-0.174533,-0.110886,0.688235,-0.153626,-0.201786,4.72398,0.554212,-0.627257,0.817584
26,60,-0.0872665,0.698132,-0.174533,-0.174533,-0.110886,0.688235,-0.153626,-0.201786,4.72398,0.554212,-0.627257,0.817583
26,60,-0.0872665,0.698132,-0.174533,-0.174533,-0.110886,0.688235,-0.153626,-0.201786,4.72398,0.554212,-0.627257,0.817583
26,60,-0.0872665,0.698132,-0.174533,-0.174533,-0.110886,0.688235,-0.153626,-0.201786,4.72398,0.554212,-0.627257,0.817583
26,60,-0.0872665,0.698132,-0.174533,-0.174533,-0.110886,0.688235,-0.153626,-0.201786,4.72398,0.554212,-0.627257,0.817583
26,60,-0.0872665,0.698132,-0.174533,-0.174533,-0.110886,0.688235,-0.153626,-0.201786,4.72398,0.554212,-0.627257,0.817583
26,60,-0.0872665,0.698132,-0.174533,-0.174533,-0.110886,0.688235,-0.153626,-0.201786,4.72398,0.554212,-0.627257,0.817582
26,60,-0.0872665,0.698132,-0.174533,-0.174533,-0.110886,0.688235,-0.153626,-0.201786,4.72398,0.554212,-0.627257,0.817582
26,60,-0.0872665,0.698132,-0.174533,-0.174533,-0.110886,0.688235,-0.153626,-0.201786,4.72398,0.554212,-0.627257,0.817582
26,60,-0.0872665,0.698132,-0.174533,-0.174533,-0.110886,0.688235,-0.153626,-0.201786,4.72398,0.554212,-0.627257,0.817582
26,60,-0.0872665,0.698132,-0.174533,-0.174533,-0.110886,0.688235,-0.153626,-0.201786,4.72398,0.554212,-0.627258,0.817582
26,60,-0.0872665,0.698132,-0.174533,-0.174533,-0.110886,0.688235,-0.153626,-0.201786,4.72398,0.554212,-0.627258,0.817582
26,60,-0.0872665,0.698132,-0.174533,-0.174533,-0.110886,0.688235,-0.153558,-0.201743,4.72398,0.554212,-0.62927,0.816315
26,60,-0.0872665,0.698132,-0.174533,-0.174533,-0.110886,0.688235,-0.153558,-0.201743,4.72398,0.554212,-0.62927,0.816315
26,60,-0.0872665,0.698132,-0.174533,-0.174533,-0.110886,0.688235,-0.153558,-0.201743,4.72398,0.554212,-0.62927,0.816315
26,60,-0.0872665,0.698132,-0.174533,-0.174533,-0.110886,0.688235,-0.153558,-0.201743,4.72398,0.554212,-0.62927,0.816315
26,60,-0.0872665,0.698132,-0.174533,-0.174533,-0.110886,0.688235,-0.153558,-0.201743,4.72398,0.554212,-0.62927,0.816315
26,60,-0.0872665,0.698132,-0.174533,-0.174533,-0.110886,0.688235,-0.153558,-0.201743,4.72398,0.554212,-0.62927,0.816315
26,60,-0.0872665,0.698132,-0.174533,-0.174533,-0.110886,0.688235,-0.153558,-0.201743,4.72398,0.554212,-0.62927,0.816314
26,60,-0.0872665,0.698132,-0.174533,-0.174533,-0.110886,0.688235,-0.153558,-0.201743,4.72398,0.554212,-0.62927,0.816314
26,60,-0.0872665,0.698132,-0.174533,-0.174533,-0.110886,0.688235,-0.153558,-0.201743,4.72398,0.554212,-0.62927,0.816314
26,60,-0.0872665,0.698132,-0.174533,-0.174533,-0.110886,0.688235,-0.153558,-0.201743,4.72398,0.554212,-0.62927,0.816314
26,60,-0.0872665,0.698132,-0.174533,-0.174533,-0.110886,0.688235,-0.153558,-0.201743,4.72398,0.554212,-0.62927,0.816314
26,60,-0.0872665,0.698132,-0.174533,-0.174533,-0.110886,0.688235,-0.153558,-0.201743,4.72398,0.554212,-0.62927,0.816314
26,60,-0.0872665,0.698132,-0.174533,-0.174533,-0.110886,0.688235,-0.153558,-0.201743,4.72398,0.554212,-0.62927,0.816314
26,60,-0.0872665,0.698132,-0.174533,-0.174533,-0.110886,0.688235,-0.153558,-0.201743,4.72398,0.554212,-0.62927,0.816314
