stim_pw [us],stim_amp [mA],com_elbow_fe [rad],com_forearm_ps [rad],com_wrist_fe [rad],com_wrist_ru [rad],act_elbow_fe [rad],act_forearm_ps [rad],act_wrist_fe [rad],act_wrist_ru [rad],elbow_fe_trq [Nm],forearm_ps_trq [Nm],wrist_fe_trq [Nm],wrist_ru_trq [Nm]
26,45,-0.567232,-0.698132,-0.174533,-0.174533,-0.573832,-0.685998,-0.145641,-0.194314,0.659953,-0.339742,-0.433382,0.296719
26,45,-0.567232,-0.698132,-0.174533,-0.174533,-0.573832,-0.685998,-0.145641,-0.194314,0.659953,-0.339742,-0.433382,0.296719
26,45,-0.567232,-0.698132,-0.174533,-0.174533,-0.573832,-0.685998,-0.145641,-0.194314,0.659953,-0.339742,-0.433382,0.296719
26,45,-0.567232,-0.698132,-0.174533,-0.174533,-0.573832,-0.685998,-0.145641,-0.194314,0.659953,-0.339742,-0.433382,0.296719
26,45,-0.567232,-0.698132,-0.174533,-0.174533,-0.573832,-0.685998,-0.145641,-0.194314,0.659953,-0.339742,-0.433382,0.296719
26,45,-0.567232,-0.698132,-0.174533,-0.174533,-0.573832,-0.685998,-0.145641,-0.194314,0.659953,-0.339742,-0.433382,0.296719
26,45,-0.567232,-0.698132,-0.174533,-0.174533,-0.573832,-0.685947,-0.14558,-0.194334,0.659953,-0.341166,-0.434295,0.297013
26,45,-0.567232,-0.698132,-0.174533,-0.174533,-0.573832,-0.685947,-0.14558,-0.194334,0.659953,-0.341166,-0.434295,0.297013
26,45,-0.567232,-0.698132,-0.174533,-0.174533,-0.573832,-0.685947,-0.14558,-0.194334,0.659953,-0.341166,-0.434295,0.297013
26,45,-0.567232,-0.698132,-0.174533,-0.174533,-0.573832,-0.685947,-0.14558,-0.194334,0.659953,-0.341166,-0.434295,0.297013
26,45,-0.567232,-0.698132,-0.174533,-0.174533,-0.573832,-0.685947,-0.14558,-0.194334,0.659953,-0.341166,-0.434295,0.297013
26,45,-0.567232,-0.698132,-0.174533,-0.174533,-0.573832,-0.685947,-0.14558,-0.194334,0.659953,-0.341166,-0.434295,0.297013
26,45,-0.567232,-0.698132,-0.174533,-0.174533,-0.573832,-0.685947,-0.14558,-0.194334,0.659953,-0.341166,-0.434295,0.297013
26,45,-0.567232,-0.698132,-0.174533,-0.174533,-0.573832,-0.685947,-0.14558,-0.194334,0.659953,-0.341166,-0.434295,0.297013
26,45,-0.567232,-0.698132,-0.174533,-0.174533,-0.573832,-0.685947,-0.14558,-0.194334,0.659953,-0.341166,-0.434295,0.297013
26,45,-0.567232,-0.698132,-0.174533,-0.174533,-0.573832,-0.685947,-0.14558,-0.194334,0.659953,-0.341166,-0.434295,0.297013
26,45,-0.567232,-0.698132,-0.174533,-0.174533,-0.573832,-0.685947,-0.14558,-0.194334,0.659953,-0.341166,-0.434295,0.297013
26,45,-0.567232,-0.698132,-0.174533,-0.174533,-0.573832,-0.685947,-0.14558,-0.194334,0.659953,-0.341166,-0.434295,0.297013
26,45,-0.567232,-0.698132,-0.174533,-0.174533,-0.573832,-0.685947,-0.14558,-0.194334,0.659953,-0.341166,-0.434295,0.297013
26,45,-0.567232,-0.698132,-0.174533,-0.174533,-0.573832,-0.685947,-0.14558,-0.194334,0.659953,-0.341166,-0.434295,0.297013
26,45,-0.567232,-0.698132,-0.174533,-0.174533,-0.573832,-0.685947,-0.14558,-0.194334,0.659953,-0.341166,-0.434295,0.297013
26,45,-0.567232,-0.698132,-0.174533,-0.174533,-0.573832,-0.685947,-0.14558,-0.194334,0.659953,-0.341166,-0.434295,0.297013
26,45,-0.567232,-0.698132,-0.174533,-0.174533,-0.573832,-0.685947,-0.14558,-0.194334,0.659953,-0.341166,-0.434295,0.297013
26,45,-0.567232,-0.698132,-0.174533,-0.174533,-0.573832,-0.685947,-0.14558,-0.194334,0.659953,-0.341166,-0.434295,0.297013
26,45,-0.567232,-0.698132,-0.174533,-0.174533,-0.573832,-0.685947,-0.14558,-0.194334,0.659953,-0.341166,-0.434295,0.297013
26,45,-0.567232,-0.698132,-0.174533,-0.174533,-0.573832,-0.685947,-0.14558,-0.194334,0.659953,-0.341166,-0.434295,0.297013
26,45,-0.567232,-0.698132,-0.174533,-0.174533,-0.573832,-0.685947,-0.14558,-0.194334,0.659953,-0.341166,-0.434295,0.297013
26,45,-0.567232,-0.698132,-0.174533,-0.174533,-0.573832,-0.685947,-0.14558,-0.194334,0.659953,-0.341166,-0.434295,0.297013
26,45,-0.567232,-0.698132,-0.174533,-0.174533,-0.573832,-0.685947,-0.145578,-0.194274,0.659953,-0.341166,-0.434327,0.296124
26,45,-0.567232,-0.698132,-0.174533,-0.174533,-0.57376,-0.685947,-0.145578,-0.194274,0.652794,-0.341166,-0.434327,0.296124
26,45,-0.567232,-0.698132,-0.174533,-0.174533,-0.57376,-0.685947,-0.145578,-0.194274,0.652794,-0.341166,-0.434327,0.296124
26,45,-0.567232,-0.698132,-0.174533,-0.174533,-0.57376,-0.685947,-0.145578,-0.194274,0.652794,-0.341166,-0.434327,0.296124
26,45,-0.567232,-0.698132,-0.174533,-0.174533,-0.57376,-0.685947,-0.145578,-0.194274,0.652794,-0.341166,-0.434327,0.296124
26,45,-0.567232,-0.698132,-0.174533,-0.174533,-0.57376,-0.685947,-0.145578,-0.194274,0.652794,-0.341166,-0.434327,0.296124
26,45,-0.567232,-0.698132,-0.174533,-0.174533,-0.57376,-0.685947,-0.145578,-0.194274,0.652794,-0.341166,-0.434327,0.296124
26,45,-0.567232,-0.698132,-0.174533,-0.174533,-0.57376,-0.685947,-0.145578,-0.194274,0.652794,-0.341166,-0.434327,0.296124
26,45,-0.567232,-0.698132,-0.174533,-0.174533,-0.57376,-0.685947,-0.145578,-0.194274,0.652794,-0.341166,-0.434327,0.296124
26,45,-0.567232,-0.698132,-0.174533,-0.174533,-0.57376,-0.685947,-0.145578,-0.194274,0.652794,-0.341166,-0.434327,0.296124
26,45,-0.567232,-0.698132,-0.174533,-0.174533,-0.57376,-0.685947,-0.145517,-0.194294,0.652794,-0.341166,-0.43524,0.296418
26,45,-0.567232,-0.698132,-0.174533,-0.174533,-0.57376,-0.685947,-0.145517,-0.194294,0.652794,-0.341166,-0.43524,0.296418
26,45,-0.567232,-0.698132,-0.174533,-0.174533,-0.57376,-0.685947,-0.145517,-0.194294,0.652794,-0.341166,-0.43524,0.296418
26,45,-0.567232,-0.698132,-0.174533,-0.174533,-0.57376,-0.685947,-0.145517,-0.194294,0.652794,-0.341166,-0.43524,0.296418
26,45,-0.567232,-0.698132,-0.174533,-0.174533,-0.57376,-0.685947,-0.145517,-0.194294,0.652794,-0.341166,-0.43524,0.296418
26,45,-0.567232,-0.698132,-0.174533,-0.174533,-0.57376,-0.685947,-0.145517,-0.194294,0.652794,-0.341166,-0.43524,0.296418
26,45,-0.567232,-0.698132,-0.174533,-0.174533,-0.57376,-0.685947,-0.145517,-0.194294,0.652794,-0.341166,-0.43524,0.296418
26,45,-0.567232,-0.698132,-0.174533,-0.174533,-0.57376,-0.685947,-0.145517,-0.194294,0.652794,-0.341166,-0.43524,0.296418
26,45,-0.567232,-0.698132,-0.174533,-0.174533,-0.57376,-0.685947,-0.145517,-0.194294,0.652794,-0.341166,-0.43524,0.296418
26,45,-0.567232,-0.698132,-0.174533,-0.174533,-0.573688,-0.685947,-0.145517,-0.194294,0.645635,-0.341166,-0.43524,0.296418
26,45,-0.567232,-0.698132,-0.174533,-0.174533,-0.573688,-0.685947,-0.145517,-0.194294,0.645635,-0.341166,-0.43524,0.296418
26,45,-0.567232,-0.698132,-0.174533,-0.174533,-0.573688,-0.685947,-0.145517,-0.194294,0.645635,-0.341166,-0.43524,0.296418
26,45,-0.567232,-0.698132,-0.174533,-0.174533,-0.573688,-0.685947,-0.145517,-0.194294,0.645635,-0.341166,-0.43524,0.296418
26,45,-0.567232,-0.698132,-0.174533,-0.174533,-0.573688,-0.685896,-0.145517,-0.194294,0.645635,-0.342589,-0.43524,0.296418
26,45,-0.567232,-0.698132,-0.174533,-0.174533,-0.573688,-0.685896,-0.145517,-0.194294,0.645635,-0.342589,-0.43524,0.296418
26,45,-0.567232,-0.698132,-0.174533,-0.174533,-0.573688,-0.685896,-0.145517,-0.194294,0.645635,-0.342589,-0.43524,0.296418
26,45,-0.567232,-0.698132,-0.174533,-0.174533,-0.573688,-0.685896,-0.145517,-0.194294,0.645635,-0.342589,-0.43524,0.296418
26,45,-0.567232,-0.698132,-0.174533,-0.174533,-0.573688,-0.685896,-0.145517,-0.194294,0.645635,-0.342589,-0.43524,0.296418
26,45,-0.567232,-0.698132,-0.174533,-0.174533,-0.573688,-0.685896,-0.145517,-0.194294,0.645635,-0.342589,-0.43524,0.296418
26,45,-0.567232,-0.698132,-0.174533,-0.174533,-0.573688,-0.685896,-0.145517,-0.194294,0.645635,-0.342589,-0.43524,0.296418
26,45,-0.567232,-0.698132,-0.174533,-0.174533,-0.573688,-0.685896,-0.145517,-0.194294,0.645635,-0.342589,-0.43524,0.296418
26,45,-0.567232,-0.698132,-0.174533,-0.174533,-0.573688,-0.685896,-0.145517,-0.194294,0.645635,-0.342589,-0.43524,0.296418
26,45,-0.567232,-0.698132,-0.174533,-0.174533,-0.573688,-0.685896,-0.145517,-0.194294,0.645635,-0.342589,-0.43524,0.296418
26,45,-0.567232,-0.698132,-0.174533,-0.174533,-0.573688,-0.685896,-0.145517,-0.194294,0.645635,-0.342589,-0.43524,0.296418
26,45,-0.567232,-0.698132,-0.174533,-0.174533,-0.573688,-0.685896,-0.145517,-0.194294,0.645635,-0.342589,-0.43524,0.296418
26,45,-0.567232,-0.698132,-0.174533,-0.174533,-0.573688,-0.685896,-0.145517,-0.194294,0.645635,-0.342589,-0.43524,0.296418
26,45,-0.567232,-0.698132,-0.174533,-0.174533,-0.573688,-0.685896,-0.145517,-0.194294,0.645635,-0.342589,-0.43524,0.296418
26,45,-0.567232,-0.698132,-0.174533,-0.174533,-0.573688,-0.685896,-0.145517,-0.194294,0.645635,-0.342589,-0.43524,0.296418
26,45,-0.567232,-0.698132,-0.174533,-0.174533,-0.573688,-0.685896,-0.145517,-0.194294,0.645635,-0.342589,-0.43524,0.296418
26,45,-0.567232,-0.698132,-0.174533,-0.174533,-0.573688,-0.685896,-0.145517,-0.194294,0.645635,-0.342589,-0.43524,0.296418
26,45,-0.567232,-0.698132,-0.174533,-0.174533,-0.573688,-0.685896,-0.145517,-0.194294,0.645635,-0.342589,-0.43524,0.296418
26,45,-0.567232,-0.698132,-0.174533,-0.174533,-0.573688,-0.685896,-0.145517,-0.194294,0.645635,-0.342589,-0.43524,0.296418
26,45,-0.567232,-0.698132,-0.174533,-0.174533,-0.573688,-0.685896,-0.145517,-0.194294,0.645635,-0.342589,-0.43524,0.296418
26,45,-0.567232,-0.698132,-0.174533,-0.174533,-0.573688,-0.685896,-0.145517,-0.194294,0.645635,-0.342589,-0.43524,0.296418
26,45,-0.567232,-0.698132,-0.174533,-0.174533,-0.573688,-0.685896,-0.145517,-0.194294,0.645635,-0.342589,-0.43524,0.296418
26,45,-0.567232,-0.698132,-0.174533,-0.174533,-0.573688,-0.685896,-0.145517,-0.194294,0.645635,-0.342589,-0.43524,0.296418
26,45,-0.567232,-0.698132,-0.174533,-0.174533,-0.573688,-0.685896,-0.145517,-0.194294,0.645635,-0.342589,-0.43524,0.296418
26,45,-0.567232,-0.698132,-0.174533,-0.174533,-0.573688,-0.685896,-0.145517,-0.194294,0.645635,-0.342589,-0.43524,0.296418
26,45,-0.567232,-0.698132,-0.174533,-0.174533,-0.573688,-0.685896,-0.145517,-0.194294,0.645635,-0.342589,-0.43524,0.296418
26,45,-0.567232,-0.698132,-0.174533,-0.174533,-0.573688,-0.685896,-0.145517,-0.194294,0.645635,-0.342589,-0.43524,0.296418
26,45,-0.567232,-0.698132,-0.174533,-0.174533,-0.573688,-0.685896,-0.145517,-0.194294,0.645635,-0.342589,-0.43524,0.296418
26,45,-0.567232,-0.698132,-0.174533,-0.174533,-0.573688,-0.685896,-0.145456,-0.194314,0.645635,-0.342589,-0.436154,0.296712
26,45,-0.567232,-0.698132,-0.174533,-0.174533,-0.573688,-0.685896,-0.145456,-0.194314,0.645635,-0.342589,-0.436154,0.296712
26,45,-0.567232,-0.698132,-0.174533,-0.174533,-0.573688,-0.685896,-0.145456,-0.194314,0.645635,-0.342589,-0.436154,0.296712
26,45,-0.567232,-0.698132,-0.174533,-0.174533,-0.573688,-0.685896,-0.145456,-0.194314,0.645635,-0.342589,-0.436154,0.296712
26,45,-0.567232,-0.698132,-0.174533,-0.174533,-0.573688,-0.685896,-0.145456,-0.194314,0.645635,-0.342589,-0.436154,0.296712
26,45,-0.567232,-0.698132,-0.174533,-0.174533,-0.573688,-0.685896,-0.145456,-0.194314,0.645635,-0.342589,-0.436154,0.296712
26,45,-0.567232,-0.698132,-0.174533,-0.174533,-0.573688,-0.685896,-0.145456,-0.194314,0.645635,-0.342589,-0.436154,0.296712
26,45,-0.567232,-0.698132,-0.174533,-0.174533,-0.573688,-0.685896,-0.145456,-0.194314,0.645635,-0.342589,-0.436154,0.296712
26,45,-0.567232,-0.698132,-0.174533,-0.174533,-0.573688,-0.685896,-0.145456,-0.194314,0.645635,-0.342589,-0.436154,0.296712
26,45,-0.567232,-0.698132,-0.174533,-0.174533,-0.573688,-0.685896,-0.145456,-0.194314,0.645635,-0.342589,-0.436154,0.296712
26,45,-0.567232,-0.698132,-0.174533,-0.174533,-0.573688,-0.685896,-0.145456,-0.194314,0.645635,-0.342589,-0.436154,0.296712
26,45,-0.567232,-0.698132,-0.174533,-0.174533,-0.573688,-0.685896,-0.145456,-0.194314,0.645635,-0.342589,-0.436154,0.296712
26,45,-0.567232,-0.698132,-0.174533,-0.174533,-0.573688,-0.685896,-0.145456,-0.194314,0.645635,-0.342589,-0.436154,0.296712
26,45,-0.567232,-0.698132,-0.174533,-0.174533,-0.573688,-0.685896,-0.145456,-0.194314,0.645635,-0.342589,-0.436154,0.296712
26,45,-0.567232,-0.698132,-0.174533,-0.174533,-0.573688,-0.685896,-0.145456,-0.194314,0.645635,-0.342589,-0.436154,0.296712
26,45,-0.567232,-0.698132,-0.174533,-0.174533,-0.573688,-0.685896,-0.145456,-0.194314,0.645635,-0.342589,-0.436154,0.296712
26,45,-0.567232,-0.698132,-0.174533,-0.174533,-0.573688,-0.685896,-0.145456,-0.194314,0.645635,-0.342589,-0.436154,0.296712
26,45,-0.567232,-0.698132,-0.174533,-0.174533,-0.573688,-0.685896,-0.145456,-0.194314,0.645635,-0.342589,-0.436154,0.296712
26,45,-0.567232,-0.698132,-0.174533,-0.174533,-0.573688,-0.685896,-0.145456,-0.194314,0.645635,-0.342589,-0.436154,0.296712
26,45,-0.567232,-0.698132,-0.174533,-0.174533,-0.573688,-0.685896,-0.145456,-0.194314,0.645635,-0.342589,-0.436154,0.296712
26,45,-0.567232,-0.698132,-0.174533,-0.174533,-0.573688,-0.685896,-0.145456,-0.194314,0.645635,-0.342589,-0.436154,0.296712
26,45,-0.567232,-0.698132,-0.174533,-0.174533,-0.573688,-0.685846,-0.145456,-0.194314,0.645635,-0.344013,-0.436154,0.296712
26,45,-0.567232,-0.698132,-0.174533,-0.174533,-0.573688,-0.685846,-0.145456,-0.194314,0.645635,-0.344013,-0.436154,0.296712
26,45,-0.567232,-0.698132,-0.174533,-0.174533,-0.573688,-0.685846,-0.145456,-0.194314,0.645635,-0.344013,-0.436154,0.296712
26,45,-0.567232,-0.698132,-0.174533,-0.174533,-0.573688,-0.685846,-0.145456,-0.194314,0.645635,-0.344013,-0.436154,0.296712
26,45,-0.567232,-0.698132,-0.174533,-0.174533,-0.573688,-0.685846,-0.145456,-0.194314,0.645635,-0.344013,-0.436154,0.296712
26,45,-0.567232,-0.698132,-0.174533,-0.174533,-0.573688,-0.685846,-0.145456,-0.194314,0.645635,-0.344013,-0.436154,0.296712
26,45,-0.567232,-0.698132,-0.174533,-0.174533,-0.573688,-0.685846,-0.145456,-0.194314,0.645635,-0.344013,-0.436154,0.296712
26,45,-0.567232,-0.698132,-0.174533,-0.174533,-0.573688,-0.685846,-0.145456,-0.194314,0.645635,-0.344013,-0.436154,0.296712
26,45,-0.567232,-0.698132,-0.174533,-0.174533,-0.573688,-0.685846,-0.145456,-0.194314,0.645635,-0.344013,-0.436154,0.296712
26,45,-0.567232,-0.698132,-0.174533,-0.174533,-0.573688,-0.685846,-0.145456,-0.194314,0.645635,-0.344013,-0.436154,0.296712
26,45,-0.567232,-0.698132,-0.174533,-0.174533,-0.573688,-0.685846,-0.145456,-0.194314,0.645635,-0.344013,-0.436154,0.296712
26,45,-0.567232,-0.698132,-0.174533,-0.174533,-0.573688,-0.685846,-0.145456,-0.194314,0.645635,-0.344013,-0.436154,0.296712
26,45,-0.567232,-0.698132,-0.174533,-0.174533,-0.573688,-0.685846,-0.145456,-0.194314,0.645635,-0.344013,-0.436154,0.296712
26,45,-0.567232,-0.698132,-0.174533,-0.174533,-0.573688,-0.685846,-0.145456,-0.194314,0.645635,-0.344013,-0.436154,0.296712
26,45,-0.567232,-0.698132,-0.174533,-0.174533,-0.573688,-0.685846,-0.145456,-0.194314,0.645635,-0.344013,-0.436154,0.296712
26,45,-0.567232,-0.698132,-0.174533,-0.174533,-0.573688,-0.685846,-0.145456,-0.194314,0.645635,-0.344013,-0.436154,0.296712
26,45,-0.567232,-0.698132,-0.174533,-0.174533,-0.573688,-0.685846,-0.145456,-0.194314,0.645635,-0.344013,-0.436154,0.296712
26,45,-0.567232,-0.698132,-0.174533,-0.174533,-0.573688,-0.685846,-0.145456,-0.194314,0.645635,-0.344013,-0.436154,0.296712
26,45,-0.567232,-0.698132,-0.174533,-0.174533,-0.573688,-0.685846,-0.145456,-0.194314,0.645635,-0.344013,-0.436154,0.296712
26,45,-0.567232,-0.698132,-0.174533,-0.174533,-0.573688,-0.685846,-0.145456,-0.194314,0.645635,-0.344013,-0.436154,0.296712
26,45,-0.567232,-0.698132,-0.174533,-0.174533,-0.573688,-0.685846,-0.145456,-0.194314,0.645635,-0.344013,-0.436154,0.296712
26,45,-0.567232,-0.698132,-0.174533,-0.174533,-0.573688,-0.685846,-0.145456,-0.194314,0.645635,-0.344013,-0.436154,0.296712
26,45,-0.567232,-0.698132,-0.174533,-0.174533,-0.573688,-0.685846,-0.145456,-0.194314,0.645635,-0.344013,-0.436154,0.296712
26,45,-0.567232,-0.698132,-0.174533,-0.174533,-0.573688,-0.685846,-0.145456,-0.194314,0.645635,-0.344013,-0.436154,0.296712
26,45,-0.567232,-0.698132,-0.174533,-0.174533,-0.573688,-0.685846,-0.145456,-0.194314,0.645635,-0.344013,-0.436154,0.296712
26,45,-0.567232,-0.698132,-0.174533,-0.174533,-0.573688,-0.685846,-0.145456,-0.194314,0.645635,-0.344013,-0.436154,0.296712
26,45,-0.567232,-0.698132,-0.174533,-0.174533,-0.573688,-0.685846,-0.145456,-0.194314,0.645635,-0.344013,-0.436154,0.296712
26,45,-0.567232,-0.698132,-0.174533,-0.174533,-0.573688,-0.685846,-0.145456,-0.194314,0.645635,-0.344013,-0.436154,0.296712
26,45,-0.567232,-0.698132,-0.174533,-0.174533,-0.573688,-0.685846,-0.145456,-0.194314,0.645635,-0.344013,-0.436154,0.296712
26,45,-0.567232,-0.698132,-0.174533,-0.174533,-0.573688,-0.685846,-0.145395,-0.194333,0.645635,-0.344013,-0.437068,0.297006
26,45,-0.567232,-0.698132,-0.174533,-0.174533,-0.573688,-0.685846,-0.145395,-0.194333,0.645635,-0.344013,-0.437068,0.297006
26,45,-0.567232,-0.698132,-0.174533,-0.174533,-0.573688,-0.685846,-0.145395,-0.194333,0.645635,-0.344013,-0.437068,0.297006
26,45,-0.567232,-0.698132,-0.174533,-0.174533,-0.573688,-0.685846,-0.145395,-0.194333,0.645635,-0.344013,-0.437068,0.297006
26,45,-0.567232,-0.698132,-0.174533,-0.174533,-0.573688,-0.685846,-0.145395,-0.194333,0.645635,-0.344013,-0.437068,0.297006
26,45,-0.567232,-0.698132,-0.174533,-0.174533,-0.573688,-0.685846,-0.145395,-0.194333,0.645635,-0.344013,-0.437068,0.297006
26,45,-0.567232,-0.698132,-0.174533,-0.174533,-0.573688,-0.685846,-0.145395,-0.194333,0.645635,-0.344013,-0.437068,0.297006
26,45,-0.567232,-0.698132,-0.174533,-0.174533,-0.573688,-0.685846,-0.145395,-0.194333,0.645635,-0.344013,-0.437068,0.297006
26,45,-0.567232,-0.698132,-0.174533,-0.174533,-0.573688,-0.685846,-0.145395,-0.194333,0.645635,-0.344013,-0.437068,0.297006
26,45,-0.567232,-0.698132,-0.174533,-0.174533,-0.573688,-0.685846,-0.145395,-0.194333,0.645635,-0.344013,-0.437068,0.297006
26,45,-0.567232,-0.698132,-0.174533,-0.174533,-0.573688,-0.685846,-0.145395,-0.194333,0.645635,-0.344013,-0.437068,0.297006
26,45,-0.567232,-0.698132,-0.174533,-0.174533,-0.573688,-0.685846,-0.145395,-0.194333,0.645635,-0.344013,-0.437068,0.297006
26,45,-0.567232,-0.698132,-0.174533,-0.174533,-0.573688,-0.685846,-0.145395,-0.194333,0.645635,-0.344013,-0.437068,0.297006
26,45,-0.567232,-0.698132,-0.174533,-0.174533,-0.573688,-0.685846,-0.145395,-0.194333,0.645635,-0.344013,-0.437068,0.297006
26,45,-0.567232,-0.698132,-0.174533,-0.174533,-0.573688,-0.685846,-0.145461,-0.194375,0.645635,-0.344013,-0.436084,0.29763
26,45,-0.567232,-0.698132,-0.174533,-0.174533,-0.573688,-0.685846,-0.145461,-0.194375,0.645635,-0.344013,-0.436084,0.29763
26,45,-0.567232,-0.698132,-0.174533,-0.174533,-0.573688,-0.685846,-0.145461,-0.194375,0.645635,-0.344013,-0.436084,0.29763
26,45,-0.567232,-0.698132,-0.174533,-0.174533,-0.573688,-0.685846,-0.145461,-0.194375,0.645635,-0.344013,-0.436084,0.29763
26,45,-0.567232,-0.698132,-0.174533,-0.174533,-0.573688,-0.685846,-0.145461,-0.194375,0.645635,-0.344013,-0.436084,0.29763
26,45,-0.567232,-0.698132,-0.174533,-0.174533,-0.573688,-0.685846,-0.145461,-0.194375,0.645635,-0.344013,-0.436084,0.29763
26,45,-0.567232,-0.698132,-0.174533,-0.174533,-0.573688,-0.685846,-0.145461,-0.194375,0.645635,-0.344013,-0.436084,0.29763
26,45,-0.567232,-0.698132,-0.174533,-0.174533,-0.573688,-0.685846,-0.145461,-0.194375,0.645635,-0.344013,-0.436084,0.29763
26,45,-0.567232,-0.698132,-0.174533,-0.174533,-0.573688,-0.685846,-0.145461,-0.194375,0.645635,-0.344013,-0.436084,0.29763
26,45,-0.567232,-0.698132,-0.174533,-0.174533,-0.573688,-0.685846,-0.145461,-0.194375,0.645635,-0.344013,-0.436084,0.29763
26,45,-0.567232,-0.698132,-0.174533,-0.174533,-0.573688,-0.685846,-0.145461,-0.194375,0.645635,-0.344013,-0.436084,0.29763
26,45,-0.567232,-0.698132,-0.174533,-0.174533,-0.573688,-0.685846,-0.145461,-0.194375,0.645635,-0.344013,-0.436084,0.29763
26,45,-0.567232,-0.698132,-0.174533,-0.174533,-0.573688,-0.685846,-0.145461,-0.194375,0.645635,-0.344013,-0.436084,0.29763
26,45,-0.567232,-0.698132,-0.174533,-0.174533,-0.573688,-0.685846,-0.145461,-0.194375,0.645635,-0.344013,-0.436084,0.29763
26,45,-0.567232,-0.698132,-0.174533,-0.174533,-0.573688,-0.685846,-0.145461,-0.194375,0.645635,-0.344013,-0.436084,0.29763
26,45,-0.567232,-0.698132,-0.174533,-0.174533,-0.573688,-0.685846,-0.145461,-0.194375,0.645635,-0.344013,-0.436084,0.29763
26,45,-0.567232,-0.698132,-0.174533,-0.174533,-0.573688,-0.685846,-0.145461,-0.194375,0.645635,-0.344013,-0.436084,0.29763
26,45,-0.567232,-0.698132,-0.174533,-0.174533,-0.573688,-0.685846,-0.145461,-0.194375,0.645635,-0.344013,-0.436084,0.29763
26,45,-0.567232,-0.698132,-0.174533,-0.174533,-0.573688,-0.685846,-0.145461,-0.194375,0.645635,-0.344013,-0.436084,0.29763
26,45,-0.567232,-0.698132,-0.174533,-0.174533,-0.573688,-0.685846,-0.1454,-0.194395,0.645635,-0.344013,-0.436998,0.297924
26,45,-0.567232,-0.698132,-0.174533,-0.174533,-0.573688,-0.685846,-0.1454,-0.194395,0.645635,-0.344013,-0.436998,0.297924
26,45,-0.567232,-0.698132,-0.174533,-0.174533,-0.573688,-0.685846,-0.1454,-0.194395,0.645635,-0.344013,-0.436998,0.297924
26,45,-0.567232,-0.698132,-0.174533,-0.174533,-0.573688,-0.685846,-0.1454,-0.194395,0.645635,-0.344013,-0.436998,0.297924
26,45,-0.567232,-0.698132,-0.174533,-0.174533,-0.573688,-0.685846,-0.1454,-0.194395,0.645635,-0.344013,-0.436998,0.297924
26,45,-0.567232,-0.698132,-0.174533,-0.174533,-0.573688,-0.685846,-0.1454,-0.194395,0.645635,-0.344013,-0.436998,0.297924
26,45,-0.567232,-0.698132,-0.174533,-0.174533,-0.573688,-0.685846,-0.1454,-0.194395,0.645635,-0.344013,-0.436998,0.297924
26,45,-0.567232,-0.698132,-0.174533,-0.174533,-0.573688,-0.685846,-0.1454,-0.194395,0.645635,-0.344013,-0.436998,0.297924
26,45,-0.567232,-0.698132,-0.174533,-0.174533,-0.573688,-0.685846,-0.1454,-0.194395,0.645635,-0.344013,-0.436998,0.297924
26,45,-0.567232,-0.698132,-0.174533,-0.174533,-0.573688,-0.685846,-0.1454,-0.194395,0.645635,-0.344013,-0.436998,0.297924
26,45,-0.567232,-0.698132,-0.174533,-0.174533,-0.573688,-0.685846,-0.1454,-0.194395,0.645635,-0.344013,-0.436998,0.297924
26,45,-0.567232,-0.698132,-0.174533,-0.174533,-0.573688,-0.685846,-0.1454,-0.194395,0.645635,-0.344013,-0.436998,0.297924
26,45,-0.567232,-0.698132,-0.174533,-0.174533,-0.573688,-0.685846,-0.1454,-0.194395,0.645635,-0.344013,-0.436998,0.297924
26,45,-0.567232,-0.698132,-0.174533,-0.174533,-0.573688,-0.685846,-0.1454,-0.194395,0.645635,-0.344013,-0.436998,0.297924
26,45,-0.567232,-0.698132,-0.174533,-0.174533,-0.573688,-0.685846,-0.1454,-0.194395,0.645635,-0.344013,-0.436998,0.297924
26,45,-0.567232,-0.698132,-0.174533,-0.174533,-0.573688,-0.685846,-0.1454,-0.194395,0.645635,-0.344013,-0.436998,0.297924
26,45,-0.567232,-0.698132,-0.174533,-0.174533,-0.573688,-0.685846,-0.1454,-0.194395,0.645635,-0.344013,-0.436998,0.297924
26,45,-0.567232,-0.698132,-0.174533,-0.174533,-0.573688,-0.685846,-0.1454,-0.194395,0.645635,-0.344013,-0.436998,0.297924
26,45,-0.567232,-0.698132,-0.174533,-0.174533,-0.573688,-0.685846,-0.1454,-0.194395,0.645635,-0.344013,-0.436998,0.297924
26,45,-0.567232,-0.698132,-0.174533,-0.174533,-0.573688,-0.685795,-0.1454,-0.194395,0.645635,-0.345437,-0.436998,0.297924
26,45,-0.567232,-0.698132,-0.174533,-0.174533,-0.573688,-0.685795,-0.1454,-0.194395,0.645635,-0.345437,-0.436998,0.297924
26,45,-0.567232,-0.698132,-0.174533,-0.174533,-0.573688,-0.685795,-0.1454,-0.194395,0.645635,-0.345437,-0.436998,0.297924
26,45,-0.567232,-0.698132,-0.174533,-0.174533,-0.573688,-0.685795,-0.145398,-0.194335,0.645635,-0.345437,-0.437029,0.297035
26,45,-0.567232,-0.698132,-0.174533,-0.174533,-0.573688,-0.685795,-0.145398,-0.194335,0.645635,-0.345437,-0.437029,0.297035
26,45,-0.567232,-0.698132,-0.174533,-0.174533,-0.573617,-0.685795,-0.145398,-0.194335,0.638477,-0.345437,-0.437029,0.297035
26,45,-0.567232,-0.698132,-0.174533,-0.174533,-0.573617,-0.685795,-0.145398,-0.194335,0.638477,-0.345437,-0.437029,0.297035
26,45,-0.567232,-0.698132,-0.174533,-0.174533,-0.573617,-0.685795,-0.145398,-0.194335,0.638477,-0.345437,-0.437029,0.297035
26,45,-0.567232,-0.698132,-0.174533,-0.174533,-0.573617,-0.685795,-0.145337,-0.194355,0.638477,-0.345437,-0.437943,0.297329
26,45,-0.567232,-0.698132,-0.174533,-0.174533,-0.573617,-0.685795,-0.145337,-0.194355,0.638477,-0.345437,-0.437943,0.297329
26,45,-0.567232,-0.698132,-0.174533,-0.174533,-0.573617,-0.685795,-0.145337,-0.194355,0.638477,-0.345437,-0.437943,0.297329
26,45,-0.567232,-0.698132,-0.174533,-0.174533,-0.573617,-0.685795,-0.145337,-0.194355,0.638477,-0.345437,-0.437943,0.297329
26,45,-0.567232,-0.698132,-0.174533,-0.174533,-0.573617,-0.685795,-0.145337,-0.194355,0.638477,-0.345437,-0.437943,0.297329
26,45,-0.567232,-0.698132,-0.174533,-0.174533,-0.573617,-0.685795,-0.145337,-0.194355,0.638477,-0.345437,-0.437943,0.297329
26,45,-0.567232,-0.698132,-0.174533,-0.174533,-0.573617,-0.685795,-0.145337,-0.194355,0.638477,-0.345437,-0.437943,0.297329
26,45,-0.567232,-0.698132,-0.174533,-0.174533,-0.573617,-0.685795,-0.145337,-0.194355,0.638477,-0.345437,-0.437943,0.297329
26,45,-0.567232,-0.698132,-0.174533,-0.174533,-0.573617,-0.685795,-0.145337,-0.194355,0.638477,-0.345437,-0.437943,0.297329
26,45,-0.567232,-0.698132,-0.174533,-0.174533,-0.573617,-0.685795,-0.145337,-0.194355,0.638477,-0.345437,-0.437943,0.297329
26,45,-0.567232,-0.698132,-0.174533,-0.174533,-0.573617,-0.685795,-0.145337,-0.194355,0.638477,-0.345437,-0.437943,0.297329
26,45,-0.567232,-0.698132,-0.174533,-0.174533,-0.573617,-0.685795,-0.145337,-0.194355,0.638477,-0.345437,-0.437943,0.297329
26,45,-0.567232,-0.698132,-0.174533,-0.174533,-0.573617,-0.685795,-0.145337,-0.194355,0.638477,-0.345437,-0.437943,0.297329
26,45,-0.567232,-0.698132,-0.174533,-0.174533,-0.573617,-0.685795,-0.145337,-0.194355,0.638477,-0.345437,-0.437943,0.297329
26,45,-0.567232,-0.698132,-0.174533,-0.174533,-0.573617,-0.685795,-0.145337,-0.194355,0.638477,-0.345437,-0.437943,0.297329
26,45,-0.567232,-0.698132,-0.174533,-0.174533,-0.573617,-0.685795,-0.145337,-0.194355,0.638477,-0.345437,-0.437943,0.297329
26,45,-0.567232,-0.698132,-0.174533,-0.174533,-0.573617,-0.685795,-0.145337,-0.194355,0.638477,-0.345437,-0.437943,0.297329
26,45,-0.567232,-0.698132,-0.174533,-0.174533,-0.573617,-0.685795,-0.145337,-0.194355,0.638477,-0.345437,-0.437943,0.297329
26,45,-0.567232,-0.698132,-0.174533,-0.174533,-0.573617,-0.685795,-0.145337,-0.194355,0.638477,-0.345437,-0.437943,0.297329
26,45,-0.567232,-0.698132,-0.174533,-0.174533,-0.573617,-0.685795,-0.145337,-0.194355,0.638477,-0.345437,-0.437943,0.297329
26,45,-0.567232,-0.698132,-0.174533,-0.174533,-0.573617,-0.685795,-0.145337,-0.194355,0.638477,-0.345437,-0.437943,0.297329
26,45,-0.567232,-0.698132,-0.174533,-0.174533,-0.573617,-0.685795,-0.145337,-0.194355,0.638477,-0.345437,-0.437943,0.297329
26,45,-0.567232,-0.698132,-0.174533,-0.174533,-0.573617,-0.685795,-0.145276,-0.194374,0.638477,-0.345437,-0.438857,0.297623
26,45,-0.567232,-0.698132,-0.174533,-0.174533,-0.573617,-0.685795,-0.145276,-0.194374,0.638477,-0.345437,-0.438857,0.297623
26,45,-0.567232,-0.698132,-0.174533,-0.174533,-0.573617,-0.685795,-0.145276,-0.194374,0.638477,-0.345437,-0.438857,0.297623
26,45,-0.567232,-0.698132,-0.174533,-0.174533,-0.573617,-0.685795,-0.145276,-0.194374,0.638477,-0.345437,-0.438857,0.297623
26,45,-0.567232,-0.698132,-0.174533,-0.174533,-0.573617,-0.685795,-0.145276,-0.194374,0.638477,-0.345437,-0.438857,0.297623
26,45,-0.567232,-0.698132,-0.174533,-0.174533,-0.573617,-0.685795,-0.145276,-0.194374,0.638477,-0.345437,-0.438857,0.297623
26,45,-0.567232,-0.698132,-0.174533,-0.174533,-0.573617,-0.685795,-0.145276,-0.194374,0.638477,-0.345437,-0.438857,0.297623
26,45,-0.567232,-0.698132,-0.174533,-0.174533,-0.573617,-0.685795,-0.145276,-0.194374,0.638477,-0.345437,-0.438857,0.297623
26,45,-0.567232,-0.698132,-0.174533,-0.174533,-0.573617,-0.685795,-0.145276,-0.194374,0.638477,-0.345437,-0.438857,0.297623
26,45,-0.567232,-0.698132,-0.174533,-0.174533,-0.573617,-0.685795,-0.145276,-0.194374,0.638477,-0.345437,-0.438857,0.297623
26,45,-0.567232,-0.698132,-0.174533,-0.174533,-0.573617,-0.685795,-0.145276,-0.194374,0.638477,-0.345437,-0.438857,0.297623
26,45,-0.567232,-0.698132,-0.174533,-0.174533,-0.573545,-0.685795,-0.145276,-0.194374,0.631318,-0.345437,-0.438857,0.297623
26,45,-0.567232,-0.698132,-0.174533,-0.174533,-0.573545,-0.685795,-0.145276,-0.194374,0.631318,-0.345437,-0.438857,0.297623
26,45,-0.567232,-0.698132,-0.174533,-0.174533,-0.573545,-0.685795,-0.145276,-0.194374,0.631318,-0.345437,-0.438857,0.297623
26,45,-0.567232,-0.698132,-0.174533,-0.174533,-0.573545,-0.685795,-0.145276,-0.194374,0.631318,-0.345437,-0.438857,0.297623
26,45,-0.567232,-0.698132,-0.174533,-0.174533,-0.573545,-0.685795,-0.145276,-0.194374,0.631318,-0.345437,-0.438857,0.297623
26,45,-0.567232,-0.698132,-0.174533,-0.174533,-0.573545,-0.685795,-0.145276,-0.194374,0.631318,-0.345437,-0.438857,0.297623
26,45,-0.567232,-0.698132,-0.174533,-0.174533,-0.573545,-0.685795,-0.145276,-0.194374,0.631318,-0.345437,-0.438857,0.297623
26,45,-0.567232,-0.698132,-0.174533,-0.174533,-0.573545,-0.685795,-0.145276,-0.194374,0.631318,-0.345437,-0.438857,0.297623
26,45,-0.567232,-0.698132,-0.174533,-0.174533,-0.573545,-0.685795,-0.145276,-0.194374,0.631318,-0.345437,-0.438857,0.297623
26,45,-0.567232,-0.698132,-0.174533,-0.174533,-0.573545,-0.685795,-0.145276,-0.194374,0.631318,-0.345437,-0.438857,0.297623
26,45,-0.567232,-0.698132,-0.174533,-0.174533,-0.573545,-0.685795,-0.145274,-0.194315,0.631318,-0.345437,-0.438888,0.296734
26,45,-0.567232,-0.698132,-0.174533,-0.174533,-0.573545,-0.685795,-0.145274,-0.194315,0.631318,-0.345437,-0.438888,0.296734
26,45,-0.567232,-0.698132,-0.174533,-0.174533,-0.573545,-0.685795,-0.145274,-0.194315,0.631318,-0.345437,-0.438888,0.296734
26,45,-0.567232,-0.698132,-0.174533,-0.174533,-0.573545,-0.685795,-0.145274,-0.194315,0.631318,-0.345437,-0.438888,0.296734
26,45,-0.567232,-0.698132,-0.174533,-0.174533,-0.573545,-0.685795,-0.145274,-0.194315,0.631318,-0.345437,-0.438888,0.296734
26,45,-0.567232,-0.698132,-0.174533,-0.174533,-0.573545,-0.685795,-0.145274,-0.194315,0.631318,-0.345437,-0.438888,0.296734
26,45,-0.567232,-0.698132,-0.174533,-0.174533,-0.573545,-0.685795,-0.145274,-0.194315,0.631318,-0.345437,-0.438888,0.296734
26,45,-0.567232,-0.698132,-0.174533,-0.174533,-0.573545,-0.685795,-0.145274,-0.194315,0.631318,-0.345437,-0.438888,0.296734
26,45,-0.567232,-0.698132,-0.174533,-0.174533,-0.573545,-0.685795,-0.145274,-0.194315,0.631318,-0.345437,-0.438888,0.296734
26,45,-0.567232,-0.698132,-0.174533,-0.174533,-0.573545,-0.685795,-0.145274,-0.194315,0.631318,-0.345437,-0.438888,0.296734
26,45,-0.567232,-0.698132,-0.174533,-0.174533,-0.573545,-0.685795,-0.145274,-0.194315,0.631318,-0.345437,-0.438888,0.296734
26,45,-0.567232,-0.698132,-0.174533,-0.174533,-0.573545,-0.685795,-0.145274,-0.194315,0.631318,-0.345437,-0.438888,0.296734
26,45,-0.567232,-0.698132,-0.174533,-0.174533,-0.573545,-0.685795,-0.145274,-0.194315,0.631318,-0.345437,-0.438888,0.296734
26,45,-0.567232,-0.698132,-0.174533,-0.174533,-0.573545,-0.685744,-0.145274,-0.194315,0.631318,-0.34686,-0.438888,0.296734
26,45,-0.567232,-0.698132,-0.174533,-0.174533,-0.573545,-0.685744,-0.145274,-0.194315,0.631318,-0.34686,-0.438888,0.296734
26,45,-0.567232,-0.698132,-0.174533,-0.174533,-0.573545,-0.685744,-0.145274,-0.194315,0.631318,-0.34686,-0.438888,0.296734
26,45,-0.567232,-0.698132,-0.174533,-0.174533,-0.573545,-0.685744,-0.145274,-0.194315,0.631318,-0.34686,-0.438888,0.296734
26,45,-0.567232,-0.698132,-0.174533,-0.174533,-0.573545,-0.685744,-0.145274,-0.194315,0.631318,-0.34686,-0.438888,0.296734
26,45,-0.567232,-0.698132,-0.174533,-0.174533,-0.573545,-0.685744,-0.145274,-0.194315,0.631318,-0.34686,-0.438888,0.296734
26,45,-0.567232,-0.698132,-0.174533,-0.174533,-0.573545,-0.685744,-0.145274,-0.194315,0.631318,-0.34686,-0.438888,0.296734
26,45,-0.567232,-0.698132,-0.174533,-0.174533,-0.573545,-0.685744,-0.145274,-0.194315,0.631318,-0.34686,-0.438888,0.296734
26,45,-0.567232,-0.698132,-0.174533,-0.174533,-0.573545,-0.685744,-0.145274,-0.194315,0.631318,-0.34686,-0.438888,0.296734
26,45,-0.567232,-0.698132,-0.174533,-0.174533,-0.573545,-0.685744,-0.145274,-0.194315,0.631318,-0.34686,-0.438888,0.296734
26,45,-0.567232,-0.698132,-0.174533,-0.174533,-0.573545,-0.685744,-0.145274,-0.194315,0.631318,-0.34686,-0.438888,0.296734
26,45,-0.567232,-0.698132,-0.174533,-0.174533,-0.573545,-0.685744,-0.145274,-0.194315,0.631318,-0.34686,-0.438888,0.296734
26,45,-0.567232,-0.698132,-0.174533,-0.174533,-0.573545,-0.685744,-0.145274,-0.194315,0.631318,-0.34686,-0.438888,0.296734
26,45,-0.567232,-0.698132,-0.174533,-0.174533,-0.573545,-0.685744,-0.145274,-0.194315,0.631318,-0.34686,-0.438888,0.296734
26,45,-0.567232,-0.698132,-0.174533,-0.174533,-0.573545,-0.685744,-0.145274,-0.194315,0.631318,-0.34686,-0.438888,0.296734
26,45,-0.567232,-0.698132,-0.174533,-0.174533,-0.573545,-0.685744,-0.145213,-0.194335,0.631318,-0.34686,-0.439802,0.297028
26,45,-0.567232,-0.698132,-0.174533,-0.174533,-0.573545,-0.685744,-0.145213,-0.194335,0.631318,-0.34686,-0.439802,0.297028
26,45,-0.567232,-0.698132,-0.174533,-0.174533,-0.573545,-0.685744,-0.145213,-0.194335,0.631318,-0.34686,-0.439802,0.297028
26,45,-0.567232,-0.698132,-0.174533,-0.174533,-0.573474,-0.685744,-0.145213,-0.194335,0.62416,-0.34686,-0.439802,0.297028
26,45,-0.567232,-0.698132,-0.174533,-0.174533,-0.573474,-0.685744,-0.145213,-0.194335,0.62416,-0.34686,-0.439802,0.297028
26,45,-0.567232,-0.698132,-0.174533,-0.174533,-0.573474,-0.685744,-0.145213,-0.194335,0.62416,-0.34686,-0.439802,0.297028
26,45,-0.567232,-0.698132,-0.174533,-0.174533,-0.573474,-0.685744,-0.145213,-0.194335,0.62416,-0.34686,-0.439802,0.297028
26,45,-0.567232,-0.698132,-0.174533,-0.174533,-0.573474,-0.685744,-0.145213,-0.194335,0.62416,-0.34686,-0.439802,0.297028
26,45,-0.567232,-0.698132,-0.174533,-0.174533,-0.573474,-0.685744,-0.145213,-0.194335,0.62416,-0.34686,-0.439802,0.297028
26,45,-0.567232,-0.698132,-0.174533,-0.174533,-0.573474,-0.685744,-0.145213,-0.194335,0.62416,-0.34686,-0.439802,0.297028
26,45,-0.567232,-0.698132,-0.174533,-0.174533,-0.573474,-0.685744,-0.145213,-0.194335,0.62416,-0.34686,-0.439802,0.297028
26,45,-0.567232,-0.698132,-0.174533,-0.174533,-0.573474,-0.685744,-0.145213,-0.194335,0.62416,-0.34686,-0.439802,0.297028
26,45,-0.567232,-0.698132,-0.174533,-0.174533,-0.573474,-0.685744,-0.145213,-0.194335,0.62416,-0.34686,-0.439802,0.297028
26,45,-0.567232,-0.698132,-0.174533,-0.174533,-0.573474,-0.685744,-0.145213,-0.194335,0.62416,-0.34686,-0.439802,0.297028
26,45,-0.567232,-0.698132,-0.174533,-0.174533,-0.573474,-0.685744,-0.145213,-0.194335,0.62416,-0.34686,-0.439802,0.297028
26,45,-0.567232,-0.698132,-0.174533,-0.174533,-0.573474,-0.685744,-0.145213,-0.194335,0.62416,-0.34686,-0.439802,0.297028
26,45,-0.567232,-0.698132,-0.174533,-0.174533,-0.573474,-0.685744,-0.145213,-0.194335,0.62416,-0.34686,-0.439802,0.297028
26,45,-0.567232,-0.698132,-0.174533,-0.174533,-0.573474,-0.685744,-0.145213,-0.194335,0.62416,-0.34686,-0.439802,0.297028
26,45,-0.567232,-0.698132,-0.174533,-0.174533,-0.573474,-0.685744,-0.145213,-0.194335,0.62416,-0.34686,-0.439802,0.297028
26,45,-0.567232,-0.698132,-0.174533,-0.174533,-0.573474,-0.685744,-0.145213,-0.194335,0.62416,-0.34686,-0.439802,0.297028
26,45,-0.567232,-0.698132,-0.174533,-0.174533,-0.573474,-0.685744,-0.145213,-0.194335,0.62416,-0.34686,-0.439802,0.297028
26,45,-0.567232,-0.698132,-0.174533,-0.174533,-0.573474,-0.685744,-0.145213,-0.194335,0.62416,-0.34686,-0.439802,0.297028
26,45,-0.567232,-0.698132,-0.174533,-0.174533,-0.573474,-0.685744,-0.145213,-0.194335,0.62416,-0.34686,-0.439802,0.297028
26,45,-0.567232,-0.698132,-0.174533,-0.174533,-0.573474,-0.685744,-0.145213,-0.194335,0.62416,-0.34686,-0.439802,0.297028
26,45,-0.567232,-0.698132,-0.174533,-0.174533,-0.573474,-0.685744,-0.145213,-0.194335,0.62416,-0.34686,-0.439802,0.297028
26,45,-0.567232,-0.698132,-0.174533,-0.174533,-0.573474,-0.685744,-0.145213,-0.194335,0.62416,-0.34686,-0.439802,0.297028
26,45,-0.567232,-0.698132,-0.174533,-0.174533,-0.573474,-0.685744,-0.145213,-0.194335,0.62416,-0.34686,-0.439802,0.297028
26,45,-0.567232,-0.698132,-0.174533,-0.174533,-0.573474,-0.685744,-0.145213,-0.194335,0.62416,-0.34686,-0.439802,0.297028
26,45,-0.567232,-0.698132,-0.174533,-0.174533,-0.573474,-0.685744,-0.145213,-0.194335,0.62416,-0.34686,-0.439802,0.297028
26,45,-0.567232,-0.698132,-0.174533,-0.174533,-0.573474,-0.685744,-0.145213,-0.194335,0.62416,-0.34686,-0.439802,0.297028
26,45,-0.567232,-0.698132,-0.174533,-0.174533,-0.573474,-0.685744,-0.145213,-0.194335,0.62416,-0.34686,-0.439802,0.297028
26,45,-0.567232,-0.698132,-0.174533,-0.174533,-0.573474,-0.685744,-0.145213,-0.194335,0.62416,-0.34686,-0.439802,0.297028
26,45,-0.567232,-0.698132,-0.174533,-0.174533,-0.573474,-0.685744,-0.145213,-0.194335,0.62416,-0.34686,-0.439802,0.297028
26,45,-0.567232,-0.698132,-0.174533,-0.174533,-0.573474,-0.685744,-0.145213,-0.194335,0.62416,-0.34686,-0.439802,0.297028
26,45,-0.567232,-0.698132,-0.174533,-0.174533,-0.573474,-0.685744,-0.145213,-0.194335,0.62416,-0.34686,-0.439802,0.297028
26,45,-0.567232,-0.698132,-0.174533,-0.174533,-0.573474,-0.685744,-0.145213,-0.194335,0.62416,-0.34686,-0.439802,0.297028
26,45,-0.567232,-0.698132,-0.174533,-0.174533,-0.573474,-0.685744,-0.145213,-0.194335,0.62416,-0.34686,-0.439802,0.297028
26,45,-0.567232,-0.698132,-0.174533,-0.174533,-0.573474,-0.685744,-0.145213,-0.194335,0.62416,-0.34686,-0.439802,0.297028
26,45,-0.567232,-0.698132,-0.174533,-0.174533,-0.573474,-0.685744,-0.145213,-0.194335,0.62416,-0.34686,-0.439802,0.297028
26,45,-0.567232,-0.698132,-0.174533,-0.174533,-0.573474,-0.685693,-0.145213,-0.194335,0.62416,-0.348284,-0.439802,0.297028
26,45,-0.567232,-0.698132,-0.174533,-0.174533,-0.573474,-0.685693,-0.145213,-0.194335,0.62416,-0.348284,-0.439802,0.297028
26,45,-0.567232,-0.698132,-0.174533,-0.174533,-0.573474,-0.685693,-0.145213,-0.194335,0.62416,-0.348284,-0.439802,0.297028
26,45,-0.567232,-0.698132,-0.174533,-0.174533,-0.573474,-0.685693,-0.145213,-0.194335,0.62416,-0.348284,-0.439802,0.297028
26,45,-0.567232,-0.698132,-0.174533,-0.174533,-0.573474,-0.685693,-0.145213,-0.194335,0.62416,-0.348284,-0.439802,0.297028
26,45,-0.567232,-0.698132,-0.174533,-0.174533,-0.573474,-0.685693,-0.145213,-0.194335,0.62416,-0.348284,-0.439802,0.297028
26,45,-0.567232,-0.698132,-0.174533,-0.174533,-0.573474,-0.685693,-0.145213,-0.194335,0.62416,-0.348284,-0.439802,0.297028
26,45,-0.567232,-0.698132,-0.174533,-0.174533,-0.573474,-0.685693,-0.145213,-0.194335,0.62416,-0.348284,-0.439802,0.297028
26,45,-0.567232,-0.698132,-0.174533,-0.174533,-0.573474,-0.685693,-0.145213,-0.194335,0.62416,-0.348284,-0.439802,0.297028
26,45,-0.567232,-0.698132,-0.174533,-0.174533,-0.573474,-0.685693,-0.145213,-0.194335,0.62416,-0.348284,-0.439802,0.297028
26,45,-0.567232,-0.698132,-0.174533,-0.174533,-0.573474,-0.685693,-0.145213,-0.194335,0.62416,-0.348284,-0.439802,0.297028
26,45,-0.567232,-0.698132,-0.174533,-0.174533,-0.573474,-0.685693,-0.145213,-0.194335,0.62416,-0.348284,-0.439802,0.297028
26,45,-0.567232,-0.698132,-0.174533,-0.174533,-0.573474,-0.685693,-0.145213,-0.194335,0.62416,-0.348284,-0.439802,0.297028
26,45,-0.567232,-0.698132,-0.174533,-0.174533,-0.573474,-0.685693,-0.145213,-0.194335,0.62416,-0.348284,-0.439802,0.297028
26,45,-0.567232,-0.698132,-0.174533,-0.174533,-0.573474,-0.685693,-0.145213,-0.194335,0.62416,-0.348284,-0.439802,0.297028
26,45,-0.567232,-0.698132,-0.174533,-0.174533,-0.573474,-0.685693,-0.145213,-0.194335,0.62416,-0.348284,-0.439802,0.297028
26,45,-0.567232,-0.698132,-0.174533,-0.174533,-0.573474,-0.685693,-0.145213,-0.194335,0.62416,-0.348284,-0.439802,0.297028
26,45,-0.567232,-0.698132,-0.174533,-0.174533,-0.573474,-0.685693,-0.145213,-0.194335,0.62416,-0.348284,-0.439802,0.297028
26,45,-0.567232,-0.698132,-0.174533,-0.174533,-0.573474,-0.685693,-0.145213,-0.194335,0.62416,-0.348284,-0.439802,0.297028
26,45,-0.567232,-0.698132,-0.174533,-0.174533,-0.573474,-0.685693,-0.145213,-0.194335,0.62416,-0.348284,-0.439802,0.297028
26,45,-0.567232,-0.698132,-0.174533,-0.174533,-0.573474,-0.685693,-0.145213,-0.194335,0.62416,-0.348284,-0.439802,0.297028
26,45,-0.567232,-0.698132,-0.174533,-0.174533,-0.573474,-0.685693,-0.145213,-0.194335,0.62416,-0.348284,-0.439802,0.297028
26,45,-0.567232,-0.698132,-0.174533,-0.174533,-0.573474,-0.685693,-0.145213,-0.194335,0.62416,-0.348284,-0.439802,0.297028
26,45,-0.567232,-0.698132,-0.174533,-0.174533,-0.573474,-0.685693,-0.145213,-0.194335,0.62416,-0.348284,-0.439802,0.297028
26,45,-0.567232,-0.698132,-0.174533,-0.174533,-0.573474,-0.685693,-0.145213,-0.194335,0.62416,-0.348284,-0.439802,0.297028
26,45,-0.567232,-0.698132,-0.174533,-0.174533,-0.573474,-0.685693,-0.145213,-0.194335,0.62416,-0.348284,-0.439802,0.297028
26,45,-0.567232,-0.698132,-0.174533,-0.174533,-0.573474,-0.685693,-0.145213,-0.194335,0.62416,-0.348284,-0.439802,0.297028
26,45,-0.567232,-0.698132,-0.174533,-0.174533,-0.573474,-0.685693,-0.145152,-0.194354,0.62416,-0.348284,-0.440716,0.297323
26,45,-0.567232,-0.698132,-0.174533,-0.174533,-0.573474,-0.685693,-0.145152,-0.194354,0.62416,-0.348284,-0.440716,0.297323
26,45,-0.567232,-0.698132,-0.174533,-0.174533,-0.573474,-0.685693,-0.145152,-0.194354,0.62416,-0.348284,-0.440716,0.297323
26,45,-0.567232,-0.698132,-0.174533,-0.174533,-0.573474,-0.685693,-0.145152,-0.194354,0.62416,-0.348284,-0.440716,0.297323
26,45,-0.567232,-0.698132,-0.174533,-0.174533,-0.573474,-0.685693,-0.145152,-0.194354,0.62416,-0.348284,-0.440716,0.297323
26,45,-0.567232,-0.698132,-0.174533,-0.174533,-0.573474,-0.685693,-0.145152,-0.194354,0.62416,-0.348284,-0.440716,0.297323
26,45,-0.567232,-0.698132,-0.174533,-0.174533,-0.573474,-0.685693,-0.145152,-0.194354,0.62416,-0.348284,-0.440716,0.297323
26,45,-0.567232,-0.698132,-0.174533,-0.174533,-0.573474,-0.685693,-0.145152,-0.194354,0.62416,-0.348284,-0.440716,0.297323
26,45,-0.567232,-0.698132,-0.174533,-0.174533,-0.573474,-0.685693,-0.145152,-0.194354,0.62416,-0.348284,-0.440716,0.297323
26,45,-0.567232,-0.698132,-0.174533,-0.174533,-0.573474,-0.685693,-0.145152,-0.194354,0.62416,-0.348284,-0.440716,0.297323
26,45,-0.567232,-0.698132,-0.174533,-0.174533,-0.573474,-0.685642,-0.145152,-0.194354,0.62416,-0.349707,-0.440716,0.297323
26,45,-0.567232,-0.698132,-0.174533,-0.174533,-0.573474,-0.685642,-0.145152,-0.194354,0.62416,-0.349707,-0.440716,0.297323
26,45,-0.567232,-0.698132,-0.174533,-0.174533,-0.573474,-0.685642,-0.145152,-0.194354,0.62416,-0.349707,-0.440716,0.297323
26,45,-0.567232,-0.698132,-0.174533,-0.174533,-0.573474,-0.685642,-0.145152,-0.194354,0.62416,-0.349707,-0.440716,0.297323
26,45,-0.567232,-0.698132,-0.174533,-0.174533,-0.573474,-0.685642,-0.145152,-0.194354,0.62416,-0.349707,-0.440716,0.297323
26,45,-0.567232,-0.698132,-0.174533,-0.174533,-0.573474,-0.685642,-0.145091,-0.194374,0.62416,-0.349707,-0.441629,0.297617
26,45,-0.567232,-0.698132,-0.174533,-0.174533,-0.573474,-0.685642,-0.145091,-0.194374,0.62416,-0.349707,-0.441629,0.297617
26,45,-0.567232,-0.698132,-0.174533,-0.174533,-0.573402,-0.685642,-0.145091,-0.194374,0.617001,-0.349707,-0.441629,0.297617
26,45,-0.567232,-0.698132,-0.174533,-0.174533,-0.573402,-0.685642,-0.145089,-0.194315,0.617001,-0.349707,-0.441661,0.296728
26,45,-0.567232,-0.698132,-0.174533,-0.174533,-0.573402,-0.685642,-0.145089,-0.194315,0.617001,-0.349707,-0.441661,0.296728
26,45,-0.567232,-0.698132,-0.174533,-0.174533,-0.573402,-0.685642,-0.145089,-0.194315,0.617001,-0.349707,-0.441661,0.296728
26,45,-0.567232,-0.698132,-0.174533,-0.174533,-0.573402,-0.685642,-0.145089,-0.194315,0.617001,-0.349707,-0.441661,0.296728
26,45,-0.567232,-0.698132,-0.174533,-0.174533,-0.573402,-0.685642,-0.145089,-0.194315,0.617001,-0.349707,-0.441661,0.296728
26,45,-0.567232,-0.698132,-0.174533,-0.174533,-0.573402,-0.685642,-0.145089,-0.194315,0.617001,-0.349707,-0.441661,0.296728
26,45,-0.567232,-0.698132,-0.174533,-0.174533,-0.573402,-0.685642,-0.145028,-0.194334,0.617001,-0.349707,-0.442574,0.297022
26,45,-0.567232,-0.698132,-0.174533,-0.174533,-0.573402,-0.685642,-0.145028,-0.194334,0.617001,-0.349707,-0.442574,0.297022
26,45,-0.567232,-0.698132,-0.174533,-0.174533,-0.573402,-0.685642,-0.145028,-0.194334,0.617001,-0.349707,-0.442574,0.297022
26,45,-0.567232,-0.698132,-0.174533,-0.174533,-0.573402,-0.685642,-0.145028,-0.194334,0.617001,-0.349707,-0.442574,0.297022
26,45,-0.567232,-0.698132,-0.174533,-0.174533,-0.573402,-0.685642,-0.145028,-0.194334,0.617001,-0.349707,-0.442574,0.297022
26,45,-0.567232,-0.698132,-0.174533,-0.174533,-0.573402,-0.685642,-0.145028,-0.194334,0.617001,-0.349707,-0.442574,0.297022
26,45,-0.567232,-0.698132,-0.174533,-0.174533,-0.573402,-0.685642,-0.145028,-0.194334,0.617001,-0.349707,-0.442574,0.297022
26,45,-0.567232,-0.698132,-0.174533,-0.174533,-0.573402,-0.685642,-0.145028,-0.194334,0.617001,-0.349707,-0.442574,0.297022
26,45,-0.567232,-0.698132,-0.174533,-0.174533,-0.573402,-0.685642,-0.145028,-0.194334,0.617001,-0.349707,-0.442574,0.297022
26,45,-0.567232,-0.698132,-0.174533,-0.174533,-0.573402,-0.685642,-0.145028,-0.194334,0.617001,-0.349707,-0.442574,0.297022
26,45,-0.567232,-0.698132,-0.174533,-0.174533,-0.57333,-0.685642,-0.144967,-0.194354,0.609843,-0.349707,-0.443488,0.297317
26,45,-0.567232,-0.698132,-0.174533,-0.174533,-0.57333,-0.685591,-0.144967,-0.194354,0.609843,-0.351131,-0.443488,0.297317
26,45,-0.567232,-0.698132,-0.174533,-0.174533,-0.57333,-0.685591,-0.144967,-0.194354,0.609843,-0.351131,-0.443488,0.297317
26,45,-0.567232,-0.698132,-0.174533,-0.174533,-0.57333,-0.685591,-0.144967,-0.194354,0.609843,-0.351131,-0.443488,0.297317
26,45,-0.567232,-0.698132,-0.174533,-0.174533,-0.57333,-0.685591,-0.144967,-0.194354,0.609843,-0.351131,-0.443488,0.297317
26,45,-0.567232,-0.698132,-0.174533,-0.174533,-0.57333,-0.685591,-0.144904,-0.194314,0.609843,-0.351131,-0.444495,0.296742
26,45,-0.567232,-0.698132,-0.174533,-0.174533,-0.57333,-0.685591,-0.144904,-0.194314,0.609843,-0.351131,-0.444495,0.296742
26,45,-0.567232,-0.698132,-0.174533,-0.174533,-0.57333,-0.685591,-0.144904,-0.194314,0.609843,-0.351131,-0.444495,0.296742
26,45,-0.567232,-0.698132,-0.174533,-0.174533,-0.57333,-0.685591,-0.144904,-0.194314,0.609843,-0.351131,-0.444495,0.296742
26,45,-0.567232,-0.698132,-0.174533,-0.174533,-0.57333,-0.685591,-0.144904,-0.194314,0.609843,-0.351131,-0.444495,0.296742
26,45,-0.567232,-0.698132,-0.174533,-0.174533,-0.57333,-0.685591,-0.144904,-0.194314,0.609843,-0.351131,-0.444495,0.296742
26,45,-0.567232,-0.698132,-0.174533,-0.174533,-0.573259,-0.685591,-0.144904,-0.194314,0.602684,-0.351131,-0.444495,0.296742
26,45,-0.567232,-0.698132,-0.174533,-0.174533,-0.573259,-0.685591,-0.144843,-0.194334,0.602684,-0.351131,-0.445428,0.297042
26,45,-0.567232,-0.698132,-0.174533,-0.174533,-0.573259,-0.685591,-0.144843,-0.194334,0.602684,-0.351131,-0.445428,0.297042
26,45,-0.567232,-0.698132,-0.174533,-0.174533,-0.573259,-0.685591,-0.144843,-0.194334,0.602684,-0.351131,-0.445428,0.297042
26,45,-0.567232,-0.698132,-0.174533,-0.174533,-0.573259,-0.685591,-0.144843,-0.194334,0.602684,-0.351131,-0.445428,0.297042
26,45,-0.567232,-0.698132,-0.174533,-0.174533,-0.573259,-0.685591,-0.144843,-0.194334,0.602684,-0.351131,-0.445428,0.297042
26,45,-0.567232,-0.698132,-0.174533,-0.174533,-0.573187,-0.685591,-0.144843,-0.194334,0.595525,-0.351131,-0.445428,0.297042
26,45,-0.567232,-0.698132,-0.174533,-0.174533,-0.573187,-0.685591,-0.144782,-0.194354,0.595525,-0.351131,-0.446345,0.297338
26,45,-0.567232,-0.698132,-0.174533,-0.174533,-0.573187,-0.68554,-0.144782,-0.194354,0.595525,-0.352554,-0.446345,0.297338
26,45,-0.567232,-0.698132,-0.174533,-0.174533,-0.573187,-0.68554,-0.144782,-0.194354,0.595525,-0.352554,-0.446345,0.297338
26,45,-0.567232,-0.698132,-0.174533,-0.174533,-0.573187,-0.68554,-0.144782,-0.194354,0.595525,-0.352554,-0.446345,0.297338
26,45,-0.567232,-0.698132,-0.174533,-0.174533,-0.573187,-0.68554,-0.144721,-0.194373,0.595525,-0.352554,-0.447282,0.29764
26,45,-0.567232,-0.698132,-0.174533,-0.174533,-0.573187,-0.68554,-0.144719,-0.194314,0.595525,-0.352554,-0.447313,0.296751
26,45,-0.567232,-0.698132,-0.174533,-0.174533,-0.573187,-0.68554,-0.144719,-0.194314,0.595525,-0.352554,-0.447313,0.296751
26,45,-0.567232,-0.698132,-0.174533,-0.174533,-0.573116,-0.68554,-0.144719,-0.194314,0.579863,-0.352554,-0.447313,0.296751
26,45,-0.567232,-0.698132,-0.174533,-0.174533,-0.573116,-0.68554,-0.144658,-0.194334,0.579863,-0.352554,-0.448238,0.297049
26,45,-0.567232,-0.698132,-0.174533,-0.174533,-0.573116,-0.68554,-0.144597,-0.194353,0.579863,-0.352554,-0.449189,0.297355
26,45,-0.567232,-0.698132,-0.174533,-0.174533,-0.573116,-0.68554,-0.144597,-0.194353,0.579863,-0.352554,-0.449189,0.297355
26,45,-0.567232,-0.698132,-0.174533,-0.174533,-0.573116,-0.68554,-0.144597,-0.194353,0.579863,-0.352554,-0.449189,0.297355
26,45,-0.567232,-0.698132,-0.174533,-0.174533,-0.573116,-0.68554,-0.144597,-0.194353,0.579863,-0.352554,-0.449189,0.297355
26,45,-0.567232,-0.698132,-0.174533,-0.174533,-0.573116,-0.68554,-0.144597,-0.194353,0.579863,-0.352554,-0.449189,0.297355
26,45,-0.567232,-0.698132,-0.174533,-0.174533,-0.573044,-0.68554,-0.144536,-0.194373,0.570159,-0.352554,-0.450127,0.297658
26,45,-0.567232,-0.698132,-0.174533,-0.174533,-0.573044,-0.68549,-0.144536,-0.194373,0.570159,-0.353978,-0.450127,0.297658
26,45,-0.567232,-0.698132,-0.174533,-0.174533,-0.573044,-0.68549,-0.144534,-0.194314,0.570159,-0.353978,-0.450158,0.296769
26,45,-0.567232,-0.698132,-0.174533,-0.174533,-0.573044,-0.68549,-0.144534,-0.194314,0.570159,-0.353978,-0.450158,0.296769
26,45,-0.567232,-0.698132,-0.174533,-0.174533,-0.573044,-0.68549,-0.144473,-0.194333,0.570159,-0.353978,-0.451066,0.297061
26,45,-0.567232,-0.698132,-0.174533,-0.174533,-0.573044,-0.68549,-0.144473,-0.194333,0.570159,-0.353978,-0.451066,0.297061
26,45,-0.567232,-0.698132,-0.174533,-0.174533,-0.573044,-0.68549,-0.144473,-0.194333,0.570159,-0.353978,-0.451066,0.297061
26,45,-0.567232,-0.698132,-0.174533,-0.174533,-0.572973,-0.68549,-0.144473,-0.194333,0.561422,-0.353978,-0.451066,0.297061
26,45,-0.567232,-0.698132,-0.174533,-0.174533,-0.572973,-0.68549,-0.144413,-0.194353,0.561422,-0.353978,-0.451982,0.297357
26,45,-0.567232,-0.698132,-0.174533,-0.174533,-0.572973,-0.68549,-0.144413,-0.194353,0.561422,-0.353978,-0.451982,0.297357
26,45,-0.567232,-0.698132,-0.174533,-0.174533,-0.572973,-0.68549,-0.144352,-0.194373,0.561422,-0.353978,-0.452884,0.297648
26,45,-0.567232,-0.698132,-0.174533,-0.174533,-0.572973,-0.68549,-0.144352,-0.194373,0.561422,-0.353978,-0.452884,0.297648
26,45,-0.567232,-0.698132,-0.174533,-0.174533,-0.572973,-0.68549,-0.144352,-0.194373,0.561422,-0.353978,-0.452884,0.297648
26,45,-0.567232,-0.698132,-0.174533,-0.174533,-0.572973,-0.685439,-0.144352,-0.194373,0.561422,-0.355989,-0.452884,0.297648
26,45,-0.567232,-0.698132,-0.174533,-0.174533,-0.572901,-0.685439,-0.144352,-0.194373,0.554632,-0.355989,-0.452884,0.297648
26,45,-0.567232,-0.698132,-0.174533,-0.174533,-0.572901,-0.685439,-0.144291,-0.194392,0.554632,-0.355989,-0.453789,0.297939
26,45,-0.567232,-0.698132,-0.174533,-0.174533,-0.572901,-0.685439,-0.144291,-0.194392,0.554632,-0.355989,-0.453789,0.297939
26,45,-0.567232,-0.698132,-0.174533,-0.174533,-0.572901,-0.685439,-0.144291,-0.194392,0.554632,-0.355989,-0.453789,0.297939
26,45,-0.567232,-0.698132,-0.174533,-0.174533,-0.572901,-0.685439,-0.144289,-0.194333,0.554632,-0.355989,-0.453821,0.297015
26,45,-0.567232,-0.698132,-0.174533,-0.174533,-0.572901,-0.685439,-0.144289,-0.194333,0.554632,-0.355989,-0.453821,0.297015
26,45,-0.567232,-0.698132,-0.174533,-0.174533,-0.572829,-0.685439,-0.144228,-0.194353,0.546713,-0.355989,-0.454737,0.29731
26,45,-0.567232,-0.698132,-0.174533,-0.174533,-0.572829,-0.685439,-0.144228,-0.194353,0.546713,-0.355989,-0.454737,0.29731
26,45,-0.567232,-0.698132,-0.174533,-0.174533,-0.572829,-0.685439,-0.144228,-0.194353,0.546713,-0.355989,-0.454737,0.29731
26,45,-0.567232,-0.698132,-0.174533,-0.174533,-0.572829,-0.685439,-0.144167,-0.194372,0.546713,-0.355989,-0.455652,0.297605
26,45,-0.567232,-0.698132,-0.174533,-0.174533,-0.572758,-0.685439,-0.144167,-0.194372,0.537776,-0.355989,-0.455652,0.297605
26,45,-0.567232,-0.698132,-0.174533,-0.174533,-0.572758,-0.685439,-0.144106,-0.194392,0.537776,-0.355989,-0.456572,0.297902
26,45,-0.567232,-0.698132,-0.174533,-0.174533,-0.572758,-0.685388,-0.144106,-0.194392,0.537776,-0.357539,-0.456572,0.297902
26,45,-0.567232,-0.698132,-0.174533,-0.174533,-0.572758,-0.685388,-0.144106,-0.194392,0.537776,-0.357539,-0.456572,0.297902
26,45,-0.567232,-0.698132,-0.174533,-0.174533,-0.572758,-0.685388,-0.144106,-0.194392,0.537776,-0.357539,-0.456572,0.297902
26,45,-0.567232,-0.698132,-0.174533,-0.174533,-0.572758,-0.685388,-0.144106,-0.194392,0.537776,-0.357539,-0.456572,0.297902
26,45,-0.567232,-0.698132,-0.174533,-0.174533,-0.572758,-0.685388,-0.144045,-0.194412,0.537776,-0.357539,-0.457483,0.298196
26,45,-0.567232,-0.698132,-0.174533,-0.174533,-0.572686,-0.685388,-0.144045,-0.194412,0.530216,-0.357539,-0.457483,0.298196
26,45,-0.567232,-0.698132,-0.174533,-0.174533,-0.572686,-0.685388,-0.144045,-0.194412,0.530216,-0.357539,-0.457483,0.298196
26,45,-0.567232,-0.698132,-0.174533,-0.174533,-0.572686,-0.685388,-0.144045,-0.194412,0.530216,-0.357539,-0.457483,0.298196
26,45,-0.567232,-0.698132,-0.174533,-0.174533,-0.572686,-0.685337,-0.143984,-0.194431,0.530216,-0.359103,-0.458402,0.298492
26,45,-0.567232,-0.698132,-0.174533,-0.174533,-0.572615,-0.685337,-0.143984,-0.194431,0.521206,-0.359103,-0.458402,0.298492
26,45,-0.567232,-0.698132,-0.174533,-0.174533,-0.572615,-0.685337,-0.143984,-0.194431,0.521206,-0.359103,-0.458402,0.298492
26,45,-0.567232,-0.698132,-0.174533,-0.174533,-0.572615,-0.685337,-0.143923,-0.194451,0.521206,-0.359103,-0.459318,0.298787
26,45,-0.567232,-0.698132,-0.174533,-0.174533,-0.572615,-0.685337,-0.143923,-0.194451,0.521206,-0.359103,-0.459318,0.298787
26,45,-0.567232,-0.698132,-0.174533,-0.174533,-0.572615,-0.685337,-0.143923,-0.194451,0.521206,-0.359103,-0.459318,0.298787
26,45,-0.567232,-0.698132,-0.174533,-0.174533,-0.572543,-0.685337,-0.143862,-0.19447,0.512743,-0.359103,-0.460226,0.29908
26,45,-0.567232,-0.698132,-0.174533,-0.174533,-0.572543,-0.685337,-0.14386,-0.194411,0.512743,-0.359103,-0.460257,0.298192
26,45,-0.567232,-0.698132,-0.174533,-0.174533,-0.572543,-0.685337,-0.14386,-0.194411,0.512743,-0.359103,-0.460257,0.298192
26,45,-0.567232,-0.698132,-0.174533,-0.174533,-0.572543,-0.685286,-0.143799,-0.194431,0.512743,-0.360641,-0.461202,0.298497
26,45,-0.567232,-0.698132,-0.174533,-0.174533,-0.572543,-0.685286,-0.143799,-0.194431,0.512743,-0.360641,-0.461202,0.298497
26,45,-0.567232,-0.698132,-0.174533,-0.174533,-0.572471,-0.685286,-0.143799,-0.194431,0.506889,-0.360641,-0.461202,0.298497
26,45,-0.567232,-0.698132,-0.174533,-0.174533,-0.572471,-0.685286,-0.143738,-0.194451,0.506889,-0.360641,-0.462122,0.298794
26,45,-0.567232,-0.698132,-0.174533,-0.174533,-0.572471,-0.685286,-0.143738,-0.194451,0.506889,-0.360641,-0.462122,0.298794
26,45,-0.567232,-0.698132,-0.174533,-0.174533,-0.572471,-0.685286,-0.143738,-0.194451,0.506889,-0.360641,-0.462122,0.298794
26,45,-0.567232,-0.698132,-0.174533,-0.174533,-0.572471,-0.685286,-0.143738,-0.194451,0.506889,-0.360641,-0.462122,0.298794
26,45,-0.567232,-0.698132,-0.174533,-0.174533,-0.5724,-0.685286,-0.143677,-0.19447,0.498325,-0.360641,-0.463027,0.299085
26,45,-0.567232,-0.698132,-0.174533,-0.174533,-0.5724,-0.685286,-0.143677,-0.19447,0.498325,-0.360641,-0.463027,0.299085
26,45,-0.567232,-0.698132,-0.174533,-0.174533,-0.5724,-0.685286,-0.143677,-0.19447,0.498325,-0.360641,-0.463027,0.299085
26,45,-0.567232,-0.698132,-0.174533,-0.174533,-0.5724,-0.685235,-0.143677,-0.19447,0.498325,-0.362122,-0.463027,0.299085
26,45,-0.567232,-0.698132,-0.174533,-0.174533,-0.572328,-0.685235,-0.143616,-0.19449,0.490537,-0.362122,-0.463915,0.299372
26,45,-0.567232,-0.698132,-0.174533,-0.174533,-0.572328,-0.685235,-0.143616,-0.19449,0.490537,-0.362122,-0.463915,0.299372
26,45,-0.567232,-0.698132,-0.174533,-0.174533,-0.572328,-0.685235,-0.143616,-0.19449,0.490537,-0.362122,-0.463915,0.299372
26,45,-0.567232,-0.698132,-0.174533,-0.174533,-0.572328,-0.685235,-0.143616,-0.19449,0.490537,-0.362122,-0.463915,0.299372
26,45,-0.567232,-0.698132,-0.174533,-0.174533,-0.572328,-0.685235,-0.143555,-0.194509,0.490537,-0.362122,-0.464828,0.299666
26,45,-0.567232,-0.698132,-0.174533,-0.174533,-0.572328,-0.685235,-0.143555,-0.194509,0.490537,-0.362122,-0.464828,0.299666
26,45,-0.567232,-0.698132,-0.174533,-0.174533,-0.572257,-0.685235,-0.143555,-0.194509,0.484877,-0.362122,-0.464828,0.299666
26,45,-0.567232,-0.698132,-0.174533,-0.174533,-0.572257,-0.685185,-0.143495,-0.194529,0.484877,-0.363668,-0.46574,0.299961
26,45,-0.567232,-0.698132,-0.174533,-0.174533,-0.572257,-0.685185,-0.143495,-0.194529,0.484877,-0.363668,-0.46574,0.299961
26,45,-0.567232,-0.698132,-0.174533,-0.174533,-0.572257,-0.685185,-0.143495,-0.194529,0.484877,-0.363668,-0.46574,0.299961
26,45,-0.567232,-0.698132,-0.174533,-0.174533,-0.572257,-0.685185,-0.143495,-0.194529,0.484877,-0.363668,-0.46574,0.299961
26,45,-0.567232,-0.698132,-0.174533,-0.174533,-0.572185,-0.685185,-0.143434,-0.194549,0.47695,-0.363668,-0.466651,0.300254
26,45,-0.567232,-0.698132,-0.174533,-0.174533,-0.572185,-0.685185,-0.143434,-0.194549,0.47695,-0.363668,-0.466651,0.300254
26,45,-0.567232,-0.698132,-0.174533,-0.174533,-0.572185,-0.685185,-0.143432,-0.19449,0.47695,-0.363668,-0.466681,0.29937
26,45,-0.567232,-0.698132,-0.174533,-0.174533,-0.572185,-0.685185,-0.143432,-0.19449,0.47695,-0.363668,-0.466681,0.29937
26,45,-0.567232,-0.698132,-0.174533,-0.174533,-0.572113,-0.685185,-0.143371,-0.194509,0.468843,-0.363668,-0.467605,0.299668
26,45,-0.567232,-0.698132,-0.174533,-0.174533,-0.572113,-0.685185,-0.143371,-0.194509,0.468843,-0.363668,-0.467605,0.299668
26,45,-0.567232,-0.698132,-0.174533,-0.174533,-0.572113,-0.685134,-0.143371,-0.194509,0.468843,-0.365064,-0.467605,0.299668
26,45,-0.567232,-0.698132,-0.174533,-0.174533,-0.572042,-0.685134,-0.143371,-0.194509,0.460875,-0.365064,-0.467605,0.299668
26,45,-0.567232,-0.698132,-0.174533,-0.174533,-0.572042,-0.685134,-0.14331,-0.194529,0.460875,-0.365064,-0.468514,0.299961
26,45,-0.567232,-0.698132,-0.174533,-0.174533,-0.572042,-0.685134,-0.14331,-0.194529,0.460875,-0.365064,-0.468514,0.299961
26,45,-0.567232,-0.698132,-0.174533,-0.174533,-0.572042,-0.685083,-0.14331,-0.194529,0.460875,-0.366606,-0.468514,0.299961
26,45,-0.567232,-0.698132,-0.174533,-0.174533,-0.572042,-0.685083,-0.14331,-0.194529,0.460875,-0.366606,-0.468514,0.299961
26,45,-0.567232,-0.698132,-0.174533,-0.174533,-0.57197,-0.685083,-0.143249,-0.194549,0.452804,-0.366606,-0.469423,0.300255
26,45,-0.567232,-0.698132,-0.174533,-0.174533,-0.57197,-0.685083,-0.143249,-0.194549,0.452804,-0.366606,-0.469423,0.300255
26,45,-0.567232,-0.698132,-0.174533,-0.174533,-0.57197,-0.685083,-0.143249,-0.194549,0.452804,-0.366606,-0.469423,0.300255
26,45,-0.567232,-0.698132,-0.174533,-0.174533,-0.57197,-0.685083,-0.143249,-0.194549,0.452804,-0.366606,-0.469423,0.300255
26,45,-0.567232,-0.698132,-0.174533,-0.174533,-0.57197,-0.685083,-0.143249,-0.194549,0.452804,-0.366606,-0.469423,0.300255
26,45,-0.567232,-0.698132,-0.174533,-0.174533,-0.57197,-0.685083,-0.143249,-0.194549,0.452804,-0.366606,-0.469423,0.300255
26,45,-0.567232,-0.698132,-0.174533,-0.174533,-0.571899,-0.685083,-0.143188,-0.194568,0.447227,-0.366606,-0.470312,0.300542
26,45,-0.567232,-0.698132,-0.174533,-0.174533,-0.571899,-0.685032,-0.143188,-0.194568,0.447227,-0.368093,-0.470312,0.300542
26,45,-0.567232,-0.698132,-0.174533,-0.174533,-0.571899,-0.685032,-0.143188,-0.194568,0.447227,-0.368093,-0.470312,0.300542
26,45,-0.567232,-0.698132,-0.174533,-0.174533,-0.571899,-0.685032,-0.143188,-0.194568,0.447227,-0.368093,-0.470312,0.300542
26,45,-0.567232,-0.698132,-0.174533,-0.174533,-0.571899,-0.685032,-0.143188,-0.194568,0.447227,-0.368093,-0.470312,0.300542
26,45,-0.567232,-0.698132,-0.174533,-0.174533,-0.571899,-0.685032,-0.143188,-0.194568,0.447227,-0.368093,-0.470312,0.300542
26,45,-0.567232,-0.698132,-0.174533,-0.174533,-0.571899,-0.685032,-0.143188,-0.194568,0.447227,-0.368093,-0.470312,0.300542
26,45,-0.567232,-0.698132,-0.174533,-0.174533,-0.571899,-0.685032,-0.143188,-0.194568,0.447227,-0.368093,-0.470312,0.300542
26,45,-0.567232,-0.698132,-0.174533,-0.174533,-0.571827,-0.685032,-0.143188,-0.194568,0.443724,-0.368093,-0.470312,0.300542
26,45,-0.567232,-0.698132,-0.174533,-0.174533,-0.571827,-0.685032,-0.143188,-0.194568,0.443724,-0.368093,-0.470312,0.300542
26,45,-0.567232,-0.698132,-0.174533,-0.174533,-0.571827,-0.685032,-0.143188,-0.194568,0.443724,-0.368093,-0.470312,0.300542
26,45,-0.567232,-0.698132,-0.174533,-0.174533,-0.571827,-0.685032,-0.143188,-0.194568,0.443724,-0.368093,-0.470312,0.300542
26,45,-0.567232,-0.698132,-0.174533,-0.174533,-0.571827,-0.685032,-0.143188,-0.194568,0.443724,-0.368093,-0.470312,0.300542
26,45,-0.567232,-0.698132,-0.174533,-0.174533,-0.571827,-0.685032,-0.143188,-0.194568,0.443724,-0.368093,-0.470312,0.300542
26,45,-0.567232,-0.698132,-0.174533,-0.174533,-0.571756,-0.685032,-0.143188,-0.194568,0.438166,-0.368093,-0.470312,0.300542
26,45,-0.567232,-0.698132,-0.174533,-0.174533,-0.571756,-0.684981,-0.143188,-0.194568,0.438166,-0.369312,-0.470312,0.300542
26,45,-0.567232,-0.698132,-0.174533,-0.174533,-0.571756,-0.684981,-0.143127,-0.194588,0.438166,-0.369312,-0.471173,0.30082
26,45,-0.567232,-0.698132,-0.174533,-0.174533,-0.571756,-0.684981,-0.143127,-0.194588,0.438166,-0.369312,-0.471173,0.30082
26,45,-0.567232,-0.698132,-0.174533,-0.174533,-0.571756,-0.684981,-0.143127,-0.194588,0.438166,-0.369312,-0.471173,0.30082
26,45,-0.567232,-0.698132,-0.174533,-0.174533,-0.571756,-0.684981,-0.143127,-0.194588,0.438166,-0.369312,-0.471173,0.30082
26,45,-0.567232,-0.698132,-0.174533,-0.174533,-0.571684,-0.684981,-0.143127,-0.194588,0.431372,-0.369312,-0.471173,0.30082
26,45,-0.567232,-0.698132,-0.174533,-0.174533,-0.571684,-0.684981,-0.143127,-0.194588,0.431372,-0.369312,-0.471173,0.30082
26,45,-0.567232,-0.698132,-0.174533,-0.174533,-0.571684,-0.684981,-0.143127,-0.194588,0.431372,-0.369312,-0.471173,0.30082
26,45,-0.567232,-0.698132,-0.174533,-0.174533,-0.571684,-0.684981,-0.143127,-0.194588,0.431372,-0.369312,-0.471173,0.30082
26,45,-0.567232,-0.698132,-0.174533,-0.174533,-0.571684,-0.684981,-0.143127,-0.194588,0.431372,-0.369312,-0.471173,0.30082
26,45,-0.567232,-0.698132,-0.174533,-0.174533,-0.571684,-0.684981,-0.143127,-0.194588,0.431372,-0.369312,-0.471173,0.30082
26,45,-0.567232,-0.698132,-0.174533,-0.174533,-0.571684,-0.684981,-0.143127,-0.194588,0.431372,-0.369312,-0.471173,0.30082
26,45,-0.567232,-0.698132,-0.174533,-0.174533,-0.571684,-0.684981,-0.143127,-0.194588,0.431372,-0.369312,-0.471173,0.30082
26,45,-0.567232,-0.698132,-0.174533,-0.174533,-0.571612,-0.684981,-0.143127,-0.194588,0.425503,-0.369312,-0.471173,0.30082
26,45,-0.567232,-0.698132,-0.174533,-0.174533,-0.571612,-0.68493,-0.143127,-0.194588,0.425503,-0.370623,-0.471173,0.30082
26,45,-0.567232,-0.698132,-0.174533,-0.174533,-0.571612,-0.68493,-0.143127,-0.194588,0.425503,-0.370623,-0.471173,0.30082
26,45,-0.567232,-0.698132,-0.174533,-0.174533,-0.571612,-0.68493,-0.143127,-0.194588,0.425503,-0.370623,-0.471173,0.30082
26,45,-0.567232,-0.698132,-0.174533,-0.174533,-0.571612,-0.68493,-0.143127,-0.194588,0.425503,-0.370623,-0.471173,0.30082
26,45,-0.567232,-0.698132,-0.174533,-0.174533,-0.571612,-0.68493,-0.143127,-0.194588,0.425503,-0.370623,-0.471173,0.30082
26,45,-0.567232,-0.698132,-0.174533,-0.174533,-0.571612,-0.68493,-0.143127,-0.194588,0.425503,-0.370623,-0.471173,0.30082
26,45,-0.567232,-0.698132,-0.174533,-0.174533,-0.571612,-0.68493,-0.143127,-0.194588,0.425503,-0.370623,-0.471173,0.30082
26,45,-0.567232,-0.698132,-0.174533,-0.174533,-0.571612,-0.68493,-0.143127,-0.194588,0.425503,-0.370623,-0.471173,0.30082
26,45,-0.567232,-0.698132,-0.174533,-0.174533,-0.571612,-0.68493,-0.143127,-0.194588,0.425503,-0.370623,-0.471173,0.30082
26,45,-0.567232,-0.698132,-0.174533,-0.174533,-0.571612,-0.68493,-0.143127,-0.194588,0.425503,-0.370623,-0.471173,0.30082
26,45,-0.567232,-0.698132,-0.174533,-0.174533,-0.571612,-0.68493,-0.143127,-0.194588,0.425503,-0.370623,-0.471173,0.30082
26,45,-0.567232,-0.698132,-0.174533,-0.174533,-0.571612,-0.68493,-0.143127,-0.194588,0.425503,-0.370623,-0.471173,0.30082
26,45,-0.567232,-0.698132,-0.174533,-0.174533,-0.571612,-0.68493,-0.143127,-0.194588,0.425503,-0.370623,-0.471173,0.30082
26,45,-0.567232,-0.698132,-0.174533,-0.174533,-0.571612,-0.68493,-0.143127,-0.194588,0.425503,-0.370623,-0.471173,0.30082
26,45,-0.567232,-0.698132,-0.174533,-0.174533,-0.571612,-0.68493,-0.143127,-0.194588,0.425503,-0.370623,-0.471173,0.30082
26,45,-0.567232,-0.698132,-0.174533,-0.174533,-0.571612,-0.68493,-0.143127,-0.194588,0.425503,-0.370623,-0.471173,0.30082
26,45,-0.567232,-0.698132,-0.174533,-0.174533,-0.571612,-0.68493,-0.143127,-0.194588,0.425503,-0.370623,-0.471173,0.30082
26,45,-0.567232,-0.698132,-0.174533,-0.174533,-0.571612,-0.68493,-0.143127,-0.194588,0.425503,-0.370623,-0.471171,0.300819
26,45,-0.567232,-0.698132,-0.174533,-0.174533,-0.571612,-0.68493,-0.143127,-0.194588,0.425503,-0.370623,-0.471168,0.300818
26,45,-0.567232,-0.698132,-0.174533,-0.174533,-0.571612,-0.68493,-0.143127,-0.194588,0.425503,-0.370623,-0.471166,0.300817
26,45,-0.567232,-0.698132,-0.174533,-0.174533,-0.571612,-0.68493,-0.143127,-0.194588,0.425503,-0.370623,-0.471164,0.300816
26,45,-0.567232,-0.698132,-0.174533,-0.174533,-0.571612,-0.68493,-0.143127,-0.194588,0.425503,-0.370623,-0.471162,0.300816
26,45,-0.567232,-0.698132,-0.174533,-0.174533,-0.571612,-0.68493,-0.143127,-0.194588,0.425503,-0.370623,-0.47116,0.300815
26,45,-0.567232,-0.698132,-0.174533,-0.174533,-0.571612,-0.68493,-0.143127,-0.194588,0.425503,-0.370623,-0.471158,0.300815
26,45,-0.567232,-0.698132,-0.174533,-0.174533,-0.571612,-0.68493,-0.143066,-0.194608,0.425503,-0.370623,-0.472045,0.301101
26,45,-0.567232,-0.698132,-0.174533,-0.174533,-0.571612,-0.68493,-0.143066,-0.194608,0.425503,-0.370623,-0.472045,0.301101
26,45,-0.567232,-0.698132,-0.174533,-0.174533,-0.571612,-0.68493,-0.143066,-0.194608,0.425503,-0.370623,-0.472045,0.301101
26,45,-0.567232,-0.698132,-0.174533,-0.174533,-0.571612,-0.68493,-0.143066,-0.194608,0.425503,-0.370623,-0.472045,0.301101
26,45,-0.567232,-0.698132,-0.174533,-0.174533,-0.571612,-0.68493,-0.143066,-0.194608,0.425776,-0.370623,-0.472045,0.301101
26,45,-0.567232,-0.698132,-0.174533,-0.174533,-0.571612,-0.68493,-0.143066,-0.194608,0.426182,-0.370623,-0.472045,0.301101
26,45,-0.567232,-0.698132,-0.174533,-0.174533,-0.571612,-0.68493,-0.143066,-0.194608,0.426562,-0.370623,-0.472045,0.301101
26,45,-0.567232,-0.698132,-0.174533,-0.174533,-0.571612,-0.68493,-0.143066,-0.194608,0.426918,-0.370623,-0.472045,0.301101
26,45,-0.567232,-0.698132,-0.174533,-0.174533,-0.571612,-0.68493,-0.143066,-0.194608,0.427253,-0.370623,-0.472045,0.301101
26,45,-0.567232,-0.698132,-0.174533,-0.174533,-0.571612,-0.68493,-0.143066,-0.194608,0.427568,-0.370623,-0.472045,0.301101
26,45,-0.567232,-0.698132,-0.174533,-0.174533,-0.571612,-0.68493,-0.143066,-0.194608,0.427866,-0.370623,-0.472045,0.301102
26,45,-0.567232,-0.698132,-0.174533,-0.174533,-0.571612,-0.68493,-0.143066,-0.194608,0.428147,-0.370623,-0.472045,0.301102
26,45,-0.567232,-0.698132,-0.174533,-0.174533,-0.571612,-0.68493,-0.143066,-0.194608,0.428413,-0.370623,-0.472045,0.301103
26,45,-0.567232,-0.698132,-0.174533,-0.174533,-0.571612,-0.68488,-0.143066,-0.194608,0.428665,-0.37161,-0.472045,0.301103
26,45,-0.567232,-0.698132,-0.174533,-0.174533,-0.571612,-0.68488,-0.143066,-0.194608,0.428904,-0.37161,-0.472045,0.301103
26,45,-0.567232,-0.698132,-0.174533,-0.174533,-0.571612,-0.68488,-0.143066,-0.194608,0.429131,-0.37161,-0.472044,0.301132
26,45,-0.567232,-0.698132,-0.174533,-0.174533,-0.571612,-0.68488,-0.143066,-0.194608,0.429347,-0.37161,-0.472044,0.301132
26,45,-0.567232,-0.698132,-0.174533,-0.174533,-0.571612,-0.68488,-0.143066,-0.194608,0.429553,-0.37161,-0.472044,0.301132
26,45,-0.567232,-0.698132,-0.174533,-0.174533,-0.571612,-0.68488,-0.143066,-0.194608,0.42975,-0.37161,-0.472044,0.301132
26,45,-0.567232,-0.698132,-0.174533,-0.174533,-0.571612,-0.68488,-0.143005,-0.194627,0.430371,-0.37161,-0.472951,0.301424
26,45,-0.567232,-0.698132,-0.174533,-0.174533,-0.571612,-0.68488,-0.143005,-0.194627,0.430531,-0.37161,-0.472951,0.301424
26,45,-0.567232,-0.698132,-0.174533,-0.174533,-0.571612,-0.68488,-0.143005,-0.194627,0.430686,-0.37161,-0.472951,0.301424
26,45,-0.567232,-0.698132,-0.174533,-0.174533,-0.571612,-0.68488,-0.143005,-0.194627,0.430834,-0.37161,-0.472951,0.301424
26,45,-0.567232,-0.698132,-0.174533,-0.174533,-0.571612,-0.68488,-0.143005,-0.194627,0.430976,-0.37161,-0.472951,0.301424
26,45,-0.567232,-0.698132,-0.174533,-0.174533,-0.571612,-0.68488,-0.143005,-0.194627,0.431112,-0.37161,-0.472951,0.301424
26,45,-0.567232,-0.698132,-0.174533,-0.174533,-0.571612,-0.68488,-0.143005,-0.194627,0.431244,-0.37161,-0.472951,0.301424
26,45,-0.567232,-0.698132,-0.174533,-0.174533,-0.571612,-0.68488,-0.143005,-0.194627,0.43137,-0.37161,-0.472951,0.301424
26,45,-0.567232,-0.698132,-0.174533,-0.174533,-0.571612,-0.68488,-0.143005,-0.194627,0.431492,-0.37161,-0.472951,0.301424
26,45,-0.567232,-0.698132,-0.174533,-0.174533,-0.571612,-0.68488,-0.143005,-0.194627,0.43161,-0.37161,-0.472951,0.301424
26,45,-0.567232,-0.698132,-0.174533,-0.174533,-0.571612,-0.68488,-0.143005,-0.194627,0.431723,-0.37161,-0.472951,0.301424
26,45,-0.567232,-0.698132,-0.174533,-0.174533,-0.571612,-0.68488,-0.143005,-0.194627,0.431832,-0.37161,-0.472951,0.301424
26,45,-0.567232,-0.698132,-0.174533,-0.174533,-0.571612,-0.68488,-0.143005,-0.194627,0.431938,-0.37161,-0.472951,0.301424
26,45,-0.567232,-0.698132,-0.174533,-0.174533,-0.571612,-0.68488,-0.143005,-0.194627,0.43204,-0.37161,-0.472951,0.301424
26,45,-0.567232,-0.698132,-0.174533,-0.174533,-0.571612,-0.68488,-0.143005,-0.194627,0.432139,-0.37161,-0.472951,0.301424
26,45,-0.567232,-0.698132,-0.174533,-0.174533,-0.571612,-0.68488,-0.143005,-0.194627,0.432235,-0.37161,-0.472951,0.301424
26,45,-0.567232,-0.698132,-0.174533,-0.174533,-0.571612,-0.68488,-0.143005,-0.194627,0.432327,-0.37161,-0.472951,0.301424
26,45,-0.567232,-0.698132,-0.174533,-0.174533,-0.571612,-0.68488,-0.143005,-0.194627,0.432417,-0.37161,-0.472951,0.301424
26,45,-0.567232,-0.698132,-0.174533,-0.174533,-0.571612,-0.68488,-0.143005,-0.194627,0.432504,-0.37161,-0.472951,0.301424
26,45,-0.567232,-0.698132,-0.174533,-0.174533,-0.571612,-0.68488,-0.142944,-0.194647,0.432588,-0.37161,-0.473834,0.301709
26,45,-0.567232,-0.698132,-0.174533,-0.174533,-0.571612,-0.68488,-0.142944,-0.194647,0.43267,-0.37161,-0.473834,0.301709
26,45,-0.567232,-0.698132,-0.174533,-0.174533,-0.571612,-0.68488,-0.142944,-0.194647,0.432749,-0.37161,-0.473834,0.301709
26,45,-0.567232,-0.698132,-0.174533,-0.174533,-0.571612,-0.68488,-0.142944,-0.194647,0.432826,-0.37161,-0.473834,0.301709
26,45,-0.567232,-0.698132,-0.174533,-0.174533,-0.571612,-0.68488,-0.142944,-0.194647,0.432901,-0.37161,-0.473834,0.301709
26,45,-0.567232,-0.698132,-0.174533,-0.174533,-0.571612,-0.68488,-0.142944,-0.194647,0.432973,-0.37161,-0.473834,0.301709
26,45,-0.567232,-0.698132,-0.174533,-0.174533,-0.571612,-0.68488,-0.142944,-0.194647,0.433044,-0.37161,-0.473834,0.301709
26,45,-0.567232,-0.698132,-0.174533,-0.174533,-0.571612,-0.68488,-0.142944,-0.194647,0.433113,-0.37161,-0.473834,0.301709
26,45,-0.567232,-0.698132,-0.174533,-0.174533,-0.571612,-0.68488,-0.142944,-0.194647,0.433179,-0.37161,-0.473834,0.301709
26,45,-0.567232,-0.698132,-0.174533,-0.174533,-0.571612,-0.68488,-0.142944,-0.194647,0.433244,-0.37161,-0.473834,0.301709
26,45,-0.567232,-0.698132,-0.174533,-0.174533,-0.571612,-0.68488,-0.142944,-0.194647,0.433308,-0.37161,-0.473834,0.301709
26,45,-0.567232,-0.698132,-0.174533,-0.174533,-0.571612,-0.68488,-0.142944,-0.194647,0.433377,-0.37161,-0.473834,0.301709
26,45,-0.567232,-0.698132,-0.174533,-0.174533,-0.571612,-0.68488,-0.142944,-0.194647,0.433437,-0.37161,-0.473834,0.301709
26,45,-0.567232,-0.698132,-0.174533,-0.174533,-0.571612,-0.68488,-0.142944,-0.194647,0.433495,-0.37161,-0.473834,0.301709
26,45,-0.567232,-0.698132,-0.174533,-0.174533,-0.571612,-0.68488,-0.142944,-0.194647,0.433552,-0.37161,-0.473834,0.301709
26,45,-0.567232,-0.698132,-0.174533,-0.174533,-0.571612,-0.68488,-0.142944,-0.194647,0.433608,-0.37161,-0.473834,0.301709
26,45,-0.567232,-0.698132,-0.174533,-0.174533,-0.571612,-0.68488,-0.142883,-0.194667,0.433662,-0.37161,-0.474748,0.302004
26,45,-0.567232,-0.698132,-0.174533,-0.174533,-0.571612,-0.68488,-0.142883,-0.194667,0.433715,-0.37161,-0.474748,0.302004
26,45,-0.567232,-0.698132,-0.174533,-0.174533,-0.571612,-0.68488,-0.142883,-0.194667,0.433766,-0.37161,-0.474748,0.302004
26,45,-0.567232,-0.698132,-0.174533,-0.174533,-0.571612,-0.68488,-0.142883,-0.194667,0.438037,-0.37161,-0.474748,0.302004
26,45,-0.567232,-0.698132,-0.174533,-0.174533,-0.571612,-0.68488,-0.142883,-0.194667,0.438037,-0.37161,-0.474748,0.302004
26,45,-0.567232,-0.698132,-0.174533,-0.174533,-0.571612,-0.68488,-0.142883,-0.194667,0.438037,-0.37161,-0.474748,0.302004
26,45,-0.567232,-0.698132,-0.174533,-0.174533,-0.571612,-0.68488,-0.142883,-0.194667,0.438037,-0.37161,-0.474748,0.302004
26,45,-0.567232,-0.698132,-0.174533,-0.174533,-0.571612,-0.68488,-0.142883,-0.194667,0.438037,-0.37161,-0.474748,0.302004
26,45,-0.567232,-0.698132,-0.174533,-0.174533,-0.571612,-0.68488,-0.142883,-0.194667,0.438037,-0.37161,-0.474748,0.302004
26,45,-0.567232,-0.698132,-0.174533,-0.174533,-0.571612,-0.68488,-0.142881,-0.194607,0.438037,-0.37161,-0.474778,0.301116
26,45,-0.567232,-0.698132,-0.174533,-0.174533,-0.571612,-0.68488,-0.142881,-0.194607,0.438037,-0.37161,-0.474778,0.301116
26,45,-0.567232,-0.698132,-0.174533,-0.174533,-0.571612,-0.68488,-0.142881,-0.194607,0.438037,-0.37161,-0.474778,0.301116
26,45,-0.567232,-0.698132,-0.174533,-0.174533,-0.571612,-0.68488,-0.142881,-0.194607,0.438037,-0.37161,-0.474778,0.301116
26,45,-0.567232,-0.698132,-0.174533,-0.174533,-0.571612,-0.68488,-0.142881,-0.194607,0.438037,-0.37161,-0.474778,0.301116
26,45,-0.567232,-0.698132,-0.174533,-0.174533,-0.571612,-0.68488,-0.142881,-0.194607,0.438037,-0.37161,-0.474778,0.301116
26,45,-0.567232,-0.698132,-0.174533,-0.174533,-0.571612,-0.68488,-0.142881,-0.194607,0.438037,-0.37161,-0.474778,0.301116
26,45,-0.567232,-0.698132,-0.174533,-0.174533,-0.571612,-0.68488,-0.142881,-0.194607,0.438037,-0.37161,-0.474778,0.301116
26,45,-0.567232,-0.698132,-0.174533,-0.174533,-0.571612,-0.68488,-0.142881,-0.194607,0.438037,-0.37161,-0.474778,0.301116
26,45,-0.567232,-0.698132,-0.174533,-0.174533,-0.571612,-0.684829,-0.142881,-0.194607,0.438037,-0.372484,-0.474778,0.301116
26,45,-0.567232,-0.698132,-0.174533,-0.174533,-0.571612,-0.684829,-0.142881,-0.194607,0.438037,-0.372484,-0.474778,0.301116
26,45,-0.567232,-0.698132,-0.174533,-0.174533,-0.571612,-0.684829,-0.142881,-0.194607,0.438037,-0.372484,-0.474778,0.301116
26,45,-0.567232,-0.698132,-0.174533,-0.174533,-0.571612,-0.684829,-0.142881,-0.194607,0.438037,-0.372484,-0.474778,0.301116
26,45,-0.567232,-0.698132,-0.174533,-0.174533,-0.571612,-0.684829,-0.14282,-0.194627,0.438037,-0.372484,-0.475723,0.301421
26,45,-0.567232,-0.698132,-0.174533,-0.174533,-0.571612,-0.684829,-0.14282,-0.194627,0.438037,-0.372484,-0.475723,0.301421
26,45,-0.567232,-0.698132,-0.174533,-0.174533,-0.571612,-0.684829,-0.14282,-0.194627,0.438037,-0.372484,-0.475723,0.301421
26,45,-0.567232,-0.698132,-0.174533,-0.174533,-0.571612,-0.684829,-0.14282,-0.194627,0.438037,-0.372484,-0.475723,0.301421
26,45,-0.567232,-0.698132,-0.174533,-0.174533,-0.571612,-0.684829,-0.14282,-0.194627,0.438037,-0.372484,-0.475723,0.301421
26,45,-0.567232,-0.698132,-0.174533,-0.174533,-0.571612,-0.684829,-0.14282,-0.194627,0.438037,-0.372484,-0.475723,0.301421
26,45,-0.567232,-0.698132,-0.174533,-0.174533,-0.571612,-0.684829,-0.14282,-0.194627,0.438037,-0.372484,-0.475723,0.301421
26,45,-0.567232,-0.698132,-0.174533,-0.174533,-0.571612,-0.684829,-0.14282,-0.194627,0.438037,-0.372484,-0.475723,0.301421
26,45,-0.567232,-0.698132,-0.174533,-0.174533,-0.571612,-0.684829,-0.14282,-0.194627,0.438037,-0.372484,-0.475723,0.301421
26,45,-0.567232,-0.698132,-0.174533,-0.174533,-0.571612,-0.684829,-0.14282,-0.194627,0.438037,-0.372484,-0.475723,0.301421
26,45,-0.567232,-0.698132,-0.174533,-0.174533,-0.571612,-0.684829,-0.14282,-0.194627,0.438037,-0.372484,-0.475723,0.301421
26,45,-0.567232,-0.698132,-0.174533,-0.174533,-0.571612,-0.684829,-0.142759,-0.194647,0.438037,-0.372484,-0.476641,0.301717
26,45,-0.567232,-0.698132,-0.174533,-0.174533,-0.571612,-0.684829,-0.142759,-0.194647,0.438037,-0.372484,-0.476641,0.301717
26,45,-0.567232,-0.698132,-0.174533,-0.174533,-0.571612,-0.684829,-0.142759,-0.194647,0.438037,-0.372484,-0.476641,0.301717
26,45,-0.567232,-0.698132,-0.174533,-0.174533,-0.571612,-0.684829,-0.142759,-0.194647,0.438037,-0.372484,-0.476641,0.301717
26,45,-0.567232,-0.698132,-0.174533,-0.174533,-0.571612,-0.684829,-0.142759,-0.194647,0.438037,-0.372484,-0.476641,0.301717
26,45,-0.567232,-0.698132,-0.174533,-0.174533,-0.571612,-0.684829,-0.142759,-0.194647,0.438037,-0.372484,-0.476641,0.301717
26,45,-0.567232,-0.698132,-0.174533,-0.174533,-0.571612,-0.684829,-0.142759,-0.194647,0.438037,-0.372484,-0.476641,0.301717
26,45,-0.567232,-0.698132,-0.174533,-0.174533,-0.571612,-0.684829,-0.142759,-0.194647,0.438037,-0.372484,-0.476641,0.301717
26,45,-0.567232,-0.698132,-0.174533,-0.174533,-0.571612,-0.684829,-0.142759,-0.194647,0.438037,-0.372484,-0.476641,0.301717
26,45,-0.567232,-0.698132,-0.174533,-0.174533,-0.571612,-0.684829,-0.142759,-0.194647,0.438037,-0.372484,-0.476641,0.301717
26,45,-0.567232,-0.698132,-0.174533,-0.174533,-0.571612,-0.684829,-0.142759,-0.194647,0.438037,-0.372484,-0.476641,0.301717
26,45,-0.567232,-0.698132,-0.174533,-0.174533,-0.571612,-0.684829,-0.142759,-0.194647,0.438037,-0.372484,-0.476641,0.301717
26,45,-0.567232,-0.698132,-0.174533,-0.174533,-0.571612,-0.684829,-0.142698,-0.194666,0.438037,-0.372484,-0.477561,0.302014
26,45,-0.567232,-0.698132,-0.174533,-0.174533,-0.571612,-0.684829,-0.142698,-0.194666,0.438037,-0.372484,-0.477561,0.302014
26,45,-0.567232,-0.698132,-0.174533,-0.174533,-0.571612,-0.684829,-0.142698,-0.194666,0.438037,-0.372484,-0.477561,0.302014
26,45,-0.567232,-0.698132,-0.174533,-0.174533,-0.571612,-0.684829,-0.142698,-0.194666,0.438037,-0.372484,-0.477561,0.302014
26,45,-0.567232,-0.698132,-0.174533,-0.174533,-0.571612,-0.684829,-0.142698,-0.194666,0.438037,-0.372484,-0.477561,0.302014
26,45,-0.567232,-0.698132,-0.174533,-0.174533,-0.571612,-0.684829,-0.142698,-0.194666,0.438037,-0.372484,-0.477561,0.302014
26,45,-0.567232,-0.698132,-0.174533,-0.174533,-0.571612,-0.684829,-0.142698,-0.194666,0.438037,-0.372484,-0.477561,0.302014
26,45,-0.567232,-0.698132,-0.174533,-0.174533,-0.571612,-0.684829,-0.142698,-0.194666,0.438037,-0.372484,-0.477561,0.302014
26,45,-0.567232,-0.698132,-0.174533,-0.174533,-0.571612,-0.684829,-0.142698,-0.194666,0.438037,-0.372484,-0.477561,0.302014
26,45,-0.567232,-0.698132,-0.174533,-0.174533,-0.571612,-0.684829,-0.142698,-0.194666,0.438037,-0.372484,-0.477561,0.302014
26,45,-0.567232,-0.698132,-0.174533,-0.174533,-0.571612,-0.684829,-0.142698,-0.194666,0.438037,-0.372484,-0.477561,0.302014
26,45,-0.567232,-0.698132,-0.174533,-0.174533,-0.571612,-0.684829,-0.142698,-0.194666,0.438037,-0.372484,-0.477561,0.302014
26,45,-0.567232,-0.698132,-0.174533,-0.174533,-0.571612,-0.684829,-0.142698,-0.194666,0.438037,-0.372484,-0.477561,0.302014
26,45,-0.567232,-0.698132,-0.174533,-0.174533,-0.571612,-0.684829,-0.142698,-0.194666,0.438037,-0.372484,-0.477561,0.302014
26,45,-0.567232,-0.698132,-0.174533,-0.174533,-0.571612,-0.684829,-0.142698,-0.194666,0.438037,-0.372484,-0.477561,0.302014
26,45,-0.567232,-0.698132,-0.174533,-0.174533,-0.571612,-0.684829,-0.142637,-0.194686,0.438037,-0.372484,-0.478476,0.30231
26,45,-0.567232,-0.698132,-0.174533,-0.174533,-0.571612,-0.684829,-0.142637,-0.194686,0.438037,-0.372484,-0.478476,0.30231
26,45,-0.567232,-0.698132,-0.174533,-0.174533,-0.571612,-0.684829,-0.142637,-0.194686,0.438037,-0.372484,-0.478476,0.30231
26,45,-0.567232,-0.698132,-0.174533,-0.174533,-0.571612,-0.684829,-0.142637,-0.194686,0.438037,-0.372484,-0.478476,0.30231
26,45,-0.567232,-0.698132,-0.174533,-0.174533,-0.571612,-0.684829,-0.142637,-0.194686,0.438037,-0.372484,-0.478476,0.30231
26,45,-0.567232,-0.698132,-0.174533,-0.174533,-0.571612,-0.684829,-0.142637,-0.194686,0.438037,-0.372484,-0.478476,0.30231
26,45,-0.567232,-0.698132,-0.174533,-0.174533,-0.571612,-0.684829,-0.142637,-0.194686,0.438037,-0.372484,-0.478476,0.30231
26,45,-0.567232,-0.698132,-0.174533,-0.174533,-0.571612,-0.684829,-0.142637,-0.194686,0.438037,-0.372484,-0.478476,0.30231
26,45,-0.567232,-0.698132,-0.174533,-0.174533,-0.571612,-0.684829,-0.142637,-0.194686,0.438037,-0.372484,-0.478476,0.30231
26,45,-0.567232,-0.698132,-0.174533,-0.174533,-0.571612,-0.684829,-0.142637,-0.194686,0.438037,-0.372484,-0.478476,0.30231
26,45,-0.567232,-0.698132,-0.174533,-0.174533,-0.571612,-0.684829,-0.142637,-0.194686,0.438037,-0.372484,-0.478476,0.30231
26,45,-0.567232,-0.698132,-0.174533,-0.174533,-0.571612,-0.684829,-0.142637,-0.194686,0.438037,-0.372484,-0.478476,0.30231
26,45,-0.567232,-0.698132,-0.174533,-0.174533,-0.571612,-0.684829,-0.142637,-0.194686,0.438037,-0.372484,-0.478476,0.30231
26,45,-0.567232,-0.698132,-0.174533,-0.174533,-0.571612,-0.684829,-0.142637,-0.194686,0.438037,-0.372484,-0.478476,0.30231
26,45,-0.567232,-0.698132,-0.174533,-0.174533,-0.571612,-0.684829,-0.142637,-0.194686,0.438037,-0.372484,-0.478476,0.30231
26,45,-0.567232,-0.698132,-0.174533,-0.174533,-0.571612,-0.684829,-0.142576,-0.194706,0.438037,-0.372484,-0.479396,0.302606
26,45,-0.567232,-0.698132,-0.174533,-0.174533,-0.571612,-0.684829,-0.142576,-0.194706,0.438037,-0.372484,-0.479396,0.302606
26,45,-0.567232,-0.698132,-0.174533,-0.174533,-0.571612,-0.684829,-0.142576,-0.194706,0.438037,-0.372484,-0.479396,0.302606
26,45,-0.567232,-0.698132,-0.174533,-0.174533,-0.571612,-0.684829,-0.142576,-0.194706,0.438037,-0.372484,-0.479396,0.302606
26,45,-0.567232,-0.698132,-0.174533,-0.174533,-0.571612,-0.684829,-0.142576,-0.194706,0.438037,-0.372484,-0.479396,0.302606
26,45,-0.567232,-0.698132,-0.174533,-0.174533,-0.571612,-0.684829,-0.142576,-0.194706,0.438037,-0.372484,-0.479396,0.302606
26,45,-0.567232,-0.698132,-0.174533,-0.174533,-0.571612,-0.684829,-0.142576,-0.194706,0.438037,-0.372484,-0.479396,0.302606
26,45,-0.567232,-0.698132,-0.174533,-0.174533,-0.571612,-0.684829,-0.142576,-0.194706,0.438037,-0.372484,-0.479396,0.302606
26,45,-0.567232,-0.698132,-0.174533,-0.174533,-0.571612,-0.684829,-0.142576,-0.194706,0.438037,-0.372484,-0.479396,0.302606
26,45,-0.567232,-0.698132,-0.174533,-0.174533,-0.571612,-0.684829,-0.142576,-0.194706,0.438037,-0.372484,-0.479396,0.302606
26,45,-0.567232,-0.698132,-0.174533,-0.174533,-0.571612,-0.684829,-0.142576,-0.194706,0.438037,-0.372484,-0.479396,0.302606
26,45,-0.567232,-0.698132,-0.174533,-0.174533,-0.571612,-0.684829,-0.142515,-0.194725,0.438037,-0.372484,-0.48031,0.302902
26,45,-0.567232,-0.698132,-0.174533,-0.174533,-0.571612,-0.684829,-0.142515,-0.194725,0.438037,-0.372484,-0.48031,0.302902
26,45,-0.567232,-0.698132,-0.174533,-0.174533,-0.571612,-0.684829,-0.142515,-0.194725,0.438037,-0.372484,-0.48031,0.302902
26,45,-0.567232,-0.698132,-0.174533,-0.174533,-0.571612,-0.684829,-0.142515,-0.194725,0.438037,-0.372484,-0.48031,0.302902
26,45,-0.567232,-0.698132,-0.174533,-0.174533,-0.571612,-0.684829,-0.142515,-0.194725,0.438037,-0.372484,-0.48031,0.302902
26,45,-0.567232,-0.698132,-0.174533,-0.174533,-0.571612,-0.684778,-0.142515,-0.194725,0.438037,-0.373908,-0.48031,0.302902
26,45,-0.567232,-0.698132,-0.174533,-0.174533,-0.571612,-0.684778,-0.142515,-0.194725,0.438037,-0.373908,-0.48031,0.302902
26,45,-0.567232,-0.698132,-0.174533,-0.174533,-0.571612,-0.684778,-0.142515,-0.194725,0.438037,-0.373908,-0.48031,0.302902
26,45,-0.567232,-0.698132,-0.174533,-0.174533,-0.571612,-0.684778,-0.142515,-0.194725,0.438037,-0.373908,-0.48031,0.302902
26,45,-0.567232,-0.698132,-0.174533,-0.174533,-0.571612,-0.684778,-0.142515,-0.194725,0.438037,-0.373908,-0.48031,0.302902
26,45,-0.567232,-0.698132,-0.174533,-0.174533,-0.571612,-0.684778,-0.142515,-0.194725,0.438037,-0.373908,-0.48031,0.302902
26,45,-0.567232,-0.698132,-0.174533,-0.174533,-0.571612,-0.684778,-0.142515,-0.194725,0.438037,-0.373908,-0.48031,0.302902
26,45,-0.567232,-0.698132,-0.174533,-0.174533,-0.571612,-0.684778,-0.142515,-0.194725,0.438037,-0.373908,-0.48031,0.302902
26,45,-0.567232,-0.698132,-0.174533,-0.174533,-0.571612,-0.684778,-0.142515,-0.194725,0.438037,-0.373908,-0.48031,0.302902
26,45,-0.567232,-0.698132,-0.174533,-0.174533,-0.571612,-0.684778,-0.142515,-0.194725,0.438037,-0.373908,-0.48031,0.302902
26,45,-0.567232,-0.698132,-0.174533,-0.174533,-0.571612,-0.684778,-0.142454,-0.194745,0.438037,-0.373908,-0.481222,0.303196
26,45,-0.567232,-0.698132,-0.174533,-0.174533,-0.571612,-0.684778,-0.142454,-0.194745,0.438037,-0.373908,-0.481222,0.303196
26,45,-0.567232,-0.698132,-0.174533,-0.174533,-0.571612,-0.684778,-0.142454,-0.194745,0.438037,-0.373908,-0.481222,0.303196
26,45,-0.567232,-0.698132,-0.174533,-0.174533,-0.571612,-0.684778,-0.142454,-0.194745,0.438037,-0.373908,-0.481222,0.303196
26,45,-0.567232,-0.698132,-0.174533,-0.174533,-0.571612,-0.684778,-0.142454,-0.194745,0.438037,-0.373908,-0.481222,0.303196
26,45,-0.567232,-0.698132,-0.174533,-0.174533,-0.571612,-0.684778,-0.142454,-0.194745,0.438037,-0.373908,-0.481222,0.303196
26,45,-0.567232,-0.698132,-0.174533,-0.174533,-0.571612,-0.684778,-0.142454,-0.194745,0.438037,-0.373908,-0.481222,0.303196
26,45,-0.567232,-0.698132,-0.174533,-0.174533,-0.571612,-0.684778,-0.142454,-0.194745,0.438037,-0.373908,-0.481222,0.303196
26,45,-0.567232,-0.698132,-0.174533,-0.174533,-0.571612,-0.684778,-0.142454,-0.194745,0.438037,-0.373908,-0.481222,0.303196
26,45,-0.567232,-0.698132,-0.174533,-0.174533,-0.571612,-0.684778,-0.142454,-0.194745,0.438037,-0.373908,-0.481222,0.303196
26,45,-0.567232,-0.698132,-0.174533,-0.174533,-0.571612,-0.684778,-0.142454,-0.194745,0.438037,-0.373908,-0.481222,0.303196
26,45,-0.567232,-0.698132,-0.174533,-0.174533,-0.571612,-0.684778,-0.142454,-0.194745,0.438037,-0.373908,-0.481222,0.303196
26,45,-0.567232,-0.698132,-0.174533,-0.174533,-0.571612,-0.684778,-0.142454,-0.194745,0.438037,-0.373908,-0.481222,0.303196
26,45,-0.567232,-0.698132,-0.174533,-0.174533,-0.571612,-0.684778,-0.142454,-0.194745,0.438037,-0.373908,-0.481222,0.303196
26,45,-0.567232,-0.698132,-0.174533,-0.174533,-0.571612,-0.684778,-0.142454,-0.194745,0.438037,-0.373908,-0.481222,0.303196
26,45,-0.567232,-0.698132,-0.174533,-0.174533,-0.571612,-0.684778,-0.142454,-0.194745,0.438037,-0.373908,-0.481222,0.303196
26,45,-0.567232,-0.698132,-0.174533,-0.174533,-0.571612,-0.684778,-0.142454,-0.194745,0.438037,-0.373908,-0.481222,0.303196
26,45,-0.567232,-0.698132,-0.174533,-0.174533,-0.571612,-0.684778,-0.142454,-0.194745,0.438037,-0.373908,-0.481222,0.303196
26,45,-0.567232,-0.698132,-0.174533,-0.174533,-0.571612,-0.684778,-0.142454,-0.194745,0.438037,-0.373908,-0.481222,0.303196
26,45,-0.567232,-0.698132,-0.174533,-0.174533,-0.571612,-0.684778,-0.142454,-0.194745,0.438037,-0.373908,-0.481222,0.303196
26,45,-0.567232,-0.698132,-0.174533,-0.174533,-0.571612,-0.684778,-0.142454,-0.194745,0.438037,-0.373908,-0.481222,0.303196
26,45,-0.567232,-0.698132,-0.174533,-0.174533,-0.571612,-0.684778,-0.142454,-0.194745,0.438037,-0.373908,-0.481222,0.303196
26,45,-0.567232,-0.698132,-0.174533,-0.174533,-0.571612,-0.684778,-0.142454,-0.194745,0.438037,-0.373908,-0.481222,0.303196
26,45,-0.567232,-0.698132,-0.174533,-0.174533,-0.571612,-0.684778,-0.142452,-0.194686,0.438037,-0.373908,-0.481251,0.302307
26,45,-0.567232,-0.698132,-0.174533,-0.174533,-0.571612,-0.684778,-0.142452,-0.194686,0.438037,-0.373908,-0.481251,0.302307
26,45,-0.567232,-0.698132,-0.174533,-0.174533,-0.571541,-0.684778,-0.142452,-0.194686,0.430878,-0.373908,-0.481251,0.302307
26,45,-0.567232,-0.698132,-0.174533,-0.174533,-0.571541,-0.684778,-0.142391,-0.194706,0.430878,-0.373908,-0.482159,0.3026
26,45,-0.567232,-0.698132,-0.174533,-0.174533,-0.571541,-0.684778,-0.142391,-0.194706,0.430878,-0.373908,-0.482159,0.3026
26,45,-0.567232,-0.698132,-0.174533,-0.174533,-0.571541,-0.684778,-0.142391,-0.194706,0.430878,-0.373908,-0.482159,0.3026
26,45,-0.567232,-0.698132,-0.174533,-0.174533,-0.571541,-0.684778,-0.142391,-0.194706,0.430878,-0.373908,-0.482159,0.3026
26,45,-0.567232,-0.698132,-0.174533,-0.174533,-0.571541,-0.684778,-0.142391,-0.194706,0.430878,-0.373908,-0.482159,0.3026
26,45,-0.567232,-0.698132,-0.174533,-0.174533,-0.571541,-0.684778,-0.142391,-0.194706,0.430878,-0.373908,-0.482159,0.3026
26,45,-0.567232,-0.698132,-0.174533,-0.174533,-0.571541,-0.684778,-0.142391,-0.194706,0.430878,-0.373908,-0.482159,0.3026
26,45,-0.567232,-0.698132,-0.174533,-0.174533,-0.571541,-0.684778,-0.142391,-0.194706,0.430878,-0.373908,-0.482159,0.3026
26,45,-0.567232,-0.698132,-0.174533,-0.174533,-0.571541,-0.684778,-0.142391,-0.194706,0.430878,-0.373908,-0.482159,0.3026
26,45,-0.567232,-0.698132,-0.174533,-0.174533,-0.571541,-0.684778,-0.142391,-0.194706,0.430878,-0.373908,-0.482159,0.3026
26,45,-0.567232,-0.698132,-0.174533,-0.174533,-0.571541,-0.684778,-0.142391,-0.194706,0.430878,-0.373908,-0.482159,0.3026
26,45,-0.567232,-0.698132,-0.174533,-0.174533,-0.571541,-0.684778,-0.142391,-0.194706,0.430878,-0.373908,-0.482159,0.3026
26,45,-0.567232,-0.698132,-0.174533,-0.174533,-0.571541,-0.684778,-0.142391,-0.194706,0.430878,-0.373908,-0.482159,0.3026
26,45,-0.567232,-0.698132,-0.174533,-0.174533,-0.571541,-0.684778,-0.142391,-0.194706,0.430878,-0.373908,-0.482159,0.3026
26,45,-0.567232,-0.698132,-0.174533,-0.174533,-0.571541,-0.684778,-0.142391,-0.194706,0.430878,-0.373908,-0.482159,0.3026
26,45,-0.567232,-0.698132,-0.174533,-0.174533,-0.571541,-0.684778,-0.142391,-0.194706,0.430878,-0.373908,-0.482159,0.3026
26,45,-0.567232,-0.698132,-0.174533,-0.174533,-0.571541,-0.684778,-0.142391,-0.194706,0.430878,-0.373908,-0.482159,0.3026
26,45,-0.567232,-0.698132,-0.174533,-0.174533,-0.571541,-0.684778,-0.142391,-0.194706,0.430878,-0.373908,-0.482159,0.3026
26,45,-0.567232,-0.698132,-0.174533,-0.174533,-0.571541,-0.684778,-0.142391,-0.194706,0.430878,-0.373908,-0.482159,0.3026
26,45,-0.567232,-0.698132,-0.174533,-0.174533,-0.571541,-0.684778,-0.142391,-0.194706,0.430878,-0.373908,-0.482159,0.3026
26,45,-0.567232,-0.698132,-0.174533,-0.174533,-0.571541,-0.684778,-0.142391,-0.194706,0.430878,-0.373908,-0.482159,0.3026
26,45,-0.567232,-0.698132,-0.174533,-0.174533,-0.571541,-0.684778,-0.142391,-0.194706,0.430878,-0.373908,-0.482159,0.3026
26,45,-0.567232,-0.698132,-0.174533,-0.174533,-0.571541,-0.684778,-0.142391,-0.194706,0.430878,-0.373908,-0.482159,0.3026
26,45,-0.567232,-0.698132,-0.174533,-0.174533,-0.571541,-0.684778,-0.142391,-0.194706,0.430878,-0.373908,-0.482159,0.3026
26,45,-0.567232,-0.698132,-0.174533,-0.174533,-0.571541,-0.684778,-0.142391,-0.194706,0.430878,-0.373908,-0.482159,0.3026
26,45,-0.567232,-0.698132,-0.174533,-0.174533,-0.571541,-0.684778,-0.142391,-0.194706,0.430878,-0.373908,-0.482159,0.3026
26,45,-0.567232,-0.698132,-0.174533,-0.174533,-0.571541,-0.684778,-0.142391,-0.194706,0.430878,-0.373908,-0.482159,0.3026
26,45,-0.567232,-0.698132,-0.174533,-0.174533,-0.571541,-0.684778,-0.142391,-0.194706,0.430878,-0.373908,-0.482159,0.3026
26,45,-0.567232,-0.698132,-0.174533,-0.174533,-0.571541,-0.684778,-0.142391,-0.194706,0.430878,-0.373908,-0.482159,0.3026
26,45,-0.567232,-0.698132,-0.174533,-0.174533,-0.571541,-0.684778,-0.142391,-0.194706,0.430878,-0.373908,-0.482159,0.3026
26,45,-0.567232,-0.698132,-0.174533,-0.174533,-0.571541,-0.684778,-0.142391,-0.194706,0.430878,-0.373908,-0.482159,0.3026
26,45,-0.567232,-0.698132,-0.174533,-0.174533,-0.571541,-0.684778,-0.142391,-0.194706,0.430878,-0.373908,-0.482159,0.3026
26,45,-0.567232,-0.698132,-0.174533,-0.174533,-0.571541,-0.684778,-0.142389,-0.194646,0.430878,-0.373908,-0.482189,0.301712
26,45,-0.567232,-0.698132,-0.174533,-0.174533,-0.571469,-0.684778,-0.142389,-0.194646,0.42372,-0.373908,-0.482189,0.301712
26,45,-0.567232,-0.698132,-0.174533,-0.174533,-0.571469,-0.684778,-0.142389,-0.194646,0.42372,-0.373908,-0.482189,0.301712
26,45,-0.567232,-0.698132,-0.174533,-0.174533,-0.571469,-0.684778,-0.142389,-0.194646,0.42372,-0.373908,-0.482189,0.301712
26,45,-0.567232,-0.698132,-0.174533,-0.174533,-0.571398,-0.684778,-0.142389,-0.194646,0.416561,-0.373908,-0.482189,0.301712
26,45,-0.567232,-0.698132,-0.174533,-0.174533,-0.571398,-0.684778,-0.142389,-0.194646,0.416561,-0.373908,-0.482189,0.301712
26,45,-0.567232,-0.698132,-0.174533,-0.174533,-0.571398,-0.684778,-0.142389,-0.194646,0.416561,-0.373908,-0.482189,0.301712
26,45,-0.567232,-0.698132,-0.174533,-0.174533,-0.571398,-0.684778,-0.142389,-0.194646,0.416561,-0.373908,-0.482189,0.301712
26,45,-0.567232,-0.698132,-0.174533,-0.174533,-0.571398,-0.684778,-0.142328,-0.194666,0.416561,-0.373908,-0.483067,0.301996
26,45,-0.567232,-0.698132,-0.174533,-0.174533,-0.571398,-0.684778,-0.142328,-0.194666,0.416561,-0.373908,-0.483067,0.301996
26,45,-0.567232,-0.698132,-0.174533,-0.174533,-0.571398,-0.684778,-0.142328,-0.194666,0.416561,-0.373908,-0.483067,0.301996
26,45,-0.567232,-0.698132,-0.174533,-0.174533,-0.571398,-0.684778,-0.142328,-0.194666,0.416561,-0.373908,-0.483067,0.301996
26,45,-0.567232,-0.698132,-0.174533,-0.174533,-0.571398,-0.684727,-0.142328,-0.194666,0.416561,-0.375331,-0.483067,0.301996
26,45,-0.567232,-0.698132,-0.174533,-0.174533,-0.571398,-0.684727,-0.142328,-0.194666,0.416561,-0.375331,-0.483067,0.301996
26,45,-0.567232,-0.698132,-0.174533,-0.174533,-0.571398,-0.684727,-0.142328,-0.194666,0.416561,-0.375331,-0.483067,0.301996
26,45,-0.567232,-0.698132,-0.174533,-0.174533,-0.571398,-0.684727,-0.142328,-0.194666,0.416561,-0.375331,-0.483067,0.301996
26,45,-0.567232,-0.698132,-0.174533,-0.174533,-0.571398,-0.684727,-0.142328,-0.194666,0.416561,-0.375331,-0.483067,0.301996
26,45,-0.567232,-0.698132,-0.174533,-0.174533,-0.571398,-0.684727,-0.142328,-0.194666,0.416561,-0.375331,-0.483067,0.301996
26,45,-0.567232,-0.698132,-0.174533,-0.174533,-0.571398,-0.684727,-0.142328,-0.194666,0.416561,-0.375331,-0.483067,0.301996
26,45,-0.567232,-0.698132,-0.174533,-0.174533,-0.571398,-0.684727,-0.142328,-0.194666,0.416561,-0.375331,-0.483067,0.301996
26,45,-0.567232,-0.698132,-0.174533,-0.174533,-0.571398,-0.684727,-0.142268,-0.194686,0.416561,-0.375331,-0.483981,0.302291
26,45,-0.567232,-0.698132,-0.174533,-0.174533,-0.571398,-0.684727,-0.142268,-0.194686,0.416561,-0.375331,-0.483981,0.302291
26,45,-0.567232,-0.698132,-0.174533,-0.174533,-0.571398,-0.684727,-0.142268,-0.194686,0.416561,-0.375331,-0.483981,0.302291
26,45,-0.567232,-0.698132,-0.174533,-0.174533,-0.571398,-0.684727,-0.142268,-0.194686,0.416561,-0.375331,-0.483981,0.302291
26,45,-0.567232,-0.698132,-0.174533,-0.174533,-0.571398,-0.684727,-0.142268,-0.194686,0.416561,-0.375331,-0.483981,0.302291
26,45,-0.567232,-0.698132,-0.174533,-0.174533,-0.571398,-0.684727,-0.142266,-0.194626,0.416561,-0.375331,-0.48401,0.301402
26,45,-0.567232,-0.698132,-0.174533,-0.174533,-0.571398,-0.684727,-0.142266,-0.194626,0.416561,-0.375331,-0.48401,0.301402
26,45,-0.567232,-0.698132,-0.174533,-0.174533,-0.571398,-0.684727,-0.142266,-0.194626,0.416561,-0.375331,-0.48401,0.301402
26,45,-0.567232,-0.698132,-0.174533,-0.174533,-0.571326,-0.684727,-0.142266,-0.194626,0.409402,-0.375331,-0.48401,0.301402
26,45,-0.567232,-0.698132,-0.174533,-0.174533,-0.571326,-0.684727,-0.142266,-0.194626,0.409402,-0.375331,-0.48401,0.301402
26,45,-0.567232,-0.698132,-0.174533,-0.174533,-0.571326,-0.684727,-0.142266,-0.194626,0.409402,-0.375331,-0.48401,0.301402
26,45,-0.567232,-0.698132,-0.174533,-0.174533,-0.571326,-0.684727,-0.142266,-0.194626,0.409402,-0.375331,-0.48401,0.301402
26,45,-0.567232,-0.698132,-0.174533,-0.174533,-0.571326,-0.684727,-0.142266,-0.194626,0.409402,-0.375331,-0.48401,0.301402
26,45,-0.567232,-0.698132,-0.174533,-0.174533,-0.571326,-0.684727,-0.142266,-0.194626,0.409402,-0.375331,-0.48401,0.301402
26,45,-0.567232,-0.698132,-0.174533,-0.174533,-0.571326,-0.684727,-0.142266,-0.194626,0.409402,-0.375331,-0.48401,0.301402
26,45,-0.567232,-0.698132,-0.174533,-0.174533,-0.571326,-0.684727,-0.142266,-0.194626,0.409402,-0.375331,-0.48401,0.301402
26,45,-0.567232,-0.698132,-0.174533,-0.174533,-0.571254,-0.684727,-0.142266,-0.194626,0.397056,-0.375331,-0.48401,0.301402
26,45,-0.567232,-0.698132,-0.174533,-0.174533,-0.571254,-0.684727,-0.142266,-0.194626,0.397056,-0.375331,-0.48401,0.301402
26,45,-0.567232,-0.698132,-0.174533,-0.174533,-0.571254,-0.684727,-0.142205,-0.194646,0.397056,-0.375331,-0.484925,0.301698
26,45,-0.567232,-0.698132,-0.174533,-0.174533,-0.571254,-0.684727,-0.142205,-0.194646,0.397056,-0.375331,-0.484925,0.301698
26,45,-0.567232,-0.698132,-0.174533,-0.174533,-0.571254,-0.684727,-0.142205,-0.194646,0.397056,-0.375331,-0.484925,0.301698
26,45,-0.567232,-0.698132,-0.174533,-0.174533,-0.571254,-0.684727,-0.142205,-0.194646,0.397056,-0.375331,-0.484925,0.301698
26,45,-0.567232,-0.698132,-0.174533,-0.174533,-0.571254,-0.684727,-0.142205,-0.194646,0.397056,-0.375331,-0.484925,0.301698
26,45,-0.567232,-0.698132,-0.174533,-0.174533,-0.571254,-0.684727,-0.142205,-0.194646,0.397056,-0.375331,-0.484925,0.301698
26,45,-0.567232,-0.698132,-0.174533,-0.174533,-0.571254,-0.684727,-0.142205,-0.194646,0.397056,-0.375331,-0.484925,0.301698
26,45,-0.567232,-0.698132,-0.174533,-0.174533,-0.571254,-0.684727,-0.142205,-0.194646,0.397056,-0.375331,-0.484925,0.301698
26,45,-0.567232,-0.698132,-0.174533,-0.174533,-0.571254,-0.684727,-0.142205,-0.194646,0.397056,-0.375331,-0.484925,0.301698
26,45,-0.567232,-0.698132,-0.174533,-0.174533,-0.571254,-0.684727,-0.142205,-0.194646,0.397056,-0.375331,-0.484925,0.301698
26,45,-0.567232,-0.698132,-0.174533,-0.174533,-0.571254,-0.684727,-0.142144,-0.194666,0.397056,-0.375331,-0.485869,0.302003
26,45,-0.567232,-0.698132,-0.174533,-0.174533,-0.571254,-0.684727,-0.142144,-0.194666,0.397056,-0.375331,-0.485869,0.302003
26,45,-0.567232,-0.698132,-0.174533,-0.174533,-0.571183,-0.684727,-0.142142,-0.194607,0.387776,-0.375331,-0.485899,0.301114
26,45,-0.567232,-0.698132,-0.174533,-0.174533,-0.571183,-0.684727,-0.142142,-0.194607,0.387776,-0.375331,-0.485899,0.301114
26,45,-0.567232,-0.698132,-0.174533,-0.174533,-0.571183,-0.684727,-0.142142,-0.194607,0.387776,-0.375331,-0.485899,0.301114
26,45,-0.567232,-0.698132,-0.174533,-0.174533,-0.571183,-0.684727,-0.142142,-0.194607,0.387776,-0.375331,-0.485899,0.301114
26,45,-0.567232,-0.698132,-0.174533,-0.174533,-0.571183,-0.684727,-0.142142,-0.194607,0.387776,-0.375331,-0.485899,0.301114
26,45,-0.567232,-0.698132,-0.174533,-0.174533,-0.571183,-0.684727,-0.142142,-0.194607,0.387776,-0.375331,-0.485899,0.301114
26,45,-0.567232,-0.698132,-0.174533,-0.174533,-0.571183,-0.684727,-0.142142,-0.194607,0.387776,-0.375331,-0.485899,0.301114
26,45,-0.567232,-0.698132,-0.174533,-0.174533,-0.571111,-0.684727,-0.142142,-0.194607,0.38125,-0.375331,-0.485899,0.301114
26,45,-0.567232,-0.698132,-0.174533,-0.174533,-0.571111,-0.684727,-0.142142,-0.194607,0.38125,-0.375331,-0.485899,0.301114
26,45,-0.567232,-0.698132,-0.174533,-0.174533,-0.571111,-0.684727,-0.142142,-0.194607,0.38125,-0.375331,-0.485899,0.301114
26,45,-0.567232,-0.698132,-0.174533,-0.174533,-0.571111,-0.684727,-0.142142,-0.194607,0.38125,-0.375331,-0.485899,0.301114
26,45,-0.567232,-0.698132,-0.174533,-0.174533,-0.571111,-0.684727,-0.142142,-0.194607,0.38125,-0.375331,-0.485899,0.301114
26,45,-0.567232,-0.698132,-0.174533,-0.174533,-0.571111,-0.684727,-0.142142,-0.194607,0.38125,-0.375331,-0.485899,0.301114
26,45,-0.567232,-0.698132,-0.174533,-0.174533,-0.571111,-0.684727,-0.142142,-0.194607,0.38125,-0.375331,-0.485899,0.301114
26,45,-0.567232,-0.698132,-0.174533,-0.174533,-0.571111,-0.684727,-0.142142,-0.194607,0.38125,-0.375331,-0.485899,0.301114
26,45,-0.567232,-0.698132,-0.174533,-0.174533,-0.57104,-0.684727,-0.142142,-0.194607,0.371227,-0.375331,-0.485899,0.301114
26,45,-0.567232,-0.698132,-0.174533,-0.174533,-0.57104,-0.684727,-0.142142,-0.194607,0.371227,-0.375331,-0.485899,0.301114
26,45,-0.567232,-0.698132,-0.174533,-0.174533,-0.57104,-0.684727,-0.142142,-0.194607,0.371227,-0.375331,-0.485899,0.301114
26,45,-0.567232,-0.698132,-0.174533,-0.174533,-0.57104,-0.684727,-0.142079,-0.194567,0.371227,-0.375331,-0.486853,0.300525
26,45,-0.567232,-0.698132,-0.174533,-0.174533,-0.57104,-0.684727,-0.142079,-0.194567,0.371227,-0.375331,-0.486853,0.300525
26,45,-0.567232,-0.698132,-0.174533,-0.174533,-0.57104,-0.684727,-0.142079,-0.194567,0.371227,-0.375331,-0.486853,0.300525
26,45,-0.567232,-0.698132,-0.174533,-0.174533,-0.57104,-0.684727,-0.142079,-0.194567,0.371227,-0.375331,-0.486853,0.300525
26,45,-0.567232,-0.698132,-0.174533,-0.174533,-0.570968,-0.684727,-0.142079,-0.194567,0.363903,-0.375331,-0.486853,0.300525
26,45,-0.567232,-0.698132,-0.174533,-0.174533,-0.570968,-0.684727,-0.142079,-0.194567,0.363903,-0.375331,-0.486853,0.300525
26,45,-0.567232,-0.698132,-0.174533,-0.174533,-0.570968,-0.684727,-0.142079,-0.194567,0.363903,-0.375331,-0.486853,0.300525
26,45,-0.567232,-0.698132,-0.174533,-0.174533,-0.570968,-0.684727,-0.142079,-0.194567,0.363903,-0.375331,-0.486853,0.300525
26,45,-0.567232,-0.698132,-0.174533,-0.174533,-0.570968,-0.684727,-0.142079,-0.194567,0.363903,-0.375331,-0.486853,0.300525
26,45,-0.567232,-0.698132,-0.174533,-0.174533,-0.570968,-0.684727,-0.142079,-0.194567,0.363903,-0.375331,-0.486853,0.300525
26,45,-0.567232,-0.698132,-0.174533,-0.174533,-0.570968,-0.684727,-0.142079,-0.194567,0.363903,-0.375331,-0.486853,0.300525
26,45,-0.567232,-0.698132,-0.174533,-0.174533,-0.570897,-0.684727,-0.142079,-0.194567,0.354456,-0.375331,-0.486853,0.300525
26,45,-0.567232,-0.698132,-0.174533,-0.174533,-0.570897,-0.684727,-0.142079,-0.194567,0.354456,-0.375331,-0.486853,0.300525
26,45,-0.567232,-0.698132,-0.174533,-0.174533,-0.570897,-0.684727,-0.142079,-0.194567,0.354456,-0.375331,-0.486853,0.300525
26,45,-0.567232,-0.698132,-0.174533,-0.174533,-0.570897,-0.684727,-0.142079,-0.194567,0.354456,-0.375331,-0.486853,0.300525
26,45,-0.567232,-0.698132,-0.174533,-0.174533,-0.570897,-0.684727,-0.142079,-0.194567,0.354456,-0.375331,-0.486853,0.300525
26,45,-0.567232,-0.698132,-0.174533,-0.174533,-0.570897,-0.684727,-0.142018,-0.194587,0.354456,-0.375331,-0.487764,0.300819
26,45,-0.567232,-0.698132,-0.174533,-0.174533,-0.570897,-0.684727,-0.142018,-0.194587,0.354456,-0.375331,-0.487764,0.300819
26,45,-0.567232,-0.698132,-0.174533,-0.174533,-0.570825,-0.684676,-0.142018,-0.194587,0.346901,-0.376755,-0.487764,0.300819
26,45,-0.567232,-0.698132,-0.174533,-0.174533,-0.570825,-0.684676,-0.142018,-0.194587,0.346901,-0.376755,-0.487764,0.300819
26,45,-0.567232,-0.698132,-0.174533,-0.174533,-0.570825,-0.684676,-0.142018,-0.194587,0.346901,-0.376755,-0.487764,0.300819
26,45,-0.567232,-0.698132,-0.174533,-0.174533,-0.570825,-0.684676,-0.142018,-0.194587,0.346901,-0.376755,-0.487764,0.300819
26,45,-0.567232,-0.698132,-0.174533,-0.174533,-0.570825,-0.684676,-0.142018,-0.194587,0.346901,-0.376755,-0.487764,0.300819
26,45,-0.567232,-0.698132,-0.174533,-0.174533,-0.570825,-0.684676,-0.142018,-0.194587,0.346901,-0.376755,-0.487764,0.300819
26,45,-0.567232,-0.698132,-0.174533,-0.174533,-0.570825,-0.684676,-0.142016,-0.194528,0.346901,-0.376755,-0.487794,0.299931
26,45,-0.567232,-0.698132,-0.174533,-0.174533,-0.570753,-0.684676,-0.142016,-0.194528,0.339317,-0.376755,-0.487794,0.299931
26,45,-0.567232,-0.698132,-0.174533,-0.174533,-0.570753,-0.684676,-0.142016,-0.194528,0.339317,-0.376755,-0.487794,0.299931
26,45,-0.567232,-0.698132,-0.174533,-0.174533,-0.570753,-0.684676,-0.142016,-0.194528,0.339317,-0.376755,-0.487794,0.299931
26,45,-0.567232,-0.698132,-0.174533,-0.174533,-0.570753,-0.684676,-0.142016,-0.194528,0.339317,-0.376755,-0.487794,0.299931
26,45,-0.567232,-0.698132,-0.174533,-0.174533,-0.570753,-0.684676,-0.142016,-0.194528,0.339317,-0.376755,-0.487794,0.299931
26,45,-0.567232,-0.698132,-0.174533,-0.174533,-0.570753,-0.684676,-0.142016,-0.194528,0.339317,-0.376755,-0.487794,0.299931
26,45,-0.567232,-0.698132,-0.174533,-0.174533,-0.570753,-0.684676,-0.142016,-0.194528,0.339317,-0.376755,-0.487794,0.299931
26,45,-0.567232,-0.698132,-0.174533,-0.174533,-0.570682,-0.684676,-0.142016,-0.194528,0.331909,-0.376755,-0.487794,0.299931
26,45,-0.567232,-0.698132,-0.174533,-0.174533,-0.570682,-0.684676,-0.141955,-0.194547,0.331909,-0.376755,-0.488709,0.300226
26,45,-0.567232,-0.698132,-0.174533,-0.174533,-0.570682,-0.684676,-0.141955,-0.194547,0.331909,-0.376755,-0.488709,0.300226
26,45,-0.567232,-0.698132,-0.174533,-0.174533,-0.570682,-0.684676,-0.141955,-0.194547,0.331909,-0.376755,-0.488709,0.300226
26,45,-0.567232,-0.698132,-0.174533,-0.174533,-0.570682,-0.684676,-0.141955,-0.194547,0.331909,-0.376755,-0.488709,0.300226
26,45,-0.567232,-0.698132,-0.174533,-0.174533,-0.570682,-0.684676,-0.141955,-0.194547,0.331909,-0.376755,-0.488709,0.300226
26,45,-0.567232,-0.698132,-0.174533,-0.174533,-0.570682,-0.684676,-0.141955,-0.194547,0.331909,-0.376755,-0.488709,0.300226
26,45,-0.567232,-0.698132,-0.174533,-0.174533,-0.57061,-0.684676,-0.141955,-0.194547,0.325097,-0.376755,-0.488709,0.300226
26,45,-0.567232,-0.698132,-0.174533,-0.174533,-0.57061,-0.684676,-0.141955,-0.194547,0.325097,-0.376755,-0.488709,0.300226
26,45,-0.567232,-0.698132,-0.174533,-0.174533,-0.57061,-0.684676,-0.141955,-0.194547,0.325097,-0.376755,-0.488709,0.300226
26,45,-0.567232,-0.698132,-0.174533,-0.174533,-0.57061,-0.684676,-0.141955,-0.194547,0.325097,-0.376755,-0.488709,0.300226
26,45,-0.567232,-0.698132,-0.174533,-0.174533,-0.57061,-0.684676,-0.141955,-0.194547,0.325097,-0.376755,-0.488709,0.300226
26,45,-0.567232,-0.698132,-0.174533,-0.174533,-0.57061,-0.684676,-0.141955,-0.194547,0.325097,-0.376755,-0.488709,0.300226
26,45,-0.567232,-0.698132,-0.174533,-0.174533,-0.57061,-0.684676,-0.141955,-0.194547,0.325097,-0.376755,-0.488709,0.300226
26,45,-0.567232,-0.698132,-0.174533,-0.174533,-0.57061,-0.684676,-0.141955,-0.194547,0.325097,-0.376755,-0.488709,0.300226
26,45,-0.567232,-0.698132,-0.174533,-0.174533,-0.57061,-0.684676,-0.141955,-0.194547,0.325097,-0.376755,-0.488709,0.300226
26,45,-0.567232,-0.698132,-0.174533,-0.174533,-0.57061,-0.684676,-0.141955,-0.194547,0.325097,-0.376755,-0.488709,0.300226
26,45,-0.567232,-0.698132,-0.174533,-0.174533,-0.57061,-0.684676,-0.141955,-0.194547,0.325097,-0.376755,-0.488709,0.300226
26,45,-0.567232,-0.698132,-0.174533,-0.174533,-0.570539,-0.684676,-0.141955,-0.194547,0.319501,-0.376755,-0.488709,0.300226
26,45,-0.567232,-0.698132,-0.174533,-0.174533,-0.570539,-0.684676,-0.141894,-0.194567,0.319501,-0.376755,-0.489619,0.300521
26,45,-0.567232,-0.698132,-0.174533,-0.174533,-0.570539,-0.684676,-0.141894,-0.194567,0.319501,-0.376755,-0.489619,0.300521
26,45,-0.567232,-0.698132,-0.174533,-0.174533,-0.570539,-0.684676,-0.141894,-0.194567,0.319501,-0.376755,-0.489619,0.300521
26,45,-0.567232,-0.698132,-0.174533,-0.174533,-0.570539,-0.684676,-0.141894,-0.194567,0.319501,-0.376755,-0.489619,0.300521
26,45,-0.567232,-0.698132,-0.174533,-0.174533,-0.570539,-0.684676,-0.141894,-0.194567,0.319501,-0.376755,-0.489619,0.300521
26,45,-0.567232,-0.698132,-0.174533,-0.174533,-0.570539,-0.684676,-0.141894,-0.194567,0.319501,-0.376755,-0.489619,0.300521
26,45,-0.567232,-0.698132,-0.174533,-0.174533,-0.570539,-0.684676,-0.141894,-0.194567,0.319501,-0.376755,-0.489619,0.300521
26,45,-0.567232,-0.698132,-0.174533,-0.174533,-0.570539,-0.684676,-0.141894,-0.194567,0.319501,-0.376755,-0.489619,0.300521
26,45,-0.567232,-0.698132,-0.174533,-0.174533,-0.570539,-0.684676,-0.141894,-0.194567,0.319501,-0.376755,-0.489619,0.300521
26,45,-0.567232,-0.698132,-0.174533,-0.174533,-0.570539,-0.684676,-0.141894,-0.194567,0.319501,-0.376755,-0.489619,0.300521
26,45,-0.567232,-0.698132,-0.174533,-0.174533,-0.570539,-0.684676,-0.141894,-0.194567,0.319501,-0.376755,-0.489619,0.300521
26,45,-0.567232,-0.698132,-0.174533,-0.174533,-0.570539,-0.684676,-0.141894,-0.194567,0.319501,-0.376755,-0.489619,0.300521
26,45,-0.567232,-0.698132,-0.174533,-0.174533,-0.570467,-0.684676,-0.141894,-0.194567,0.314093,-0.376755,-0.489619,0.300521
26,45,-0.567232,-0.698132,-0.174533,-0.174533,-0.570467,-0.684676,-0.141894,-0.194567,0.314093,-0.376755,-0.489619,0.300521
26,45,-0.567232,-0.698132,-0.174533,-0.174533,-0.570467,-0.684676,-0.141894,-0.194567,0.314093,-0.376755,-0.489619,0.300521
26,45,-0.567232,-0.698132,-0.174533,-0.174533,-0.570467,-0.684676,-0.141894,-0.194567,0.314093,-0.376755,-0.489619,0.300521
26,45,-0.567232,-0.698132,-0.174533,-0.174533,-0.570467,-0.684676,-0.141892,-0.194508,0.314093,-0.376755,-0.489648,0.299632
26,45,-0.567232,-0.698132,-0.174533,-0.174533,-0.570467,-0.684676,-0.141892,-0.194508,0.314093,-0.376755,-0.489648,0.299632
26,45,-0.567232,-0.698132,-0.174533,-0.174533,-0.570467,-0.684676,-0.141892,-0.194508,0.314093,-0.376755,-0.489648,0.299632
26,45,-0.567232,-0.698132,-0.174533,-0.174533,-0.570467,-0.684676,-0.141831,-0.194527,0.314093,-0.376755,-0.490563,0.299928
26,45,-0.567232,-0.698132,-0.174533,-0.174533,-0.570467,-0.684676,-0.141831,-0.194527,0.314093,-0.376755,-0.490563,0.299928
26,45,-0.567232,-0.698132,-0.174533,-0.174533,-0.570395,-0.684676,-0.141831,-0.194527,0.307641,-0.376755,-0.490563,0.299928
26,45,-0.567232,-0.698132,-0.174533,-0.174533,-0.570395,-0.684676,-0.141831,-0.194527,0.307641,-0.376755,-0.490563,0.299928
26,45,-0.567232,-0.698132,-0.174533,-0.174533,-0.570395,-0.684676,-0.141831,-0.194527,0.307641,-0.376755,-0.490563,0.299928
26,45,-0.567232,-0.698132,-0.174533,-0.174533,-0.570395,-0.684676,-0.141831,-0.194527,0.307641,-0.376755,-0.490563,0.299928
26,45,-0.567232,-0.698132,-0.174533,-0.174533,-0.570395,-0.684676,-0.141831,-0.194527,0.307641,-0.376755,-0.490563,0.299928
26,45,-0.567232,-0.698132,-0.174533,-0.174533,-0.570395,-0.684676,-0.141831,-0.194527,0.307641,-0.376755,-0.490563,0.299928
26,45,-0.567232,-0.698132,-0.174533,-0.174533,-0.570395,-0.684676,-0.141831,-0.194527,0.307641,-0.376755,-0.490563,0.299928
26,45,-0.567232,-0.698132,-0.174533,-0.174533,-0.570395,-0.684676,-0.141831,-0.194527,0.307641,-0.376755,-0.490563,0.299928
26,45,-0.567232,-0.698132,-0.174533,-0.174533,-0.570395,-0.684676,-0.141831,-0.194527,0.307641,-0.376755,-0.490563,0.299928
26,45,-0.567232,-0.698132,-0.174533,-0.174533,-0.570395,-0.684676,-0.141831,-0.194527,0.307641,-0.376755,-0.490563,0.299928
26,45,-0.567232,-0.698132,-0.174533,-0.174533,-0.570395,-0.684676,-0.141831,-0.194527,0.307641,-0.376755,-0.490563,0.299928
26,45,-0.567232,-0.698132,-0.174533,-0.174533,-0.570395,-0.684676,-0.141831,-0.194527,0.307641,-0.376755,-0.490563,0.299928
26,45,-0.567232,-0.698132,-0.174533,-0.174533,-0.570395,-0.684676,-0.141831,-0.194527,0.307641,-0.376755,-0.490563,0.299928
26,45,-0.567232,-0.698132,-0.174533,-0.174533,-0.570395,-0.684676,-0.141831,-0.194527,0.307641,-0.376755,-0.490563,0.299928
26,45,-0.567232,-0.698132,-0.174533,-0.174533,-0.570395,-0.684676,-0.141831,-0.194527,0.307641,-0.376755,-0.490563,0.299928
26,45,-0.567232,-0.698132,-0.174533,-0.174533,-0.570395,-0.684676,-0.141831,-0.194527,0.307641,-0.376755,-0.490563,0.299928
26,45,-0.567232,-0.698132,-0.174533,-0.174533,-0.570395,-0.684676,-0.141831,-0.194527,0.307641,-0.376755,-0.490563,0.299928
26,45,-0.567232,-0.698132,-0.174533,-0.174533,-0.570395,-0.684625,-0.141831,-0.194527,0.307641,-0.378178,-0.490563,0.299928
26,45,-0.567232,-0.698132,-0.174533,-0.174533,-0.570395,-0.684625,-0.141831,-0.194527,0.307641,-0.378178,-0.490563,0.299928
26,45,-0.567232,-0.698132,-0.174533,-0.174533,-0.570395,-0.684625,-0.141831,-0.194527,0.307641,-0.378178,-0.490563,0.299928
26,45,-0.567232,-0.698132,-0.174533,-0.174533,-0.570395,-0.684625,-0.141831,-0.194527,0.307641,-0.378178,-0.490563,0.299928
26,45,-0.567232,-0.698132,-0.174533,-0.174533,-0.570395,-0.684625,-0.141831,-0.194527,0.307641,-0.378178,-0.490563,0.299928
26,45,-0.567232,-0.698132,-0.174533,-0.174533,-0.570395,-0.684625,-0.141831,-0.194527,0.307641,-0.378178,-0.490563,0.299928
26,45,-0.567232,-0.698132,-0.174533,-0.174533,-0.570395,-0.684625,-0.141831,-0.194527,0.307641,-0.378178,-0.490563,0.299928
26,45,-0.567232,-0.698132,-0.174533,-0.174533,-0.570395,-0.684625,-0.14177,-0.194547,0.307641,-0.378178,-0.491473,0.300222
26,45,-0.567232,-0.698132,-0.174533,-0.174533,-0.570395,-0.684625,-0.14177,-0.194547,0.307641,-0.378178,-0.491473,0.300222
26,45,-0.567232,-0.698132,-0.174533,-0.174533,-0.570395,-0.684625,-0.14177,-0.194547,0.307641,-0.378178,-0.491473,0.300222
26,45,-0.567232,-0.698132,-0.174533,-0.174533,-0.570395,-0.684625,-0.14177,-0.194547,0.307641,-0.378178,-0.491473,0.300222
26,45,-0.567232,-0.698132,-0.174533,-0.174533,-0.570395,-0.684625,-0.14177,-0.194547,0.307641,-0.378178,-0.491473,0.300222
26,45,-0.567232,-0.698132,-0.174533,-0.174533,-0.570395,-0.684625,-0.14177,-0.194547,0.307641,-0.378178,-0.491473,0.300222
26,45,-0.567232,-0.698132,-0.174533,-0.174533,-0.570395,-0.684625,-0.14177,-0.194547,0.307641,-0.378178,-0.491473,0.300222
26,45,-0.567232,-0.698132,-0.174533,-0.174533,-0.570395,-0.684625,-0.14177,-0.194547,0.307641,-0.378178,-0.491473,0.300222
26,45,-0.567232,-0.698132,-0.174533,-0.174533,-0.570395,-0.684625,-0.14177,-0.194547,0.307641,-0.378178,-0.491473,0.300222
26,45,-0.567232,-0.698132,-0.174533,-0.174533,-0.570395,-0.684625,-0.14177,-0.194547,0.307641,-0.378178,-0.491473,0.300222
26,45,-0.567232,-0.698132,-0.174533,-0.174533,-0.570395,-0.684625,-0.14177,-0.194547,0.307641,-0.378178,-0.491473,0.300222
26,45,-0.567232,-0.698132,-0.174533,-0.174533,-0.570395,-0.684625,-0.14177,-0.194547,0.307641,-0.378178,-0.491473,0.300222
26,45,-0.567232,-0.698132,-0.174533,-0.174533,-0.570395,-0.684625,-0.14177,-0.194547,0.307641,-0.378178,-0.491473,0.300222
26,45,-0.567232,-0.698132,-0.174533,-0.174533,-0.570395,-0.684625,-0.14177,-0.194547,0.307641,-0.378178,-0.491473,0.300222
26,45,-0.567232,-0.698132,-0.174533,-0.174533,-0.570395,-0.684625,-0.14177,-0.194547,0.307641,-0.378178,-0.491473,0.300222
26,45,-0.567232,-0.698132,-0.174533,-0.174533,-0.570395,-0.684625,-0.14177,-0.194547,0.307641,-0.378178,-0.491473,0.300222
26,45,-0.567232,-0.698132,-0.174533,-0.174533,-0.570395,-0.684625,-0.14177,-0.194547,0.307641,-0.378178,-0.491473,0.300222
26,45,-0.567232,-0.698132,-0.174533,-0.174533,-0.570395,-0.684625,-0.14177,-0.194547,0.307645,-0.378178,-0.491473,0.300222
26,45,-0.567232,-0.698132,-0.174533,-0.174533,-0.570395,-0.684625,-0.14177,-0.194547,0.307876,-0.378178,-0.491473,0.300222
26,45,-0.567232,-0.698132,-0.174533,-0.174533,-0.570395,-0.684625,-0.14177,-0.194547,0.308072,-0.378178,-0.491473,0.300222
26,45,-0.567232,-0.698132,-0.174533,-0.174533,-0.570395,-0.684625,-0.14177,-0.194547,0.308259,-0.378178,-0.491473,0.300222
26,45,-0.567232,-0.698132,-0.174533,-0.174533,-0.570395,-0.684625,-0.14177,-0.194547,0.308437,-0.378178,-0.491473,0.300222
26,45,-0.567232,-0.698132,-0.174533,-0.174533,-0.570395,-0.684625,-0.14177,-0.194547,0.308608,-0.378178,-0.491473,0.300222
26,45,-0.567232,-0.698132,-0.174533,-0.174533,-0.570395,-0.684625,-0.14177,-0.194547,0.308771,-0.378178,-0.491473,0.300222
26,45,-0.567232,-0.698132,-0.174533,-0.174533,-0.570395,-0.684625,-0.14177,-0.194547,0.308928,-0.378178,-0.491473,0.300222
26,45,-0.567232,-0.698132,-0.174533,-0.174533,-0.570395,-0.684625,-0.14177,-0.194547,0.309078,-0.378178,-0.491473,0.300222
26,45,-0.567232,-0.698132,-0.174533,-0.174533,-0.570395,-0.684625,-0.14177,-0.194547,0.309223,-0.378178,-0.491473,0.300222
26,45,-0.567232,-0.698132,-0.174533,-0.174533,-0.570395,-0.684625,-0.14177,-0.194547,0.309362,-0.378178,-0.491473,0.300222
26,45,-0.567232,-0.698132,-0.174533,-0.174533,-0.570395,-0.684625,-0.14177,-0.194547,0.309495,-0.378178,-0.491473,0.300222
26,45,-0.567232,-0.698132,-0.174533,-0.174533,-0.570395,-0.684625,-0.14177,-0.194547,0.309624,-0.378178,-0.491473,0.300222
26,45,-0.567232,-0.698132,-0.174533,-0.174533,-0.570395,-0.684625,-0.14177,-0.194547,0.309747,-0.378178,-0.491473,0.300222
26,45,-0.567232,-0.698132,-0.174533,-0.174533,-0.570395,-0.684625,-0.14177,-0.194547,0.309867,-0.378178,-0.491473,0.300222
26,45,-0.567232,-0.698132,-0.174533,-0.174533,-0.570395,-0.684625,-0.14177,-0.194547,0.309982,-0.378178,-0.491473,0.300222
26,45,-0.567232,-0.698132,-0.174533,-0.174533,-0.570395,-0.684625,-0.14177,-0.194547,0.310106,-0.378178,-0.491473,0.300222
26,45,-0.567232,-0.698132,-0.174533,-0.174533,-0.570395,-0.684625,-0.14177,-0.194547,0.310213,-0.378178,-0.491473,0.300222
26,45,-0.567232,-0.698132,-0.174533,-0.174533,-0.570395,-0.684625,-0.14177,-0.194547,0.310316,-0.378178,-0.491473,0.300222
26,45,-0.567232,-0.698132,-0.174533,-0.174533,-0.570395,-0.684625,-0.14177,-0.194547,0.310416,-0.378178,-0.491473,0.300222
26,45,-0.567232,-0.698132,-0.174533,-0.174533,-0.570395,-0.684625,-0.14177,-0.194547,0.310512,-0.378178,-0.491473,0.300222
26,45,-0.567232,-0.698132,-0.174533,-0.174533,-0.570395,-0.684625,-0.14177,-0.194547,0.310606,-0.378178,-0.491473,0.300222
26,45,-0.567232,-0.698132,-0.174533,-0.174533,-0.570395,-0.684625,-0.14177,-0.194547,0.310696,-0.378178,-0.491473,0.300222
26,45,-0.567232,-0.698132,-0.174533,-0.174533,-0.570395,-0.684625,-0.14177,-0.194547,0.310784,-0.378178,-0.491473,0.300222
26,45,-0.567232,-0.698132,-0.174533,-0.174533,-0.570395,-0.684625,-0.14177,-0.194547,0.310869,-0.378178,-0.491473,0.300222
26,45,-0.567232,-0.698132,-0.174533,-0.174533,-0.570395,-0.684625,-0.14177,-0.194547,0.310951,-0.378178,-0.491473,0.300222
26,45,-0.567232,-0.698132,-0.174533,-0.174533,-0.570395,-0.684625,-0.14177,-0.194547,0.311031,-0.378178,-0.491473,0.300222
26,45,-0.567232,-0.698132,-0.174533,-0.174533,-0.570395,-0.684625,-0.14177,-0.194547,0.311109,-0.378178,-0.491473,0.300222
26,45,-0.567232,-0.698132,-0.174533,-0.174533,-0.570395,-0.684625,-0.14177,-0.194547,0.311184,-0.378178,-0.491473,0.300222
26,45,-0.567232,-0.698132,-0.174533,-0.174533,-0.570395,-0.684625,-0.14177,-0.194547,0.311257,-0.378178,-0.491473,0.300222
26,45,-0.567232,-0.698132,-0.174533,-0.174533,-0.570395,-0.684625,-0.14177,-0.194547,0.311328,-0.378178,-0.491473,0.300222
26,45,-0.567232,-0.698132,-0.174533,-0.174533,-0.570395,-0.684625,-0.14177,-0.194547,0.311398,-0.378178,-0.491473,0.300222
26,45,-0.567232,-0.698132,-0.174533,-0.174533,-0.570395,-0.684625,-0.14177,-0.194547,0.311465,-0.378178,-0.491473,0.300222
26,45,-0.567232,-0.698132,-0.174533,-0.174533,-0.570395,-0.684625,-0.14177,-0.194547,0.311531,-0.378178,-0.491473,0.300222
26,45,-0.567232,-0.698132,-0.174533,-0.174533,-0.570395,-0.684625,-0.14177,-0.194547,0.311594,-0.378178,-0.491473,0.300222
26,45,-0.567232,-0.698132,-0.174533,-0.174533,-0.570395,-0.684625,-0.14177,-0.194547,0.311656,-0.378178,-0.491473,0.300222
26,45,-0.567232,-0.698132,-0.174533,-0.174533,-0.570395,-0.684625,-0.14177,-0.194547,0.311717,-0.378178,-0.491473,0.300222
26,45,-0.567232,-0.698132,-0.174533,-0.174533,-0.570395,-0.684625,-0.14177,-0.194547,0.311776,-0.378178,-0.491473,0.300222
26,45,-0.567232,-0.698132,-0.174533,-0.174533,-0.570395,-0.684625,-0.14177,-0.194547,0.311833,-0.378178,-0.491473,0.300222
26,45,-0.567232,-0.698132,-0.174533,-0.174533,-0.570395,-0.684625,-0.14177,-0.194547,0.311889,-0.378178,-0.491473,0.300222
26,45,-0.567232,-0.698132,-0.174533,-0.174533,-0.570395,-0.684625,-0.14177,-0.194547,0.311944,-0.378178,-0.491473,0.300222
26,45,-0.567232,-0.698132,-0.174533,-0.174533,-0.570395,-0.684625,-0.14177,-0.194547,0.311997,-0.378178,-0.491473,0.300222
26,45,-0.567232,-0.698132,-0.174533,-0.174533,-0.570395,-0.684625,-0.14177,-0.194547,0.31205,-0.378178,-0.491473,0.300222
26,45,-0.567232,-0.698132,-0.174533,-0.174533,-0.570395,-0.684625,-0.14177,-0.194547,0.316341,-0.378178,-0.491473,0.300222
26,45,-0.567232,-0.698132,-0.174533,-0.174533,-0.570395,-0.684625,-0.14177,-0.194547,0.316341,-0.378178,-0.491473,0.300222
26,45,-0.567232,-0.698132,-0.174533,-0.174533,-0.570395,-0.684625,-0.14177,-0.194547,0.316341,-0.378178,-0.491473,0.300222
26,45,-0.567232,-0.698132,-0.174533,-0.174533,-0.570395,-0.684625,-0.14177,-0.194547,0.316341,-0.378178,-0.491473,0.300222
26,45,-0.567232,-0.698132,-0.174533,-0.174533,-0.570395,-0.684625,-0.141709,-0.194567,0.316341,-0.378178,-0.492357,0.300508
26,45,-0.567232,-0.698132,-0.174533,-0.174533,-0.570395,-0.684625,-0.141709,-0.194567,0.316341,-0.378178,-0.492357,0.300508
26,45,-0.567232,-0.698132,-0.174533,-0.174533,-0.570395,-0.684625,-0.141709,-0.194567,0.316341,-0.378178,-0.492357,0.300508
26,45,-0.567232,-0.698132,-0.174533,-0.174533,-0.570395,-0.684625,-0.141709,-0.194567,0.316341,-0.378178,-0.492357,0.300508
26,45,-0.567232,-0.698132,-0.174533,-0.174533,-0.570395,-0.684625,-0.141709,-0.194567,0.316341,-0.378178,-0.492357,0.300508
26,45,-0.567232,-0.698132,-0.174533,-0.174533,-0.570395,-0.684625,-0.141709,-0.194567,0.316341,-0.378178,-0.492357,0.300508
26,45,-0.567232,-0.698132,-0.174533,-0.174533,-0.570395,-0.684625,-0.141709,-0.194567,0.316341,-0.378178,-0.492357,0.300508
26,45,-0.567232,-0.698132,-0.174533,-0.174533,-0.570395,-0.684625,-0.141709,-0.194567,0.316341,-0.378178,-0.492357,0.300508
26,45,-0.567232,-0.698132,-0.174533,-0.174533,-0.570395,-0.684625,-0.141709,-0.194567,0.316341,-0.378178,-0.492357,0.300508
26,45,-0.567232,-0.698132,-0.174533,-0.174533,-0.570395,-0.684625,-0.141709,-0.194567,0.316341,-0.378178,-0.492357,0.300508
26,45,-0.567232,-0.698132,-0.174533,-0.174533,-0.570395,-0.684625,-0.141709,-0.194567,0.316341,-0.378178,-0.492357,0.300508
26,45,-0.567232,-0.698132,-0.174533,-0.174533,-0.570395,-0.684625,-0.141709,-0.194567,0.316341,-0.378178,-0.492357,0.300508
26,45,-0.567232,-0.698132,-0.174533,-0.174533,-0.570395,-0.684625,-0.141709,-0.194567,0.316341,-0.378178,-0.492357,0.300508
26,45,-0.567232,-0.698132,-0.174533,-0.174533,-0.570395,-0.684625,-0.141709,-0.194567,0.316341,-0.378178,-0.492357,0.300508
26,45,-0.567232,-0.698132,-0.174533,-0.174533,-0.570395,-0.684625,-0.141709,-0.194567,0.316341,-0.378178,-0.492357,0.300508
26,45,-0.567232,-0.698132,-0.174533,-0.174533,-0.570395,-0.684625,-0.141709,-0.194567,0.316341,-0.378178,-0.492357,0.300508
26,45,-0.567232,-0.698132,-0.174533,-0.174533,-0.570395,-0.684625,-0.141709,-0.194567,0.316341,-0.378178,-0.492357,0.300508
26,45,-0.567232,-0.698132,-0.174533,-0.174533,-0.570395,-0.684625,-0.141709,-0.194567,0.316341,-0.378178,-0.492357,0.300508
26,45,-0.567232,-0.698132,-0.174533,-0.174533,-0.570395,-0.684625,-0.141709,-0.194567,0.316341,-0.378178,-0.492357,0.300508
