stim_pw [us],stim_amp [mA],com_elbow_fe [rad],com_forearm_ps [rad],com_wrist_fe [rad],com_wrist_ru [rad],act_elbow_fe [rad],act_forearm_ps [rad],act_wrist_fe [rad],act_wrist_ru [rad],elbow_fe_trq [Nm],forearm_ps_trq [Nm],wrist_fe_trq [Nm],wrist_ru_trq [Nm]
28,40,-0.567232,0.698132,-0.174533,-0.174533,-0.573688,0.691489,-0.149584,-0.186841,1.29127,0.371998,-0.748457,0.36923
28,40,-0.567232,0.698132,-0.174533,-0.174533,-0.573688,0.691489,-0.149584,-0.186841,1.29127,0.371998,-0.748457,0.36923
28,40,-0.567232,0.698132,-0.174533,-0.174533,-0.573688,0.691489,-0.149584,-0.186841,1.29127,0.371998,-0.748457,0.36923
28,40,-0.567232,0.698132,-0.174533,-0.174533,-0.573688,0.691489,-0.149584,-0.186841,1.29127,0.371998,-0.748457,0.36923
28,40,-0.567232,0.698132,-0.174533,-0.174533,-0.573688,0.691489,-0.149584,-0.186841,1.29127,0.371998,-0.748457,0.36923
28,40,-0.567232,0.698132,-0.174533,-0.174533,-0.573688,0.691489,-0.149584,-0.186841,1.29127,0.371998,-0.748457,0.36923
28,40,-0.567232,0.698132,-0.174533,-0.174533,-0.573688,0.691489,-0.149584,-0.186841,1.29127,0.371998,-0.748457,0.36923
28,40,-0.567232,0.698132,-0.174533,-0.174533,-0.573688,0.691489,-0.149584,-0.186841,1.29127,0.371998,-0.748457,0.36923
28,40,-0.567232,0.698132,-0.174533,-0.174533,-0.573688,0.691489,-0.149584,-0.186841,1.29127,0.371998,-0.748457,0.36923
28,40,-0.567232,0.698132,-0.174533,-0.174533,-0.573688,0.691489,-0.149584,-0.186841,1.29127,0.371998,-0.748457,0.36923
28,40,-0.567232,0.698132,-0.174533,-0.174533,-0.573688,0.691489,-0.149584,-0.186841,1.29127,0.371998,-0.748457,0.36923
28,40,-0.567232,0.698132,-0.174533,-0.174533,-0.573688,0.691489,-0.149584,-0.186841,1.29127,0.371998,-0.748457,0.36923
28,40,-0.567232,0.698132,-0.174533,-0.174533,-0.573688,0.691489,-0.149584,-0.186841,1.29127,0.371998,-0.748457,0.36923
28,40,-0.567232,0.698132,-0.174533,-0.174533,-0.573688,0.691489,-0.149584,-0.186841,1.29127,0.371998,-0.748457,0.36923
28,40,-0.567232,0.698132,-0.174533,-0.174533,-0.573688,0.691489,-0.149584,-0.186841,1.29127,0.371998,-0.748457,0.36923
28,40,-0.567232,0.698132,-0.174533,-0.174533,-0.573688,0.691489,-0.149584,-0.186841,1.29127,0.371998,-0.748457,0.36923
28,40,-0.567232,0.698132,-0.174533,-0.174533,-0.573688,0.691489,-0.149584,-0.186841,1.29127,0.371998,-0.748457,0.36923
28,40,-0.567232,0.698132,-0.174533,-0.174533,-0.573688,0.691489,-0.149584,-0.186841,1.29127,0.371998,-0.748457,0.36923
28,40,-0.567232,0.698132,-0.174533,-0.174533,-0.573688,0.691489,-0.149584,-0.186841,1.29127,0.371998,-0.748457,0.36923
28,40,-0.567232,0.698132,-0.174533,-0.174533,-0.573688,0.691489,-0.149584,-0.186841,1.29127,0.371998,-0.748457,0.36923
28,40,-0.567232,0.698132,-0.174533,-0.174533,-0.573688,0.691489,-0.149584,-0.186841,1.29127,0.371998,-0.748457,0.36923
28,40,-0.567232,0.698132,-0.174533,-0.174533,-0.573688,0.691489,-0.149584,-0.186841,1.29127,0.371998,-0.748457,0.36923
28,40,-0.567232,0.698132,-0.174533,-0.174533,-0.573688,0.691489,-0.149584,-0.186841,1.29127,0.371998,-0.748457,0.36923
28,40,-0.567232,0.698132,-0.174533,-0.174533,-0.573688,0.691489,-0.149584,-0.186841,1.29127,0.371998,-0.748457,0.36923
28,40,-0.567232,0.698132,-0.174533,-0.174533,-0.573688,0.691489,-0.149584,-0.186841,1.29127,0.371998,-0.748457,0.36923
28,40,-0.567232,0.698132,-0.174533,-0.174533,-0.573688,0.691489,-0.149584,-0.186841,1.29127,0.371998,-0.748457,0.36923
28,40,-0.567232,0.698132,-0.174533,-0.174533,-0.573688,0.691489,-0.149584,-0.186841,1.29127,0.371998,-0.748457,0.36923
28,40,-0.567232,0.698132,-0.174533,-0.174533,-0.573688,0.691489,-0.149584,-0.186841,1.29127,0.371998,-0.748457,0.36923
28,40,-0.567232,0.698132,-0.174533,-0.174533,-0.573688,0.691489,-0.149584,-0.186841,1.29127,0.371998,-0.748457,0.36923
28,40,-0.567232,0.698132,-0.174533,-0.174533,-0.573688,0.691489,-0.149584,-0.186841,1.29127,0.371998,-0.748457,0.36923
28,40,-0.567232,0.698132,-0.174533,-0.174533,-0.573688,0.691489,-0.149584,-0.186841,1.29127,0.371998,-0.748457,0.36923
28,40,-0.567232,0.698132,-0.174533,-0.174533,-0.573688,0.691489,-0.149584,-0.186841,1.29127,0.371998,-0.748457,0.36923
28,40,-0.567232,0.698132,-0.174533,-0.174533,-0.573688,0.691489,-0.149584,-0.186841,1.29127,0.371998,-0.748457,0.36923
28,40,-0.567232,0.698132,-0.174533,-0.174533,-0.573688,0.691489,-0.149584,-0.186841,1.29127,0.371998,-0.748457,0.36923
28,40,-0.567232,0.698132,-0.174533,-0.174533,-0.573688,0.691489,-0.149584,-0.186841,1.29127,0.371998,-0.748457,0.36923
28,40,-0.567232,0.698132,-0.174533,-0.174533,-0.573688,0.691489,-0.149584,-0.186841,1.29127,0.371998,-0.748457,0.36923
28,40,-0.567232,0.698132,-0.174533,-0.174533,-0.573688,0.691489,-0.149584,-0.186841,1.29127,0.371998,-0.748457,0.36923
28,40,-0.567232,0.698132,-0.174533,-0.174533,-0.573688,0.691489,-0.149584,-0.186841,1.29127,0.371998,-0.748457,0.36923
28,40,-0.567232,0.698132,-0.174533,-0.174533,-0.573688,0.691489,-0.149584,-0.186841,1.29127,0.371998,-0.748457,0.36923
28,40,-0.567232,0.698132,-0.174533,-0.174533,-0.573688,0.691489,-0.149584,-0.186841,1.29127,0.371998,-0.748457,0.36923
28,40,-0.567232,0.698132,-0.174533,-0.174533,-0.573688,0.691489,-0.149584,-0.186841,1.29127,0.371998,-0.748457,0.36923
28,40,-0.567232,0.698132,-0.174533,-0.174533,-0.573688,0.691489,-0.149584,-0.186841,1.29127,0.371998,-0.748457,0.36923
28,40,-0.567232,0.698132,-0.174533,-0.174533,-0.573688,0.691489,-0.149584,-0.186841,1.29127,0.371998,-0.748457,0.36923
28,40,-0.567232,0.698132,-0.174533,-0.174533,-0.573688,0.691489,-0.149584,-0.186841,1.29127,0.371998,-0.748457,0.36923
28,40,-0.567232,0.698132,-0.174533,-0.174533,-0.573688,0.691489,-0.149584,-0.186841,1.29127,0.371998,-0.748457,0.36923
28,40,-0.567232,0.698132,-0.174533,-0.174533,-0.573688,0.691489,-0.149584,-0.186841,1.29127,0.371998,-0.748457,0.36923
28,40,-0.567232,0.698132,-0.174533,-0.174533,-0.573688,0.691489,-0.149584,-0.186841,1.29127,0.371998,-0.748457,0.36923
28,40,-0.567232,0.698132,-0.174533,-0.174533,-0.573688,0.691489,-0.149584,-0.186841,1.29127,0.371998,-0.748457,0.36923
28,40,-0.567232,0.698132,-0.174533,-0.174533,-0.573688,0.691489,-0.149584,-0.186841,1.29127,0.371998,-0.748457,0.36923
28,40,-0.567232,0.698132,-0.174533,-0.174533,-0.573688,0.691489,-0.149584,-0.186841,1.29127,0.371998,-0.748457,0.36923
28,40,-0.567232,0.698132,-0.174533,-0.174533,-0.573688,0.691489,-0.149584,-0.186841,1.29127,0.371998,-0.748457,0.36923
28,40,-0.567232,0.698132,-0.174533,-0.174533,-0.573688,0.691489,-0.149584,-0.186841,1.29127,0.371998,-0.748457,0.36923
28,40,-0.567232,0.698132,-0.174533,-0.174533,-0.573688,0.691489,-0.149584,-0.186841,1.29127,0.371998,-0.748457,0.36923
28,40,-0.567232,0.698132,-0.174533,-0.174533,-0.573688,0.691489,-0.149524,-0.18686,1.29127,0.371998,-0.750265,0.369821
28,40,-0.567232,0.698132,-0.174533,-0.174533,-0.573688,0.691489,-0.149524,-0.18686,1.29127,0.371998,-0.750265,0.369821
28,40,-0.567232,0.698132,-0.174533,-0.174533,-0.573688,0.691489,-0.149524,-0.18686,1.29127,0.371998,-0.750265,0.369821
28,40,-0.567232,0.698132,-0.174533,-0.174533,-0.573688,0.691489,-0.149524,-0.18686,1.29127,0.371998,-0.750265,0.369821
28,40,-0.567232,0.698132,-0.174533,-0.174533,-0.573688,0.691489,-0.149524,-0.18686,1.29127,0.371998,-0.750265,0.369821
28,40,-0.567232,0.698132,-0.174533,-0.174533,-0.573688,0.691489,-0.149524,-0.18686,1.29127,0.371998,-0.750265,0.369821
28,40,-0.567232,0.698132,-0.174533,-0.174533,-0.573688,0.691489,-0.149524,-0.18686,1.29127,0.371998,-0.750265,0.369821
28,40,-0.567232,0.698132,-0.174533,-0.174533,-0.573688,0.691489,-0.149524,-0.18686,1.29127,0.371998,-0.750265,0.369821
28,40,-0.567232,0.698132,-0.174533,-0.174533,-0.573688,0.691489,-0.149524,-0.18686,1.29127,0.371998,-0.750265,0.369821
28,40,-0.567232,0.698132,-0.174533,-0.174533,-0.573688,0.691489,-0.149524,-0.18686,1.29127,0.371998,-0.750265,0.369821
28,40,-0.567232,0.698132,-0.174533,-0.174533,-0.573688,0.691489,-0.149524,-0.18686,1.29127,0.371998,-0.750265,0.369821
28,40,-0.567232,0.698132,-0.174533,-0.174533,-0.573688,0.691489,-0.149524,-0.18686,1.29127,0.371998,-0.750265,0.369821
28,40,-0.567232,0.698132,-0.174533,-0.174533,-0.573688,0.691489,-0.149524,-0.18686,1.29127,0.371998,-0.750265,0.369821
28,40,-0.567232,0.698132,-0.174533,-0.174533,-0.573688,0.691489,-0.149524,-0.18686,1.29127,0.371998,-0.750265,0.369821
28,40,-0.567232,0.698132,-0.174533,-0.174533,-0.573688,0.691489,-0.149524,-0.18686,1.29127,0.371998,-0.750265,0.369821
28,40,-0.567232,0.698132,-0.174533,-0.174533,-0.573688,0.691489,-0.149524,-0.18686,1.29127,0.371998,-0.750265,0.369821
28,40,-0.567232,0.698132,-0.174533,-0.174533,-0.573688,0.691489,-0.149524,-0.18686,1.29127,0.371998,-0.750265,0.369821
28,40,-0.567232,0.698132,-0.174533,-0.174533,-0.573688,0.691489,-0.149524,-0.18686,1.29127,0.371998,-0.750265,0.369821
28,40,-0.567232,0.698132,-0.174533,-0.174533,-0.573688,0.691489,-0.149524,-0.18686,1.29127,0.371998,-0.750265,0.369821
28,40,-0.567232,0.698132,-0.174533,-0.174533,-0.573688,0.691489,-0.149524,-0.18686,1.29127,0.371998,-0.750265,0.369821
28,40,-0.567232,0.698132,-0.174533,-0.174533,-0.573688,0.691489,-0.149524,-0.18686,1.29127,0.371998,-0.750265,0.369821
28,40,-0.567232,0.698132,-0.174533,-0.174533,-0.573688,0.691489,-0.149464,-0.18688,1.29127,0.371998,-0.752073,0.370412
28,40,-0.567232,0.698132,-0.174533,-0.174533,-0.573688,0.691489,-0.149464,-0.18688,1.29127,0.371998,-0.752073,0.370412
28,40,-0.567232,0.698132,-0.174533,-0.174533,-0.573688,0.691489,-0.149464,-0.18688,1.29127,0.371998,-0.752073,0.370412
28,40,-0.567232,0.698132,-0.174533,-0.174533,-0.573688,0.691489,-0.149464,-0.18688,1.29127,0.371998,-0.752073,0.370412
28,40,-0.567232,0.698132,-0.174533,-0.174533,-0.573688,0.691489,-0.149464,-0.18688,1.29127,0.371998,-0.752073,0.370412
28,40,-0.567232,0.698132,-0.174533,-0.174533,-0.573688,0.691489,-0.149464,-0.18688,1.29127,0.371998,-0.752073,0.370412
28,40,-0.567232,0.698132,-0.174533,-0.174533,-0.573688,0.691489,-0.149464,-0.18688,1.29127,0.371998,-0.752073,0.370412
28,40,-0.567232,0.698132,-0.174533,-0.174533,-0.573688,0.691489,-0.149464,-0.18688,1.29127,0.371998,-0.752073,0.370412
28,40,-0.567232,0.698132,-0.174533,-0.174533,-0.573688,0.691489,-0.149464,-0.18688,1.29127,0.371998,-0.752073,0.370412
28,40,-0.567232,0.698132,-0.174533,-0.174533,-0.573688,0.691489,-0.149464,-0.18688,1.29127,0.371998,-0.752073,0.370412
28,40,-0.567232,0.698132,-0.174533,-0.174533,-0.573688,0.691489,-0.149464,-0.18688,1.29127,0.371998,-0.752073,0.370412
28,40,-0.567232,0.698132,-0.174533,-0.174533,-0.573688,0.691489,-0.149464,-0.18688,1.29127,0.371998,-0.752073,0.370412
28,40,-0.567232,0.698132,-0.174533,-0.174533,-0.573688,0.691489,-0.149464,-0.18688,1.29127,0.371998,-0.752073,0.370412
28,40,-0.567232,0.698132,-0.174533,-0.174533,-0.573688,0.691489,-0.149464,-0.18688,1.29127,0.371998,-0.752073,0.370412
28,40,-0.567232,0.698132,-0.174533,-0.174533,-0.573688,0.691489,-0.149464,-0.18688,1.29127,0.371998,-0.752073,0.370412
28,40,-0.567232,0.698132,-0.174533,-0.174533,-0.573688,0.691489,-0.149464,-0.18688,1.29127,0.371998,-0.752073,0.370412
28,40,-0.567232,0.698132,-0.174533,-0.174533,-0.573688,0.691489,-0.149464,-0.18688,1.29127,0.371998,-0.752073,0.370412
28,40,-0.567232,0.698132,-0.174533,-0.174533,-0.573688,0.691489,-0.149464,-0.18688,1.29127,0.371998,-0.752073,0.370412
28,40,-0.567232,0.698132,-0.174533,-0.174533,-0.573688,0.691489,-0.149464,-0.18688,1.29127,0.371998,-0.752073,0.370412
28,40,-0.567232,0.698132,-0.174533,-0.174533,-0.573688,0.691489,-0.149464,-0.18688,1.29127,0.371998,-0.752073,0.370412
28,40,-0.567232,0.698132,-0.174533,-0.174533,-0.573688,0.691489,-0.149464,-0.18688,1.29127,0.371998,-0.752073,0.370412
28,40,-0.567232,0.698132,-0.174533,-0.174533,-0.573688,0.691489,-0.149464,-0.18688,1.29127,0.371998,-0.752073,0.370412
28,40,-0.567232,0.698132,-0.174533,-0.174533,-0.573688,0.691489,-0.149464,-0.18688,1.29127,0.371998,-0.752073,0.370412
28,40,-0.567232,0.698132,-0.174533,-0.174533,-0.573688,0.691489,-0.149464,-0.18688,1.29127,0.371998,-0.752073,0.370412
28,40,-0.567232,0.698132,-0.174533,-0.174533,-0.573688,0.691489,-0.149464,-0.18688,1.29127,0.371998,-0.752073,0.370412
28,40,-0.567232,0.698132,-0.174533,-0.174533,-0.573688,0.691489,-0.149464,-0.18688,1.29127,0.371998,-0.752073,0.370412
28,40,-0.567232,0.698132,-0.174533,-0.174533,-0.573688,0.691489,-0.149464,-0.18688,1.29127,0.371998,-0.752073,0.370412
28,40,-0.567232,0.698132,-0.174533,-0.174533,-0.573688,0.691489,-0.149464,-0.18688,1.29127,0.371998,-0.752073,0.370412
28,40,-0.567232,0.698132,-0.174533,-0.174533,-0.573688,0.691489,-0.149464,-0.18688,1.29127,0.371998,-0.752073,0.370412
28,40,-0.567232,0.698132,-0.174533,-0.174533,-0.573688,0.691489,-0.149464,-0.18688,1.29127,0.371998,-0.752073,0.370412
28,40,-0.567232,0.698132,-0.174533,-0.174533,-0.573688,0.691489,-0.149464,-0.18688,1.29127,0.371998,-0.752073,0.370412
28,40,-0.567232,0.698132,-0.174533,-0.174533,-0.573688,0.691489,-0.149464,-0.18688,1.29127,0.371998,-0.752073,0.370412
28,40,-0.567232,0.698132,-0.174533,-0.174533,-0.573688,0.691489,-0.149464,-0.18688,1.29127,0.371998,-0.752073,0.370412
28,40,-0.567232,0.698132,-0.174533,-0.174533,-0.573688,0.691489,-0.149464,-0.18688,1.29127,0.371998,-0.752073,0.370412
28,40,-0.567232,0.698132,-0.174533,-0.174533,-0.573688,0.691489,-0.149404,-0.1869,1.29127,0.371998,-0.753882,0.371003
28,40,-0.567232,0.698132,-0.174533,-0.174533,-0.573688,0.691489,-0.149404,-0.1869,1.29127,0.371998,-0.753882,0.371003
28,40,-0.567232,0.698132,-0.174533,-0.174533,-0.573688,0.691489,-0.149404,-0.1869,1.29127,0.371998,-0.753882,0.371003
28,40,-0.567232,0.698132,-0.174533,-0.174533,-0.573688,0.691489,-0.149404,-0.1869,1.29127,0.371998,-0.753882,0.371003
28,40,-0.567232,0.698132,-0.174533,-0.174533,-0.573688,0.691489,-0.149404,-0.1869,1.29127,0.371998,-0.753882,0.371003
28,40,-0.567232,0.698132,-0.174533,-0.174533,-0.573688,0.691489,-0.149404,-0.1869,1.29127,0.371998,-0.753882,0.371003
28,40,-0.567232,0.698132,-0.174533,-0.174533,-0.573688,0.691489,-0.149404,-0.1869,1.29127,0.371998,-0.753882,0.371003
28,40,-0.567232,0.698132,-0.174533,-0.174533,-0.573688,0.691489,-0.149404,-0.1869,1.29127,0.371998,-0.753882,0.371003
28,40,-0.567232,0.698132,-0.174533,-0.174533,-0.573688,0.691489,-0.149404,-0.1869,1.29127,0.371998,-0.753882,0.371003
28,40,-0.567232,0.698132,-0.174533,-0.174533,-0.573688,0.691489,-0.149404,-0.1869,1.29127,0.371998,-0.753882,0.371003
28,40,-0.567232,0.698132,-0.174533,-0.174533,-0.573688,0.691489,-0.149404,-0.1869,1.29127,0.371998,-0.753882,0.371003
28,40,-0.567232,0.698132,-0.174533,-0.174533,-0.573688,0.691489,-0.149404,-0.1869,1.29127,0.371998,-0.753882,0.371003
28,40,-0.567232,0.698132,-0.174533,-0.174533,-0.573688,0.691489,-0.149404,-0.1869,1.29127,0.371998,-0.753882,0.371003
28,40,-0.567232,0.698132,-0.174533,-0.174533,-0.573688,0.691489,-0.149404,-0.1869,1.29127,0.371998,-0.753882,0.371003
28,40,-0.567232,0.698132,-0.174533,-0.174533,-0.573688,0.691489,-0.149404,-0.1869,1.29127,0.371998,-0.753882,0.371003
28,40,-0.567232,0.698132,-0.174533,-0.174533,-0.573688,0.691489,-0.149404,-0.1869,1.29127,0.371998,-0.753882,0.371003
28,40,-0.567232,0.698132,-0.174533,-0.174533,-0.573688,0.691489,-0.149404,-0.1869,1.29127,0.371998,-0.753882,0.371003
28,40,-0.567232,0.698132,-0.174533,-0.174533,-0.573688,0.691489,-0.149404,-0.1869,1.29127,0.371998,-0.753882,0.371003
28,40,-0.567232,0.698132,-0.174533,-0.174533,-0.573688,0.691489,-0.149404,-0.1869,1.29127,0.371998,-0.753882,0.371003
28,40,-0.567232,0.698132,-0.174533,-0.174533,-0.573688,0.691489,-0.149404,-0.1869,1.29127,0.371998,-0.753882,0.371003
28,40,-0.567232,0.698132,-0.174533,-0.174533,-0.573688,0.691489,-0.149404,-0.1869,1.29127,0.371998,-0.753882,0.371003
28,40,-0.567232,0.698132,-0.174533,-0.174533,-0.573688,0.691489,-0.149404,-0.1869,1.29127,0.371998,-0.753882,0.371003
28,40,-0.567232,0.698132,-0.174533,-0.174533,-0.573688,0.691489,-0.149404,-0.1869,1.29127,0.371998,-0.753882,0.371003
28,40,-0.567232,0.698132,-0.174533,-0.174533,-0.573688,0.691489,-0.149404,-0.1869,1.29127,0.371998,-0.753882,0.371003
28,40,-0.567232,0.698132,-0.174533,-0.174533,-0.573688,0.691489,-0.149404,-0.1869,1.29127,0.371998,-0.753882,0.371003
28,40,-0.567232,0.698132,-0.174533,-0.174533,-0.573688,0.691489,-0.149404,-0.1869,1.29127,0.371998,-0.753882,0.371003
28,40,-0.567232,0.698132,-0.174533,-0.174533,-0.573688,0.691489,-0.149404,-0.1869,1.29127,0.371998,-0.753882,0.371003
28,40,-0.567232,0.698132,-0.174533,-0.174533,-0.573688,0.691489,-0.149404,-0.1869,1.29127,0.371998,-0.753882,0.371003
28,40,-0.567232,0.698132,-0.174533,-0.174533,-0.573688,0.691489,-0.149404,-0.1869,1.29127,0.371998,-0.753882,0.371003
28,40,-0.567232,0.698132,-0.174533,-0.174533,-0.573688,0.691489,-0.149404,-0.1869,1.29127,0.371998,-0.753882,0.371003
28,40,-0.567232,0.698132,-0.174533,-0.174533,-0.573688,0.691489,-0.149404,-0.1869,1.29127,0.371998,-0.753882,0.371003
28,40,-0.567232,0.698132,-0.174533,-0.174533,-0.573688,0.691489,-0.149404,-0.1869,1.29127,0.371998,-0.753882,0.371003
28,40,-0.567232,0.698132,-0.174533,-0.174533,-0.573688,0.691489,-0.149404,-0.1869,1.29127,0.371998,-0.753882,0.371003
28,40,-0.567232,0.698132,-0.174533,-0.174533,-0.573688,0.691489,-0.149404,-0.1869,1.29127,0.371998,-0.753882,0.371003
28,40,-0.567232,0.698132,-0.174533,-0.174533,-0.573688,0.691489,-0.149404,-0.1869,1.29127,0.371998,-0.753882,0.371003
28,40,-0.567232,0.698132,-0.174533,-0.174533,-0.573688,0.691489,-0.149404,-0.1869,1.29127,0.371998,-0.753882,0.371003
28,40,-0.567232,0.698132,-0.174533,-0.174533,-0.573688,0.691489,-0.149404,-0.1869,1.29127,0.371998,-0.753882,0.371003
28,40,-0.567232,0.698132,-0.174533,-0.174533,-0.573688,0.691489,-0.149404,-0.1869,1.29127,0.371998,-0.753882,0.371003
28,40,-0.567232,0.698132,-0.174533,-0.174533,-0.573688,0.691489,-0.149404,-0.1869,1.29127,0.371998,-0.753882,0.371003
28,40,-0.567232,0.698132,-0.174533,-0.174533,-0.573688,0.691489,-0.149404,-0.1869,1.29127,0.371998,-0.753882,0.371003
28,40,-0.567232,0.698132,-0.174533,-0.174533,-0.573688,0.691489,-0.149404,-0.1869,1.29127,0.371998,-0.753882,0.371003
28,40,-0.567232,0.698132,-0.174533,-0.174533,-0.573688,0.691489,-0.149404,-0.1869,1.29127,0.371998,-0.753882,0.371003
28,40,-0.567232,0.698132,-0.174533,-0.174533,-0.573688,0.691489,-0.149404,-0.1869,1.29127,0.371998,-0.753882,0.371003
28,40,-0.567232,0.698132,-0.174533,-0.174533,-0.573688,0.691489,-0.149404,-0.1869,1.29127,0.371998,-0.753882,0.371003
28,40,-0.567232,0.698132,-0.174533,-0.174533,-0.573688,0.691489,-0.149404,-0.1869,1.29127,0.371998,-0.753882,0.371003
28,40,-0.567232,0.698132,-0.174533,-0.174533,-0.573688,0.691489,-0.149404,-0.1869,1.29127,0.371998,-0.753882,0.371003
28,40,-0.567232,0.698132,-0.174533,-0.174533,-0.573688,0.691489,-0.149404,-0.1869,1.29127,0.371998,-0.753882,0.371003
28,40,-0.567232,0.698132,-0.174533,-0.174533,-0.573688,0.691489,-0.149404,-0.1869,1.29127,0.371998,-0.753882,0.371003
28,40,-0.567232,0.698132,-0.174533,-0.174533,-0.573688,0.691489,-0.149404,-0.1869,1.29127,0.371998,-0.753882,0.371003
28,40,-0.567232,0.698132,-0.174533,-0.174533,-0.573688,0.691489,-0.149404,-0.1869,1.29127,0.371998,-0.753882,0.371003
28,40,-0.567232,0.698132,-0.174533,-0.174533,-0.573688,0.691489,-0.149404,-0.1869,1.29127,0.371998,-0.753882,0.371003
28,40,-0.567232,0.698132,-0.174533,-0.174533,-0.573688,0.691489,-0.149404,-0.1869,1.29127,0.371998,-0.753882,0.371003
28,40,-0.567232,0.698132,-0.174533,-0.174533,-0.573688,0.691489,-0.149404,-0.1869,1.29127,0.371998,-0.753882,0.371003
28,40,-0.567232,0.698132,-0.174533,-0.174533,-0.573688,0.691489,-0.149404,-0.1869,1.29127,0.371998,-0.753882,0.371003
28,40,-0.567232,0.698132,-0.174533,-0.174533,-0.573688,0.691489,-0.149404,-0.1869,1.29127,0.371998,-0.753882,0.371003
28,40,-0.567232,0.698132,-0.174533,-0.174533,-0.573688,0.691489,-0.149404,-0.1869,1.29127,0.371998,-0.753882,0.371003
28,40,-0.567232,0.698132,-0.174533,-0.174533,-0.573688,0.691489,-0.149404,-0.1869,1.29127,0.371998,-0.753882,0.371003
28,40,-0.567232,0.698132,-0.174533,-0.174533,-0.573688,0.691489,-0.149404,-0.1869,1.29127,0.371998,-0.753882,0.371003
28,40,-0.567232,0.698132,-0.174533,-0.174533,-0.573688,0.691489,-0.149404,-0.1869,1.29127,0.371998,-0.753882,0.371003
28,40,-0.567232,0.698132,-0.174533,-0.174533,-0.573688,0.691489,-0.149404,-0.1869,1.29127,0.371998,-0.753882,0.371003
28,40,-0.567232,0.698132,-0.174533,-0.174533,-0.573688,0.691489,-0.149404,-0.1869,1.29127,0.371998,-0.753882,0.371003
28,40,-0.567232,0.698132,-0.174533,-0.174533,-0.573688,0.691489,-0.149404,-0.1869,1.29127,0.371998,-0.753882,0.371003
28,40,-0.567232,0.698132,-0.174533,-0.174533,-0.573688,0.691489,-0.149404,-0.1869,1.29127,0.371998,-0.753882,0.371003
28,40,-0.567232,0.698132,-0.174533,-0.174533,-0.573688,0.691489,-0.149404,-0.1869,1.29127,0.371998,-0.753882,0.371003
28,40,-0.567232,0.698132,-0.174533,-0.174533,-0.573688,0.691489,-0.149404,-0.1869,1.29127,0.371998,-0.753882,0.371003
28,40,-0.567232,0.698132,-0.174533,-0.174533,-0.573688,0.691489,-0.149404,-0.1869,1.29127,0.371998,-0.753882,0.371003
28,40,-0.567232,0.698132,-0.174533,-0.174533,-0.573688,0.691489,-0.149404,-0.1869,1.29127,0.371998,-0.753882,0.371003
28,40,-0.567232,0.698132,-0.174533,-0.174533,-0.573688,0.691489,-0.149404,-0.1869,1.29127,0.371998,-0.753882,0.371003
28,40,-0.567232,0.698132,-0.174533,-0.174533,-0.573688,0.691489,-0.149404,-0.1869,1.29127,0.371998,-0.753882,0.371003
28,40,-0.567232,0.698132,-0.174533,-0.174533,-0.573688,0.691489,-0.149404,-0.1869,1.29127,0.371998,-0.753882,0.371003
28,40,-0.567232,0.698132,-0.174533,-0.174533,-0.573688,0.691489,-0.149404,-0.1869,1.29127,0.371998,-0.753882,0.371003
28,40,-0.567232,0.698132,-0.174533,-0.174533,-0.573688,0.691489,-0.149404,-0.1869,1.29127,0.371998,-0.753882,0.371003
28,40,-0.567232,0.698132,-0.174533,-0.174533,-0.573688,0.691489,-0.149404,-0.1869,1.29127,0.371998,-0.753882,0.371003
28,40,-0.567232,0.698132,-0.174533,-0.174533,-0.573688,0.691489,-0.149404,-0.1869,1.29127,0.371998,-0.753882,0.371003
28,40,-0.567232,0.698132,-0.174533,-0.174533,-0.573688,0.691489,-0.149404,-0.1869,1.29127,0.371998,-0.753882,0.371003
28,40,-0.567232,0.698132,-0.174533,-0.174533,-0.573688,0.691489,-0.149404,-0.1869,1.29127,0.371998,-0.753882,0.371003
28,40,-0.567232,0.698132,-0.174533,-0.174533,-0.573688,0.691489,-0.149404,-0.1869,1.29127,0.371998,-0.753882,0.371003
28,40,-0.567232,0.698132,-0.174533,-0.174533,-0.573688,0.691489,-0.149404,-0.1869,1.29127,0.371998,-0.753882,0.371003
28,40,-0.567232,0.698132,-0.174533,-0.174533,-0.573688,0.691489,-0.149404,-0.1869,1.29127,0.371998,-0.753882,0.371003
28,40,-0.567232,0.698132,-0.174533,-0.174533,-0.573688,0.691489,-0.149404,-0.1869,1.29127,0.371998,-0.753882,0.371003
28,40,-0.567232,0.698132,-0.174533,-0.174533,-0.573688,0.691489,-0.149404,-0.1869,1.29127,0.371998,-0.753882,0.371003
28,40,-0.567232,0.698132,-0.174533,-0.174533,-0.573688,0.691489,-0.149404,-0.1869,1.29127,0.371998,-0.753882,0.371003
28,40,-0.567232,0.698132,-0.174533,-0.174533,-0.573688,0.691489,-0.149404,-0.1869,1.29127,0.371998,-0.753882,0.371003
28,40,-0.567232,0.698132,-0.174533,-0.174533,-0.573688,0.691489,-0.149404,-0.1869,1.29127,0.371998,-0.753882,0.371003
28,40,-0.567232,0.698132,-0.174533,-0.174533,-0.573688,0.691489,-0.149404,-0.1869,1.29127,0.371998,-0.753882,0.371003
28,40,-0.567232,0.698132,-0.174533,-0.174533,-0.573688,0.691489,-0.149404,-0.1869,1.29127,0.371998,-0.753882,0.371003
28,40,-0.567232,0.698132,-0.174533,-0.174533,-0.573688,0.691489,-0.149404,-0.1869,1.29127,0.371998,-0.753882,0.371003
28,40,-0.567232,0.698132,-0.174533,-0.174533,-0.573688,0.691489,-0.149404,-0.1869,1.29127,0.371998,-0.753882,0.371003
28,40,-0.567232,0.698132,-0.174533,-0.174533,-0.573688,0.691489,-0.149404,-0.1869,1.29127,0.371998,-0.753882,0.371003
28,40,-0.567232,0.698132,-0.174533,-0.174533,-0.573688,0.691489,-0.149404,-0.1869,1.29127,0.371998,-0.753882,0.371003
28,40,-0.567232,0.698132,-0.174533,-0.174533,-0.573688,0.691489,-0.149404,-0.1869,1.29127,0.371998,-0.753882,0.371003
28,40,-0.567232,0.698132,-0.174533,-0.174533,-0.573688,0.691489,-0.149404,-0.1869,1.29127,0.371998,-0.753882,0.371003
28,40,-0.567232,0.698132,-0.174533,-0.174533,-0.573688,0.691489,-0.149404,-0.1869,1.29127,0.371998,-0.753882,0.371003
28,40,-0.567232,0.698132,-0.174533,-0.174533,-0.573688,0.691489,-0.149404,-0.1869,1.29127,0.371998,-0.753882,0.371003
28,40,-0.567232,0.698132,-0.174533,-0.174533,-0.573688,0.691489,-0.149404,-0.1869,1.29127,0.371998,-0.753882,0.371003
28,40,-0.567232,0.698132,-0.174533,-0.174533,-0.573688,0.691489,-0.149404,-0.1869,1.29127,0.371998,-0.753882,0.371003
28,40,-0.567232,0.698132,-0.174533,-0.174533,-0.573688,0.691489,-0.149404,-0.1869,1.29127,0.371998,-0.753882,0.371003
28,40,-0.567232,0.698132,-0.174533,-0.174533,-0.573688,0.691489,-0.149404,-0.1869,1.29127,0.371998,-0.753882,0.371003
28,40,-0.567232,0.698132,-0.174533,-0.174533,-0.573688,0.691489,-0.149404,-0.1869,1.29127,0.371998,-0.753882,0.371003
28,40,-0.567232,0.698132,-0.174533,-0.174533,-0.573688,0.691489,-0.149343,-0.186919,1.29127,0.371998,-0.75569,0.371594
28,40,-0.567232,0.698132,-0.174533,-0.174533,-0.573688,0.691489,-0.149343,-0.186919,1.29127,0.371998,-0.75569,0.371594
28,40,-0.567232,0.698132,-0.174533,-0.174533,-0.573688,0.691489,-0.149343,-0.186919,1.29127,0.371998,-0.75569,0.371594
28,40,-0.567232,0.698132,-0.174533,-0.174533,-0.573688,0.691489,-0.149343,-0.186919,1.29127,0.371998,-0.75569,0.371594
28,40,-0.567232,0.698132,-0.174533,-0.174533,-0.573688,0.691489,-0.149343,-0.186919,1.29127,0.371998,-0.75569,0.371594
28,40,-0.567232,0.698132,-0.174533,-0.174533,-0.573688,0.691489,-0.149343,-0.186919,1.29127,0.371998,-0.75569,0.371594
28,40,-0.567232,0.698132,-0.174533,-0.174533,-0.573688,0.691489,-0.149343,-0.186919,1.29127,0.371998,-0.75569,0.371594
28,40,-0.567232,0.698132,-0.174533,-0.174533,-0.573688,0.691489,-0.149343,-0.186919,1.29127,0.371998,-0.75569,0.371594
28,40,-0.567232,0.698132,-0.174533,-0.174533,-0.573688,0.691489,-0.149343,-0.186919,1.29127,0.371998,-0.75569,0.371594
28,40,-0.567232,0.698132,-0.174533,-0.174533,-0.573688,0.691489,-0.149343,-0.186919,1.29127,0.371998,-0.75569,0.371594
28,40,-0.567232,0.698132,-0.174533,-0.174533,-0.573688,0.691489,-0.149343,-0.186919,1.29127,0.371998,-0.75569,0.371594
28,40,-0.567232,0.698132,-0.174533,-0.174533,-0.573688,0.691489,-0.149343,-0.186919,1.29127,0.371998,-0.75569,0.371594
28,40,-0.567232,0.698132,-0.174533,-0.174533,-0.573688,0.691489,-0.149343,-0.186919,1.29127,0.371998,-0.75569,0.371594
28,40,-0.567232,0.698132,-0.174533,-0.174533,-0.573688,0.691489,-0.149343,-0.186919,1.29127,0.371998,-0.75569,0.371594
28,40,-0.567232,0.698132,-0.174533,-0.174533,-0.573688,0.691489,-0.149343,-0.186919,1.29127,0.371998,-0.75569,0.371594
28,40,-0.567232,0.698132,-0.174533,-0.174533,-0.573688,0.691489,-0.149343,-0.186919,1.29127,0.371998,-0.75569,0.371594
28,40,-0.567232,0.698132,-0.174533,-0.174533,-0.573688,0.691489,-0.149343,-0.186919,1.29127,0.371998,-0.75569,0.371594
28,40,-0.567232,0.698132,-0.174533,-0.174533,-0.573688,0.691489,-0.149343,-0.186919,1.29127,0.371998,-0.75569,0.371594
28,40,-0.567232,0.698132,-0.174533,-0.174533,-0.573688,0.691489,-0.149343,-0.186919,1.29127,0.371998,-0.75569,0.371594
28,40,-0.567232,0.698132,-0.174533,-0.174533,-0.573688,0.691489,-0.149343,-0.186919,1.29127,0.371998,-0.75569,0.371594
28,40,-0.567232,0.698132,-0.174533,-0.174533,-0.573688,0.691489,-0.149343,-0.186919,1.29127,0.371998,-0.75569,0.371594
28,40,-0.567232,0.698132,-0.174533,-0.174533,-0.573688,0.691489,-0.149343,-0.186919,1.29127,0.371998,-0.75569,0.371594
28,40,-0.567232,0.698132,-0.174533,-0.174533,-0.573688,0.691489,-0.149343,-0.186919,1.29127,0.371998,-0.75569,0.371594
28,40,-0.567232,0.698132,-0.174533,-0.174533,-0.573688,0.691489,-0.149343,-0.186919,1.29127,0.371998,-0.75569,0.371594
28,40,-0.567232,0.698132,-0.174533,-0.174533,-0.573688,0.691489,-0.149343,-0.186919,1.29127,0.371998,-0.75569,0.371594
28,40,-0.567232,0.698132,-0.174533,-0.174533,-0.573688,0.691489,-0.149343,-0.186919,1.29127,0.371998,-0.75569,0.371594
28,40,-0.567232,0.698132,-0.174533,-0.174533,-0.573688,0.691489,-0.149343,-0.186919,1.29127,0.371998,-0.75569,0.371594
28,40,-0.567232,0.698132,-0.174533,-0.174533,-0.573688,0.691489,-0.149343,-0.186919,1.29127,0.371998,-0.75569,0.371594
28,40,-0.567232,0.698132,-0.174533,-0.174533,-0.573688,0.691489,-0.149343,-0.186919,1.29127,0.371998,-0.75569,0.371594
28,40,-0.567232,0.698132,-0.174533,-0.174533,-0.573688,0.691489,-0.149343,-0.186919,1.29127,0.371998,-0.75569,0.371594
28,40,-0.567232,0.698132,-0.174533,-0.174533,-0.573688,0.691489,-0.149343,-0.186919,1.29127,0.371998,-0.75569,0.371594
28,40,-0.567232,0.698132,-0.174533,-0.174533,-0.573688,0.691489,-0.149343,-0.186919,1.29127,0.371998,-0.75569,0.371594
28,40,-0.567232,0.698132,-0.174533,-0.174533,-0.573688,0.691489,-0.149343,-0.186919,1.29127,0.371998,-0.75569,0.371594
28,40,-0.567232,0.698132,-0.174533,-0.174533,-0.573688,0.691489,-0.149343,-0.186919,1.29127,0.371998,-0.75569,0.371594
28,40,-0.567232,0.698132,-0.174533,-0.174533,-0.573688,0.691489,-0.149343,-0.186919,1.29127,0.371998,-0.75569,0.371594
28,40,-0.567232,0.698132,-0.174533,-0.174533,-0.573688,0.691489,-0.149343,-0.186919,1.29127,0.371998,-0.75569,0.371594
28,40,-0.567232,0.698132,-0.174533,-0.174533,-0.573688,0.691489,-0.149343,-0.186919,1.29127,0.371998,-0.75569,0.371594
28,40,-0.567232,0.698132,-0.174533,-0.174533,-0.573688,0.691489,-0.149343,-0.186919,1.29127,0.371998,-0.75569,0.371594
28,40,-0.567232,0.698132,-0.174533,-0.174533,-0.573688,0.691489,-0.149343,-0.186919,1.29127,0.371998,-0.75569,0.371594
28,40,-0.567232,0.698132,-0.174533,-0.174533,-0.573688,0.691489,-0.149343,-0.186919,1.29127,0.371998,-0.75569,0.371594
28,40,-0.567232,0.698132,-0.174533,-0.174533,-0.573688,0.691489,-0.149343,-0.186919,1.29127,0.371998,-0.75569,0.371594
28,40,-0.567232,0.698132,-0.174533,-0.174533,-0.573688,0.691489,-0.149343,-0.186919,1.29127,0.371998,-0.75569,0.371594
28,40,-0.567232,0.698132,-0.174533,-0.174533,-0.573688,0.691489,-0.149343,-0.186919,1.29127,0.371998,-0.75569,0.371594
28,40,-0.567232,0.698132,-0.174533,-0.174533,-0.573688,0.691489,-0.149343,-0.186919,1.29127,0.371998,-0.75569,0.371594
28,40,-0.567232,0.698132,-0.174533,-0.174533,-0.573688,0.691489,-0.149343,-0.186919,1.29127,0.371998,-0.75569,0.371594
28,40,-0.567232,0.698132,-0.174533,-0.174533,-0.573688,0.691489,-0.149343,-0.186919,1.29127,0.371998,-0.75569,0.371594
28,40,-0.567232,0.698132,-0.174533,-0.174533,-0.573688,0.691489,-0.149343,-0.186919,1.29127,0.371998,-0.75569,0.371594
28,40,-0.567232,0.698132,-0.174533,-0.174533,-0.573688,0.691489,-0.149343,-0.186919,1.29127,0.371998,-0.75569,0.371594
28,40,-0.567232,0.698132,-0.174533,-0.174533,-0.573688,0.691489,-0.149343,-0.186919,1.29127,0.371998,-0.75569,0.371594
28,40,-0.567232,0.698132,-0.174533,-0.174533,-0.573688,0.691489,-0.149343,-0.186919,1.29127,0.371998,-0.75569,0.371594
28,40,-0.567232,0.698132,-0.174533,-0.174533,-0.573688,0.691489,-0.149343,-0.186919,1.29127,0.371998,-0.75569,0.371594
28,40,-0.567232,0.698132,-0.174533,-0.174533,-0.573688,0.691489,-0.149343,-0.186919,1.29127,0.371998,-0.75569,0.371594
28,40,-0.567232,0.698132,-0.174533,-0.174533,-0.573688,0.691489,-0.149343,-0.186919,1.29127,0.371998,-0.75569,0.371594
28,40,-0.567232,0.698132,-0.174533,-0.174533,-0.573688,0.691489,-0.149343,-0.186919,1.29127,0.371998,-0.75569,0.371594
28,40,-0.567232,0.698132,-0.174533,-0.174533,-0.573688,0.691489,-0.149343,-0.186919,1.29127,0.371998,-0.75569,0.371594
28,40,-0.567232,0.698132,-0.174533,-0.174533,-0.573688,0.691489,-0.149343,-0.186919,1.29127,0.371998,-0.75569,0.371594
28,40,-0.567232,0.698132,-0.174533,-0.174533,-0.573688,0.691489,-0.149343,-0.186919,1.29127,0.371998,-0.75569,0.371594
28,40,-0.567232,0.698132,-0.174533,-0.174533,-0.573688,0.691489,-0.149283,-0.186939,1.29127,0.371998,-0.757498,0.372185
28,40,-0.567232,0.698132,-0.174533,-0.174533,-0.573688,0.691489,-0.149283,-0.186939,1.29127,0.371998,-0.757498,0.372185
28,40,-0.567232,0.698132,-0.174533,-0.174533,-0.573688,0.691489,-0.149283,-0.186939,1.29127,0.371998,-0.757498,0.372185
28,40,-0.567232,0.698132,-0.174533,-0.174533,-0.573688,0.691489,-0.149283,-0.186939,1.29127,0.371998,-0.757498,0.372185
28,40,-0.567232,0.698132,-0.174533,-0.174533,-0.573688,0.691489,-0.149283,-0.186939,1.29127,0.371998,-0.757498,0.372185
28,40,-0.567232,0.698132,-0.174533,-0.174533,-0.573688,0.691489,-0.149283,-0.186939,1.29127,0.371998,-0.757498,0.372185
28,40,-0.567232,0.698132,-0.174533,-0.174533,-0.573688,0.691489,-0.149283,-0.186939,1.29127,0.371998,-0.757498,0.372185
28,40,-0.567232,0.698132,-0.174533,-0.174533,-0.573688,0.691489,-0.149283,-0.186939,1.29127,0.371998,-0.757498,0.372185
28,40,-0.567232,0.698132,-0.174533,-0.174533,-0.573688,0.691489,-0.149283,-0.186939,1.29127,0.371998,-0.757498,0.372185
28,40,-0.567232,0.698132,-0.174533,-0.174533,-0.573688,0.691489,-0.149283,-0.186939,1.29127,0.371998,-0.757498,0.372185
28,40,-0.567232,0.698132,-0.174533,-0.174533,-0.573688,0.691489,-0.149283,-0.186939,1.29127,0.371998,-0.757498,0.372185
28,40,-0.567232,0.698132,-0.174533,-0.174533,-0.573688,0.691489,-0.149283,-0.186939,1.29127,0.371998,-0.757498,0.372185
28,40,-0.567232,0.698132,-0.174533,-0.174533,-0.573688,0.691489,-0.149283,-0.186939,1.29127,0.371998,-0.757498,0.372185
28,40,-0.567232,0.698132,-0.174533,-0.174533,-0.573688,0.691489,-0.149283,-0.186939,1.29127,0.371998,-0.757498,0.372185
28,40,-0.567232,0.698132,-0.174533,-0.174533,-0.573688,0.691489,-0.149283,-0.186939,1.29127,0.371998,-0.757498,0.372185
28,40,-0.567232,0.698132,-0.174533,-0.174533,-0.573688,0.691489,-0.149283,-0.186939,1.29127,0.371998,-0.757498,0.372185
28,40,-0.567232,0.698132,-0.174533,-0.174533,-0.573688,0.691489,-0.149283,-0.186939,1.29127,0.371998,-0.757498,0.372185
28,40,-0.567232,0.698132,-0.174533,-0.174533,-0.573688,0.691489,-0.149283,-0.186939,1.29127,0.371998,-0.757498,0.372185
28,40,-0.567232,0.698132,-0.174533,-0.174533,-0.573688,0.691489,-0.149283,-0.186939,1.29127,0.371998,-0.757498,0.372185
28,40,-0.567232,0.698132,-0.174533,-0.174533,-0.573688,0.691489,-0.149283,-0.186939,1.29127,0.371998,-0.757498,0.372185
28,40,-0.567232,0.698132,-0.174533,-0.174533,-0.573688,0.691489,-0.149283,-0.186939,1.29127,0.371998,-0.757498,0.372185
28,40,-0.567232,0.698132,-0.174533,-0.174533,-0.573688,0.691489,-0.149283,-0.186939,1.29127,0.371998,-0.757498,0.372185
28,40,-0.567232,0.698132,-0.174533,-0.174533,-0.573688,0.691489,-0.149283,-0.186939,1.29127,0.371998,-0.757498,0.372185
28,40,-0.567232,0.698132,-0.174533,-0.174533,-0.573688,0.691489,-0.149283,-0.186939,1.29127,0.371998,-0.757498,0.372185
28,40,-0.567232,0.698132,-0.174533,-0.174533,-0.573688,0.691489,-0.149283,-0.186939,1.29127,0.371998,-0.757498,0.372185
28,40,-0.567232,0.698132,-0.174533,-0.174533,-0.573688,0.691489,-0.149283,-0.186939,1.29127,0.371998,-0.757498,0.372185
28,40,-0.567232,0.698132,-0.174533,-0.174533,-0.573688,0.691489,-0.149283,-0.186939,1.29127,0.371998,-0.757498,0.372185
28,40,-0.567232,0.698132,-0.174533,-0.174533,-0.573688,0.691489,-0.149283,-0.186939,1.29127,0.371998,-0.757498,0.372185
28,40,-0.567232,0.698132,-0.174533,-0.174533,-0.573688,0.691489,-0.149283,-0.186939,1.29127,0.371998,-0.757498,0.372185
28,40,-0.567232,0.698132,-0.174533,-0.174533,-0.573688,0.691489,-0.149283,-0.186939,1.29127,0.371998,-0.757498,0.372185
28,40,-0.567232,0.698132,-0.174533,-0.174533,-0.573688,0.691489,-0.149283,-0.186939,1.29127,0.371998,-0.757498,0.372185
28,40,-0.567232,0.698132,-0.174533,-0.174533,-0.573688,0.691489,-0.149283,-0.186939,1.29127,0.371998,-0.757498,0.372185
28,40,-0.567232,0.698132,-0.174533,-0.174533,-0.573688,0.691489,-0.149283,-0.186939,1.29127,0.371998,-0.757498,0.372185
28,40,-0.567232,0.698132,-0.174533,-0.174533,-0.573688,0.691489,-0.149283,-0.186939,1.29127,0.371998,-0.757498,0.372185
28,40,-0.567232,0.698132,-0.174533,-0.174533,-0.573688,0.691489,-0.149283,-0.186939,1.29127,0.371998,-0.757498,0.372185
28,40,-0.567232,0.698132,-0.174533,-0.174533,-0.573688,0.691489,-0.149283,-0.186939,1.29127,0.371998,-0.757498,0.372185
28,40,-0.567232,0.698132,-0.174533,-0.174533,-0.573688,0.691489,-0.149283,-0.186939,1.29127,0.371998,-0.757498,0.372185
28,40,-0.567232,0.698132,-0.174533,-0.174533,-0.573688,0.691489,-0.149283,-0.186939,1.29127,0.371998,-0.757498,0.372185
28,40,-0.567232,0.698132,-0.174533,-0.174533,-0.573688,0.691489,-0.149283,-0.186939,1.29127,0.371998,-0.757498,0.372185
28,40,-0.567232,0.698132,-0.174533,-0.174533,-0.573688,0.691489,-0.149283,-0.186939,1.29127,0.371998,-0.757498,0.372185
28,40,-0.567232,0.698132,-0.174533,-0.174533,-0.573688,0.691489,-0.149283,-0.186939,1.29127,0.371998,-0.757498,0.372185
28,40,-0.567232,0.698132,-0.174533,-0.174533,-0.573688,0.691489,-0.149283,-0.186939,1.29127,0.371998,-0.757498,0.372185
28,40,-0.567232,0.698132,-0.174533,-0.174533,-0.573688,0.691489,-0.149283,-0.186939,1.29127,0.371998,-0.757498,0.372185
28,40,-0.567232,0.698132,-0.174533,-0.174533,-0.573688,0.691489,-0.149283,-0.186939,1.29127,0.371998,-0.757498,0.372185
28,40,-0.567232,0.698132,-0.174533,-0.174533,-0.573688,0.691489,-0.149283,-0.186939,1.29127,0.371998,-0.757498,0.372185
28,40,-0.567232,0.698132,-0.174533,-0.174533,-0.573688,0.691489,-0.149283,-0.186939,1.29127,0.371998,-0.757498,0.372185
28,40,-0.567232,0.698132,-0.174533,-0.174533,-0.573688,0.691489,-0.149283,-0.186939,1.29127,0.371998,-0.757498,0.372185
28,40,-0.567232,0.698132,-0.174533,-0.174533,-0.573688,0.691489,-0.149283,-0.186939,1.29127,0.371998,-0.757498,0.372185
28,40,-0.567232,0.698132,-0.174533,-0.174533,-0.573688,0.691489,-0.149283,-0.186939,1.29127,0.371998,-0.757498,0.372185
28,40,-0.567232,0.698132,-0.174533,-0.174533,-0.573688,0.691489,-0.149283,-0.186939,1.29127,0.371998,-0.757498,0.372185
28,40,-0.567232,0.698132,-0.174533,-0.174533,-0.573688,0.691489,-0.149283,-0.186939,1.29127,0.371998,-0.757498,0.372185
28,40,-0.567232,0.698132,-0.174533,-0.174533,-0.573688,0.691489,-0.149283,-0.186939,1.29127,0.371998,-0.757498,0.372185
28,40,-0.567232,0.698132,-0.174533,-0.174533,-0.573688,0.691489,-0.149283,-0.186939,1.29127,0.371998,-0.757498,0.372185
28,40,-0.567232,0.698132,-0.174533,-0.174533,-0.573688,0.691489,-0.149283,-0.186939,1.29127,0.371998,-0.757498,0.372185
28,40,-0.567232,0.698132,-0.174533,-0.174533,-0.573688,0.691489,-0.149283,-0.186939,1.29127,0.371998,-0.757498,0.372185
28,40,-0.567232,0.698132,-0.174533,-0.174533,-0.573688,0.691489,-0.149283,-0.186939,1.29127,0.371998,-0.757498,0.372185
28,40,-0.567232,0.698132,-0.174533,-0.174533,-0.573688,0.691489,-0.149283,-0.186939,1.29127,0.371998,-0.757498,0.372185
28,40,-0.567232,0.698132,-0.174533,-0.174533,-0.573688,0.691489,-0.149283,-0.186939,1.29127,0.371998,-0.757498,0.372185
28,40,-0.567232,0.698132,-0.174533,-0.174533,-0.573688,0.691489,-0.149283,-0.186939,1.29127,0.371998,-0.757498,0.372185
28,40,-0.567232,0.698132,-0.174533,-0.174533,-0.573688,0.691489,-0.149283,-0.186939,1.29127,0.371998,-0.757498,0.372185
28,40,-0.567232,0.698132,-0.174533,-0.174533,-0.573688,0.691489,-0.149283,-0.186939,1.29127,0.371998,-0.757498,0.372185
28,40,-0.567232,0.698132,-0.174533,-0.174533,-0.573688,0.691489,-0.149283,-0.186939,1.29127,0.371998,-0.757498,0.372185
28,40,-0.567232,0.698132,-0.174533,-0.174533,-0.573688,0.691489,-0.149283,-0.186939,1.29127,0.371998,-0.757498,0.372185
28,40,-0.567232,0.698132,-0.174533,-0.174533,-0.573688,0.691489,-0.149283,-0.186939,1.29127,0.371998,-0.757498,0.372185
28,40,-0.567232,0.698132,-0.174533,-0.174533,-0.573688,0.691489,-0.149283,-0.186939,1.29127,0.371998,-0.757498,0.372185
28,40,-0.567232,0.698132,-0.174533,-0.174533,-0.573688,0.691489,-0.149283,-0.186939,1.29127,0.371998,-0.757498,0.372185
28,40,-0.567232,0.698132,-0.174533,-0.174533,-0.573688,0.691489,-0.149283,-0.186939,1.29127,0.371998,-0.757498,0.372185
28,40,-0.567232,0.698132,-0.174533,-0.174533,-0.573688,0.691489,-0.149283,-0.186939,1.29127,0.371998,-0.757498,0.372185
28,40,-0.567232,0.698132,-0.174533,-0.174533,-0.573688,0.691489,-0.149283,-0.186939,1.29127,0.371998,-0.757498,0.372185
28,40,-0.567232,0.698132,-0.174533,-0.174533,-0.573688,0.691489,-0.149283,-0.186939,1.29127,0.371998,-0.757498,0.372185
28,40,-0.567232,0.698132,-0.174533,-0.174533,-0.573688,0.691489,-0.149283,-0.186939,1.29127,0.371998,-0.757498,0.372185
28,40,-0.567232,0.698132,-0.174533,-0.174533,-0.573688,0.691489,-0.149283,-0.186939,1.29127,0.371998,-0.757498,0.372185
28,40,-0.567232,0.698132,-0.174533,-0.174533,-0.573688,0.691489,-0.149283,-0.186939,1.29127,0.371998,-0.757498,0.372185
28,40,-0.567232,0.698132,-0.174533,-0.174533,-0.573688,0.691489,-0.149283,-0.186939,1.29127,0.371998,-0.757498,0.372185
28,40,-0.567232,0.698132,-0.174533,-0.174533,-0.573688,0.691489,-0.149283,-0.186939,1.29127,0.371998,-0.757498,0.372185
28,40,-0.567232,0.698132,-0.174533,-0.174533,-0.573688,0.691489,-0.149283,-0.186939,1.29127,0.371998,-0.757498,0.372185
28,40,-0.567232,0.698132,-0.174533,-0.174533,-0.573688,0.691489,-0.149283,-0.186939,1.29127,0.371998,-0.757498,0.372185
28,40,-0.567232,0.698132,-0.174533,-0.174533,-0.573688,0.691489,-0.149283,-0.186939,1.29127,0.371998,-0.757498,0.372185
28,40,-0.567232,0.698132,-0.174533,-0.174533,-0.573688,0.691489,-0.149283,-0.186939,1.29127,0.371998,-0.757498,0.372185
28,40,-0.567232,0.698132,-0.174533,-0.174533,-0.573688,0.691489,-0.149283,-0.186939,1.29127,0.371998,-0.757498,0.372185
28,40,-0.567232,0.698132,-0.174533,-0.174533,-0.573688,0.691489,-0.149283,-0.186939,1.29127,0.371998,-0.757498,0.372185
28,40,-0.567232,0.698132,-0.174533,-0.174533,-0.573688,0.691489,-0.149283,-0.186939,1.29127,0.371998,-0.757498,0.372185
28,40,-0.567232,0.698132,-0.174533,-0.174533,-0.573688,0.691489,-0.149283,-0.186939,1.29127,0.371998,-0.757498,0.372185
28,40,-0.567232,0.698132,-0.174533,-0.174533,-0.573688,0.691489,-0.149283,-0.186939,1.29127,0.371998,-0.757498,0.372185
28,40,-0.567232,0.698132,-0.174533,-0.174533,-0.573688,0.691489,-0.149283,-0.186939,1.29127,0.371998,-0.757498,0.372185
28,40,-0.567232,0.698132,-0.174533,-0.174533,-0.573688,0.691489,-0.149283,-0.186939,1.29127,0.371998,-0.757498,0.372185
28,40,-0.567232,0.698132,-0.174533,-0.174533,-0.573688,0.691489,-0.149283,-0.186939,1.29127,0.371998,-0.757498,0.372185
28,40,-0.567232,0.698132,-0.174533,-0.174533,-0.573688,0.691489,-0.149283,-0.186939,1.29127,0.371998,-0.757498,0.372185
28,40,-0.567232,0.698132,-0.174533,-0.174533,-0.573688,0.691489,-0.149283,-0.186939,1.29127,0.371998,-0.757498,0.372185
28,40,-0.567232,0.698132,-0.174533,-0.174533,-0.573688,0.691489,-0.149283,-0.186939,1.29127,0.371998,-0.757498,0.372185
28,40,-0.567232,0.698132,-0.174533,-0.174533,-0.573688,0.691489,-0.149283,-0.186939,1.29127,0.371998,-0.757498,0.372185
28,40,-0.567232,0.698132,-0.174533,-0.174533,-0.573688,0.691489,-0.149283,-0.186939,1.29127,0.371998,-0.757498,0.372185
28,40,-0.567232,0.698132,-0.174533,-0.174533,-0.573688,0.691489,-0.149283,-0.186939,1.29127,0.371998,-0.757498,0.372185
28,40,-0.567232,0.698132,-0.174533,-0.174533,-0.573688,0.691489,-0.149283,-0.186939,1.29127,0.371998,-0.757498,0.372185
28,40,-0.567232,0.698132,-0.174533,-0.174533,-0.573688,0.691489,-0.149283,-0.186939,1.29127,0.371998,-0.757498,0.372185
28,40,-0.567232,0.698132,-0.174533,-0.174533,-0.573688,0.691489,-0.149283,-0.186939,1.29127,0.371998,-0.757498,0.372185
28,40,-0.567232,0.698132,-0.174533,-0.174533,-0.573688,0.691489,-0.149283,-0.186939,1.29127,0.371998,-0.757498,0.372185
28,40,-0.567232,0.698132,-0.174533,-0.174533,-0.573688,0.691489,-0.149283,-0.186939,1.29127,0.371998,-0.757498,0.372185
28,40,-0.567232,0.698132,-0.174533,-0.174533,-0.573688,0.691489,-0.149283,-0.186939,1.29127,0.371998,-0.757498,0.372185
28,40,-0.567232,0.698132,-0.174533,-0.174533,-0.573688,0.691489,-0.149283,-0.186939,1.29127,0.371998,-0.757498,0.372185
28,40,-0.567232,0.698132,-0.174533,-0.174533,-0.573688,0.691489,-0.149283,-0.186939,1.29127,0.371998,-0.757498,0.372185
28,40,-0.567232,0.698132,-0.174533,-0.174533,-0.573688,0.691489,-0.149283,-0.186939,1.29127,0.371998,-0.757498,0.372185
28,40,-0.567232,0.698132,-0.174533,-0.174533,-0.573688,0.691489,-0.149283,-0.186939,1.29127,0.371998,-0.757498,0.372185
28,40,-0.567232,0.698132,-0.174533,-0.174533,-0.573688,0.691489,-0.149283,-0.186939,1.29127,0.371998,-0.757498,0.372185
28,40,-0.567232,0.698132,-0.174533,-0.174533,-0.573688,0.691489,-0.149283,-0.186939,1.29127,0.371998,-0.757498,0.372185
28,40,-0.567232,0.698132,-0.174533,-0.174533,-0.573688,0.691489,-0.149283,-0.186939,1.29127,0.371998,-0.757498,0.372185
28,40,-0.567232,0.698132,-0.174533,-0.174533,-0.573688,0.691489,-0.149283,-0.186939,1.29127,0.371998,-0.757498,0.372185
28,40,-0.567232,0.698132,-0.174533,-0.174533,-0.573688,0.691489,-0.149283,-0.186939,1.29127,0.371998,-0.757498,0.372185
28,40,-0.567232,0.698132,-0.174533,-0.174533,-0.573688,0.691489,-0.149283,-0.186939,1.29127,0.371998,-0.757498,0.372185
28,40,-0.567232,0.698132,-0.174533,-0.174533,-0.573688,0.691489,-0.149283,-0.186939,1.29127,0.371998,-0.757498,0.372185
28,40,-0.567232,0.698132,-0.174533,-0.174533,-0.573688,0.691489,-0.149283,-0.186939,1.29127,0.371998,-0.757498,0.372185
28,40,-0.567232,0.698132,-0.174533,-0.174533,-0.573688,0.691489,-0.149283,-0.186939,1.29127,0.371998,-0.757498,0.372185
28,40,-0.567232,0.698132,-0.174533,-0.174533,-0.573688,0.691489,-0.149283,-0.186939,1.29127,0.371998,-0.757498,0.372185
28,40,-0.567232,0.698132,-0.174533,-0.174533,-0.573688,0.691489,-0.149283,-0.186939,1.29127,0.371998,-0.757498,0.372185
28,40,-0.567232,0.698132,-0.174533,-0.174533,-0.573688,0.691489,-0.149283,-0.186939,1.29127,0.371998,-0.757498,0.372185
28,40,-0.567232,0.698132,-0.174533,-0.174533,-0.573688,0.691489,-0.149283,-0.186939,1.29127,0.371998,-0.757498,0.372185
28,40,-0.567232,0.698132,-0.174533,-0.174533,-0.573688,0.691489,-0.149283,-0.186939,1.29127,0.371998,-0.757498,0.372185
28,40,-0.567232,0.698132,-0.174533,-0.174533,-0.573688,0.691489,-0.149283,-0.186939,1.29127,0.371998,-0.757498,0.372185
28,40,-0.567232,0.698132,-0.174533,-0.174533,-0.573688,0.691489,-0.149283,-0.186939,1.29127,0.371998,-0.757498,0.372185
28,40,-0.567232,0.698132,-0.174533,-0.174533,-0.573688,0.691489,-0.149283,-0.186939,1.29127,0.371998,-0.757498,0.372185
28,40,-0.567232,0.698132,-0.174533,-0.174533,-0.573688,0.691489,-0.149283,-0.186939,1.29127,0.371998,-0.757498,0.372185
28,40,-0.567232,0.698132,-0.174533,-0.174533,-0.573688,0.691489,-0.149283,-0.186939,1.29127,0.371998,-0.757498,0.372185
28,40,-0.567232,0.698132,-0.174533,-0.174533,-0.573688,0.691489,-0.149283,-0.186939,1.29127,0.371998,-0.757498,0.372185
28,40,-0.567232,0.698132,-0.174533,-0.174533,-0.573688,0.691489,-0.149283,-0.186939,1.29127,0.371998,-0.757498,0.372185
28,40,-0.567232,0.698132,-0.174533,-0.174533,-0.573688,0.691489,-0.149283,-0.186939,1.29127,0.371998,-0.757498,0.372185
28,40,-0.567232,0.698132,-0.174533,-0.174533,-0.573688,0.691489,-0.149283,-0.186939,1.29127,0.371998,-0.757498,0.372185
28,40,-0.567232,0.698132,-0.174533,-0.174533,-0.573688,0.691489,-0.149283,-0.186939,1.29127,0.371998,-0.757498,0.372185
28,40,-0.567232,0.698132,-0.174533,-0.174533,-0.573688,0.691489,-0.149283,-0.186939,1.29127,0.371998,-0.757498,0.372185
28,40,-0.567232,0.698132,-0.174533,-0.174533,-0.573688,0.691489,-0.149283,-0.186939,1.29127,0.371998,-0.757498,0.372185
28,40,-0.567232,0.698132,-0.174533,-0.174533,-0.573688,0.691489,-0.149283,-0.186939,1.29127,0.371998,-0.757498,0.372185
28,40,-0.567232,0.698132,-0.174533,-0.174533,-0.573688,0.691489,-0.149283,-0.186939,1.29127,0.371998,-0.757498,0.372185
28,40,-0.567232,0.698132,-0.174533,-0.174533,-0.573688,0.691489,-0.149283,-0.186939,1.29127,0.371998,-0.757498,0.372185
28,40,-0.567232,0.698132,-0.174533,-0.174533,-0.573688,0.691489,-0.149283,-0.186939,1.29127,0.371998,-0.757498,0.372185
28,40,-0.567232,0.698132,-0.174533,-0.174533,-0.573688,0.691489,-0.149283,-0.186939,1.29127,0.371998,-0.757498,0.372185
28,40,-0.567232,0.698132,-0.174533,-0.174533,-0.573688,0.691489,-0.149283,-0.186939,1.29127,0.371998,-0.757498,0.372185
28,40,-0.567232,0.698132,-0.174533,-0.174533,-0.573688,0.691489,-0.149283,-0.186939,1.29127,0.371998,-0.757498,0.372185
28,40,-0.567232,0.698132,-0.174533,-0.174533,-0.573688,0.691489,-0.149283,-0.186939,1.29127,0.371998,-0.757498,0.372185
28,40,-0.567232,0.698132,-0.174533,-0.174533,-0.573688,0.691489,-0.149283,-0.186939,1.29127,0.371998,-0.757498,0.372185
28,40,-0.567232,0.698132,-0.174533,-0.174533,-0.573688,0.691489,-0.149283,-0.186939,1.29127,0.371998,-0.757498,0.372185
28,40,-0.567232,0.698132,-0.174533,-0.174533,-0.573688,0.691489,-0.149283,-0.186939,1.29127,0.371998,-0.757498,0.372185
28,40,-0.567232,0.698132,-0.174533,-0.174533,-0.573688,0.691489,-0.149283,-0.186939,1.29127,0.371998,-0.757498,0.372185
28,40,-0.567232,0.698132,-0.174533,-0.174533,-0.573688,0.691489,-0.149283,-0.186939,1.29127,0.371998,-0.757498,0.372185
28,40,-0.567232,0.698132,-0.174533,-0.174533,-0.573688,0.691489,-0.149283,-0.186939,1.29127,0.371998,-0.757498,0.372185
28,40,-0.567232,0.698132,-0.174533,-0.174533,-0.573688,0.691489,-0.149283,-0.186939,1.29127,0.371998,-0.757498,0.372185
28,40,-0.567232,0.698132,-0.174533,-0.174533,-0.573688,0.691489,-0.149283,-0.186939,1.29127,0.371998,-0.757498,0.372185
28,40,-0.567232,0.698132,-0.174533,-0.174533,-0.573688,0.691489,-0.149283,-0.186939,1.29127,0.371998,-0.757498,0.372185
28,40,-0.567232,0.698132,-0.174533,-0.174533,-0.573688,0.691489,-0.149283,-0.186939,1.29127,0.371998,-0.757498,0.372185
28,40,-0.567232,0.698132,-0.174533,-0.174533,-0.573688,0.691489,-0.149283,-0.186939,1.29127,0.371998,-0.757498,0.372185
28,40,-0.567232,0.698132,-0.174533,-0.174533,-0.573688,0.691489,-0.149283,-0.186939,1.29127,0.371998,-0.757498,0.372185
28,40,-0.567232,0.698132,-0.174533,-0.174533,-0.573688,0.691489,-0.149283,-0.186939,1.29127,0.371998,-0.757498,0.372185
28,40,-0.567232,0.698132,-0.174533,-0.174533,-0.573688,0.691489,-0.149283,-0.186939,1.29127,0.371998,-0.757498,0.372185
28,40,-0.567232,0.698132,-0.174533,-0.174533,-0.573688,0.691489,-0.149283,-0.186939,1.29127,0.371998,-0.757498,0.372185
28,40,-0.567232,0.698132,-0.174533,-0.174533,-0.573688,0.691489,-0.149283,-0.186939,1.29127,0.371998,-0.757498,0.372185
28,40,-0.567232,0.698132,-0.174533,-0.174533,-0.573688,0.691489,-0.149283,-0.186939,1.29127,0.371998,-0.757498,0.372185
28,40,-0.567232,0.698132,-0.174533,-0.174533,-0.573688,0.691489,-0.149283,-0.186939,1.29127,0.371998,-0.757498,0.372185
28,40,-0.567232,0.698132,-0.174533,-0.174533,-0.573688,0.691489,-0.149283,-0.186939,1.29127,0.371998,-0.757498,0.372185
28,40,-0.567232,0.698132,-0.174533,-0.174533,-0.573688,0.691489,-0.149283,-0.186939,1.29127,0.371998,-0.757498,0.372185
28,40,-0.567232,0.698132,-0.174533,-0.174533,-0.573688,0.691489,-0.149283,-0.186939,1.29127,0.371998,-0.757498,0.372185
28,40,-0.567232,0.698132,-0.174533,-0.174533,-0.573688,0.691489,-0.149283,-0.186939,1.29127,0.371998,-0.757498,0.372185
28,40,-0.567232,0.698132,-0.174533,-0.174533,-0.573688,0.691489,-0.149283,-0.186939,1.29127,0.371998,-0.757498,0.372185
28,40,-0.567232,0.698132,-0.174533,-0.174533,-0.573688,0.691489,-0.149283,-0.186939,1.29127,0.371998,-0.757498,0.372185
28,40,-0.567232,0.698132,-0.174533,-0.174533,-0.573688,0.691489,-0.149283,-0.186939,1.29127,0.371998,-0.757498,0.372185
28,40,-0.567232,0.698132,-0.174533,-0.174533,-0.573688,0.691489,-0.149283,-0.186939,1.29127,0.371998,-0.757498,0.372185
28,40,-0.567232,0.698132,-0.174533,-0.174533,-0.573688,0.691489,-0.149283,-0.186939,1.29127,0.371998,-0.757498,0.372185
28,40,-0.567232,0.698132,-0.174533,-0.174533,-0.573688,0.691489,-0.149283,-0.186939,1.29127,0.371998,-0.757498,0.372185
28,40,-0.567232,0.698132,-0.174533,-0.174533,-0.573688,0.691489,-0.149283,-0.186939,1.29127,0.371998,-0.757498,0.372185
28,40,-0.567232,0.698132,-0.174533,-0.174533,-0.573688,0.691489,-0.149283,-0.186939,1.29127,0.371998,-0.757498,0.372185
28,40,-0.567232,0.698132,-0.174533,-0.174533,-0.573688,0.691489,-0.149283,-0.186939,1.29127,0.371998,-0.757498,0.372185
28,40,-0.567232,0.698132,-0.174533,-0.174533,-0.573688,0.691489,-0.149283,-0.186939,1.29127,0.371998,-0.757498,0.372185
28,40,-0.567232,0.698132,-0.174533,-0.174533,-0.573688,0.691489,-0.149283,-0.186939,1.29127,0.371998,-0.757498,0.372185
28,40,-0.567232,0.698132,-0.174533,-0.174533,-0.573688,0.691489,-0.149283,-0.186939,1.29127,0.371998,-0.757498,0.372185
28,40,-0.567232,0.698132,-0.174533,-0.174533,-0.573688,0.691489,-0.149283,-0.186939,1.29127,0.371998,-0.757498,0.372185
28,40,-0.567232,0.698132,-0.174533,-0.174533,-0.573688,0.691489,-0.149283,-0.186939,1.29127,0.371998,-0.757498,0.372185
28,40,-0.567232,0.698132,-0.174533,-0.174533,-0.573688,0.691489,-0.149283,-0.186939,1.29127,0.371998,-0.757498,0.372185
28,40,-0.567232,0.698132,-0.174533,-0.174533,-0.573688,0.691489,-0.149283,-0.186939,1.29127,0.371998,-0.757498,0.372185
28,40,-0.567232,0.698132,-0.174533,-0.174533,-0.573688,0.691489,-0.149283,-0.186939,1.29127,0.371998,-0.757498,0.372185
28,40,-0.567232,0.698132,-0.174533,-0.174533,-0.573688,0.691489,-0.149283,-0.186939,1.29127,0.371998,-0.757498,0.372185
28,40,-0.567232,0.698132,-0.174533,-0.174533,-0.573688,0.691489,-0.149283,-0.186939,1.29127,0.371998,-0.757498,0.372185
28,40,-0.567232,0.698132,-0.174533,-0.174533,-0.573688,0.691489,-0.149283,-0.186939,1.29127,0.371998,-0.757498,0.372185
28,40,-0.567232,0.698132,-0.174533,-0.174533,-0.573688,0.691489,-0.149283,-0.186939,1.29127,0.371998,-0.757498,0.372185
28,40,-0.567232,0.698132,-0.174533,-0.174533,-0.573688,0.691489,-0.149283,-0.186939,1.29127,0.371998,-0.757498,0.372185
28,40,-0.567232,0.698132,-0.174533,-0.174533,-0.573688,0.691489,-0.149283,-0.186939,1.29127,0.371998,-0.757498,0.372185
28,40,-0.567232,0.698132,-0.174533,-0.174533,-0.573688,0.691489,-0.149283,-0.186939,1.29127,0.371998,-0.757498,0.372185
28,40,-0.567232,0.698132,-0.174533,-0.174533,-0.573688,0.691489,-0.149283,-0.186939,1.29127,0.371998,-0.757498,0.372185
28,40,-0.567232,0.698132,-0.174533,-0.174533,-0.573688,0.691489,-0.149283,-0.186939,1.29127,0.371998,-0.757498,0.372185
28,40,-0.567232,0.698132,-0.174533,-0.174533,-0.573688,0.691489,-0.149283,-0.186939,1.29127,0.371998,-0.757498,0.372185
28,40,-0.567232,0.698132,-0.174533,-0.174533,-0.573688,0.691489,-0.149283,-0.186939,1.29127,0.371998,-0.757498,0.372185
28,40,-0.567232,0.698132,-0.174533,-0.174533,-0.573688,0.691489,-0.149283,-0.186939,1.29127,0.371998,-0.757498,0.372185
28,40,-0.567232,0.698132,-0.174533,-0.174533,-0.573688,0.691489,-0.149283,-0.186939,1.29127,0.371998,-0.757498,0.372185
28,40,-0.567232,0.698132,-0.174533,-0.174533,-0.573688,0.691489,-0.149283,-0.186939,1.29127,0.371998,-0.757498,0.372185
28,40,-0.567232,0.698132,-0.174533,-0.174533,-0.573688,0.691489,-0.149283,-0.186939,1.29127,0.371998,-0.757498,0.372185
28,40,-0.567232,0.698132,-0.174533,-0.174533,-0.573688,0.691489,-0.149283,-0.186939,1.29127,0.371998,-0.757498,0.372185
28,40,-0.567232,0.698132,-0.174533,-0.174533,-0.573688,0.691489,-0.149283,-0.186939,1.29127,0.371998,-0.757498,0.372185
28,40,-0.567232,0.698132,-0.174533,-0.174533,-0.573688,0.691489,-0.149283,-0.186939,1.29127,0.371998,-0.757498,0.372185
28,40,-0.567232,0.698132,-0.174533,-0.174533,-0.573688,0.691489,-0.149283,-0.186939,1.29127,0.371998,-0.757498,0.372185
28,40,-0.567232,0.698132,-0.174533,-0.174533,-0.573688,0.691489,-0.149283,-0.186939,1.29127,0.371998,-0.757498,0.372185
28,40,-0.567232,0.698132,-0.174533,-0.174533,-0.573688,0.691489,-0.149283,-0.186939,1.29127,0.371998,-0.757498,0.372185
28,40,-0.567232,0.698132,-0.174533,-0.174533,-0.573688,0.691489,-0.149283,-0.186939,1.29127,0.371998,-0.757498,0.372185
28,40,-0.567232,0.698132,-0.174533,-0.174533,-0.573688,0.691489,-0.149283,-0.186939,1.29127,0.371998,-0.757498,0.372185
28,40,-0.567232,0.698132,-0.174533,-0.174533,-0.573688,0.691489,-0.149283,-0.186939,1.29127,0.371998,-0.757498,0.372185
28,40,-0.567232,0.698132,-0.174533,-0.174533,-0.573688,0.691489,-0.149283,-0.186939,1.29127,0.371998,-0.757498,0.372185
28,40,-0.567232,0.698132,-0.174533,-0.174533,-0.573688,0.691489,-0.149283,-0.186939,1.29127,0.371998,-0.757498,0.372185
28,40,-0.567232,0.698132,-0.174533,-0.174533,-0.573688,0.691489,-0.149283,-0.186939,1.29127,0.371998,-0.757498,0.372185
28,40,-0.567232,0.698132,-0.174533,-0.174533,-0.573688,0.691489,-0.149283,-0.186939,1.29127,0.371998,-0.757498,0.372185
28,40,-0.567232,0.698132,-0.174533,-0.174533,-0.573688,0.691489,-0.149283,-0.186939,1.29127,0.371998,-0.757498,0.372185
28,40,-0.567232,0.698132,-0.174533,-0.174533,-0.573688,0.691489,-0.149283,-0.186939,1.29127,0.371998,-0.757498,0.372185
28,40,-0.567232,0.698132,-0.174533,-0.174533,-0.573688,0.691489,-0.149283,-0.186939,1.29127,0.371998,-0.757498,0.372185
28,40,-0.567232,0.698132,-0.174533,-0.174533,-0.573688,0.691489,-0.149283,-0.186939,1.29127,0.371998,-0.757498,0.372185
28,40,-0.567232,0.698132,-0.174533,-0.174533,-0.573688,0.691489,-0.149283,-0.186939,1.29127,0.371998,-0.757498,0.372185
28,40,-0.567232,0.698132,-0.174533,-0.174533,-0.573688,0.691489,-0.149283,-0.186939,1.29127,0.371998,-0.757498,0.372185
28,40,-0.567232,0.698132,-0.174533,-0.174533,-0.573688,0.691489,-0.149283,-0.186939,1.29127,0.371998,-0.757498,0.372185
28,40,-0.567232,0.698132,-0.174533,-0.174533,-0.573688,0.691489,-0.149283,-0.186939,1.29127,0.371998,-0.757498,0.372185
28,40,-0.567232,0.698132,-0.174533,-0.174533,-0.573688,0.691489,-0.149283,-0.186939,1.29127,0.371998,-0.757498,0.372185
28,40,-0.567232,0.698132,-0.174533,-0.174533,-0.573688,0.691489,-0.149283,-0.186939,1.29127,0.371998,-0.757498,0.372185
28,40,-0.567232,0.698132,-0.174533,-0.174533,-0.573688,0.691489,-0.149283,-0.186939,1.29127,0.371998,-0.757498,0.372185
28,40,-0.567232,0.698132,-0.174533,-0.174533,-0.573688,0.691489,-0.149283,-0.186939,1.29127,0.371998,-0.757498,0.372185
28,40,-0.567232,0.698132,-0.174533,-0.174533,-0.573688,0.691489,-0.149283,-0.186939,1.29127,0.371998,-0.757498,0.372185
28,40,-0.567232,0.698132,-0.174533,-0.174533,-0.573688,0.691489,-0.149283,-0.186939,1.29127,0.371998,-0.757498,0.372185
28,40,-0.567232,0.698132,-0.174533,-0.174533,-0.573688,0.691489,-0.149283,-0.186939,1.29127,0.371998,-0.757498,0.372185
28,40,-0.567232,0.698132,-0.174533,-0.174533,-0.573688,0.691489,-0.149283,-0.186939,1.29127,0.371998,-0.757498,0.372185
28,40,-0.567232,0.698132,-0.174533,-0.174533,-0.573688,0.691489,-0.149283,-0.186939,1.29127,0.371998,-0.757498,0.372185
28,40,-0.567232,0.698132,-0.174533,-0.174533,-0.573688,0.691489,-0.149283,-0.186939,1.29127,0.371998,-0.757498,0.372185
28,40,-0.567232,0.698132,-0.174533,-0.174533,-0.573688,0.691489,-0.149283,-0.186939,1.29127,0.371998,-0.757498,0.372185
28,40,-0.567232,0.698132,-0.174533,-0.174533,-0.573688,0.691489,-0.149283,-0.186939,1.29127,0.371998,-0.757498,0.372185
28,40,-0.567232,0.698132,-0.174533,-0.174533,-0.573688,0.691489,-0.149283,-0.186939,1.29127,0.371998,-0.757498,0.372185
28,40,-0.567232,0.698132,-0.174533,-0.174533,-0.573688,0.691489,-0.149283,-0.186939,1.29127,0.371998,-0.757498,0.372185
28,40,-0.567232,0.698132,-0.174533,-0.174533,-0.573688,0.691489,-0.149283,-0.186939,1.29127,0.371998,-0.757498,0.372185
28,40,-0.567232,0.698132,-0.174533,-0.174533,-0.573688,0.691489,-0.149283,-0.186939,1.29127,0.371998,-0.757498,0.372185
28,40,-0.567232,0.698132,-0.174533,-0.174533,-0.573688,0.691489,-0.149283,-0.186939,1.29127,0.371998,-0.757498,0.372185
28,40,-0.567232,0.698132,-0.174533,-0.174533,-0.573688,0.691489,-0.149283,-0.186939,1.29127,0.371998,-0.757498,0.372185
28,40,-0.567232,0.698132,-0.174533,-0.174533,-0.573688,0.691489,-0.149223,-0.186959,1.29127,0.371998,-0.759307,0.372776
28,40,-0.567232,0.698132,-0.174533,-0.174533,-0.573688,0.691489,-0.149223,-0.186959,1.29127,0.371998,-0.759307,0.372776
28,40,-0.567232,0.698132,-0.174533,-0.174533,-0.573688,0.691489,-0.149223,-0.186959,1.29127,0.371998,-0.759307,0.372776
28,40,-0.567232,0.698132,-0.174533,-0.174533,-0.573688,0.691489,-0.149223,-0.186959,1.29127,0.371998,-0.759307,0.372776
28,40,-0.567232,0.698132,-0.174533,-0.174533,-0.573688,0.691489,-0.149223,-0.186959,1.29127,0.371998,-0.759307,0.372776
28,40,-0.567232,0.698132,-0.174533,-0.174533,-0.573688,0.691489,-0.149223,-0.186959,1.29127,0.371998,-0.759307,0.372776
28,40,-0.567232,0.698132,-0.174533,-0.174533,-0.573688,0.691489,-0.149223,-0.186959,1.29127,0.371998,-0.759307,0.372776
28,40,-0.567232,0.698132,-0.174533,-0.174533,-0.573688,0.691489,-0.149223,-0.186959,1.29127,0.371998,-0.759307,0.372776
28,40,-0.567232,0.698132,-0.174533,-0.174533,-0.573688,0.691489,-0.149223,-0.186959,1.29127,0.371998,-0.759307,0.372776
28,40,-0.567232,0.698132,-0.174533,-0.174533,-0.573688,0.691489,-0.149223,-0.186959,1.29127,0.371998,-0.759307,0.372776
28,40,-0.567232,0.698132,-0.174533,-0.174533,-0.573688,0.691489,-0.149223,-0.186959,1.29127,0.371998,-0.759307,0.372776
28,40,-0.567232,0.698132,-0.174533,-0.174533,-0.573688,0.691489,-0.149223,-0.186959,1.29127,0.371998,-0.759307,0.372776
28,40,-0.567232,0.698132,-0.174533,-0.174533,-0.573688,0.691489,-0.149223,-0.186959,1.29127,0.371998,-0.759307,0.372776
28,40,-0.567232,0.698132,-0.174533,-0.174533,-0.573688,0.691489,-0.149223,-0.186959,1.29127,0.371998,-0.759307,0.372776
28,40,-0.567232,0.698132,-0.174533,-0.174533,-0.573688,0.691489,-0.149223,-0.186959,1.29127,0.371998,-0.759307,0.372776
28,40,-0.567232,0.698132,-0.174533,-0.174533,-0.573688,0.691489,-0.149223,-0.186959,1.29127,0.371998,-0.759307,0.372776
28,40,-0.567232,0.698132,-0.174533,-0.174533,-0.573688,0.691489,-0.149223,-0.186959,1.29127,0.371998,-0.759307,0.372776
28,40,-0.567232,0.698132,-0.174533,-0.174533,-0.573688,0.691489,-0.149223,-0.186959,1.29127,0.371998,-0.759307,0.372776
28,40,-0.567232,0.698132,-0.174533,-0.174533,-0.573688,0.691489,-0.149223,-0.186959,1.29127,0.371998,-0.759307,0.372776
28,40,-0.567232,0.698132,-0.174533,-0.174533,-0.573688,0.691489,-0.149223,-0.186959,1.29127,0.371998,-0.759307,0.372776
28,40,-0.567232,0.698132,-0.174533,-0.174533,-0.573688,0.691489,-0.149223,-0.186959,1.29127,0.371998,-0.759307,0.372776
28,40,-0.567232,0.698132,-0.174533,-0.174533,-0.573688,0.691489,-0.149223,-0.186959,1.29127,0.371998,-0.759307,0.372776
28,40,-0.567232,0.698132,-0.174533,-0.174533,-0.573688,0.691489,-0.149223,-0.186959,1.29127,0.371998,-0.759307,0.372776
28,40,-0.567232,0.698132,-0.174533,-0.174533,-0.573688,0.691489,-0.149223,-0.186959,1.29127,0.371998,-0.759307,0.372776
28,40,-0.567232,0.698132,-0.174533,-0.174533,-0.573688,0.691489,-0.149223,-0.186959,1.29127,0.371998,-0.759307,0.372776
28,40,-0.567232,0.698132,-0.174533,-0.174533,-0.573688,0.691489,-0.149223,-0.186959,1.29127,0.371998,-0.759307,0.372776
28,40,-0.567232,0.698132,-0.174533,-0.174533,-0.573688,0.691489,-0.149223,-0.186959,1.29127,0.371998,-0.759307,0.372776
28,40,-0.567232,0.698132,-0.174533,-0.174533,-0.573688,0.691489,-0.149223,-0.186959,1.29127,0.371998,-0.759307,0.372776
28,40,-0.567232,0.698132,-0.174533,-0.174533,-0.573688,0.691489,-0.149223,-0.186959,1.29127,0.371998,-0.759307,0.372776
28,40,-0.567232,0.698132,-0.174533,-0.174533,-0.573688,0.691489,-0.149223,-0.186959,1.29127,0.371998,-0.759307,0.372776
28,40,-0.567232,0.698132,-0.174533,-0.174533,-0.573688,0.691489,-0.149223,-0.186959,1.29127,0.371998,-0.759307,0.372776
28,40,-0.567232,0.698132,-0.174533,-0.174533,-0.573688,0.691489,-0.149223,-0.186959,1.29127,0.371998,-0.759307,0.372776
28,40,-0.567232,0.698132,-0.174533,-0.174533,-0.573688,0.691489,-0.149223,-0.186959,1.29127,0.371998,-0.759307,0.372776
28,40,-0.567232,0.698132,-0.174533,-0.174533,-0.573688,0.691489,-0.149223,-0.186959,1.29127,0.371998,-0.759307,0.372776
28,40,-0.567232,0.698132,-0.174533,-0.174533,-0.573688,0.691489,-0.149223,-0.186959,1.29127,0.371998,-0.759307,0.372776
28,40,-0.567232,0.698132,-0.174533,-0.174533,-0.573688,0.691489,-0.149223,-0.186959,1.29127,0.371998,-0.759307,0.372776
28,40,-0.567232,0.698132,-0.174533,-0.174533,-0.573688,0.691489,-0.149223,-0.186959,1.29127,0.371998,-0.759307,0.372776
28,40,-0.567232,0.698132,-0.174533,-0.174533,-0.573688,0.691489,-0.149223,-0.186959,1.29127,0.371998,-0.759307,0.372776
28,40,-0.567232,0.698132,-0.174533,-0.174533,-0.573688,0.691489,-0.149223,-0.186959,1.29127,0.371998,-0.759307,0.372776
28,40,-0.567232,0.698132,-0.174533,-0.174533,-0.573688,0.691489,-0.149223,-0.186959,1.29127,0.371998,-0.759307,0.372776
28,40,-0.567232,0.698132,-0.174533,-0.174533,-0.573688,0.691489,-0.149223,-0.186959,1.29127,0.371998,-0.759307,0.372776
28,40,-0.567232,0.698132,-0.174533,-0.174533,-0.573688,0.691489,-0.149223,-0.186959,1.29127,0.371998,-0.759307,0.372776
28,40,-0.567232,0.698132,-0.174533,-0.174533,-0.573688,0.691489,-0.149223,-0.186959,1.29127,0.371998,-0.759307,0.372776
28,40,-0.567232,0.698132,-0.174533,-0.174533,-0.573688,0.691489,-0.149223,-0.186959,1.29127,0.371998,-0.759307,0.372776
28,40,-0.567232,0.698132,-0.174533,-0.174533,-0.573688,0.691489,-0.149223,-0.186959,1.29127,0.371998,-0.759307,0.372776
28,40,-0.567232,0.698132,-0.174533,-0.174533,-0.573688,0.691489,-0.149223,-0.186959,1.29127,0.371998,-0.759307,0.372776
28,40,-0.567232,0.698132,-0.174533,-0.174533,-0.573688,0.691489,-0.149223,-0.186959,1.29127,0.371998,-0.759307,0.372776
28,40,-0.567232,0.698132,-0.174533,-0.174533,-0.573688,0.691489,-0.149223,-0.186959,1.29127,0.371998,-0.759307,0.372776
28,40,-0.567232,0.698132,-0.174533,-0.174533,-0.573688,0.691489,-0.149223,-0.186959,1.29127,0.371998,-0.759307,0.372776
28,40,-0.567232,0.698132,-0.174533,-0.174533,-0.573688,0.691489,-0.149223,-0.186959,1.29127,0.371998,-0.759307,0.372776
28,40,-0.567232,0.698132,-0.174533,-0.174533,-0.573688,0.691489,-0.149223,-0.186959,1.29127,0.371998,-0.759307,0.372776
28,40,-0.567232,0.698132,-0.174533,-0.174533,-0.573688,0.691489,-0.149223,-0.186959,1.29127,0.371998,-0.759307,0.372776
28,40,-0.567232,0.698132,-0.174533,-0.174533,-0.573688,0.691489,-0.149223,-0.186959,1.29127,0.371998,-0.759307,0.372776
28,40,-0.567232,0.698132,-0.174533,-0.174533,-0.573688,0.691489,-0.149223,-0.186959,1.29127,0.371998,-0.759307,0.372776
28,40,-0.567232,0.698132,-0.174533,-0.174533,-0.573688,0.691489,-0.149223,-0.186959,1.29127,0.371998,-0.759307,0.372776
28,40,-0.567232,0.698132,-0.174533,-0.174533,-0.573688,0.691489,-0.149223,-0.186959,1.29127,0.371998,-0.759307,0.372776
28,40,-0.567232,0.698132,-0.174533,-0.174533,-0.573688,0.691489,-0.149223,-0.186959,1.29127,0.371998,-0.759307,0.372776
28,40,-0.567232,0.698132,-0.174533,-0.174533,-0.573688,0.691489,-0.149223,-0.186959,1.29127,0.371998,-0.759307,0.372776
28,40,-0.567232,0.698132,-0.174533,-0.174533,-0.573688,0.691489,-0.149223,-0.186959,1.29127,0.371998,-0.759307,0.372776
28,40,-0.567232,0.698132,-0.174533,-0.174533,-0.573688,0.691489,-0.149223,-0.186959,1.29127,0.371998,-0.759307,0.372776
28,40,-0.567232,0.698132,-0.174533,-0.174533,-0.573688,0.691489,-0.149223,-0.186959,1.29127,0.371998,-0.759307,0.372776
28,40,-0.567232,0.698132,-0.174533,-0.174533,-0.573688,0.691489,-0.149223,-0.186959,1.29127,0.371998,-0.759307,0.372776
28,40,-0.567232,0.698132,-0.174533,-0.174533,-0.573688,0.691489,-0.149223,-0.186959,1.29127,0.371998,-0.759307,0.372776
28,40,-0.567232,0.698132,-0.174533,-0.174533,-0.573688,0.691489,-0.149223,-0.186959,1.29127,0.371998,-0.759307,0.372776
28,40,-0.567232,0.698132,-0.174533,-0.174533,-0.573688,0.691489,-0.149223,-0.186959,1.29127,0.371998,-0.759307,0.372776
28,40,-0.567232,0.698132,-0.174533,-0.174533,-0.573688,0.691489,-0.149223,-0.186959,1.29127,0.371998,-0.759307,0.372776
28,40,-0.567232,0.698132,-0.174533,-0.174533,-0.573688,0.691489,-0.149223,-0.186959,1.29127,0.371998,-0.759307,0.372776
28,40,-0.567232,0.698132,-0.174533,-0.174533,-0.573688,0.691489,-0.149223,-0.186959,1.29127,0.371998,-0.759307,0.372776
28,40,-0.567232,0.698132,-0.174533,-0.174533,-0.573688,0.691489,-0.149223,-0.186959,1.29127,0.371998,-0.759307,0.372776
28,40,-0.567232,0.698132,-0.174533,-0.174533,-0.573688,0.691489,-0.149223,-0.186959,1.29127,0.371998,-0.759307,0.372776
28,40,-0.567232,0.698132,-0.174533,-0.174533,-0.573688,0.691489,-0.149223,-0.186959,1.29127,0.371998,-0.759307,0.372776
28,40,-0.567232,0.698132,-0.174533,-0.174533,-0.573688,0.691489,-0.149223,-0.186959,1.29127,0.371998,-0.759307,0.372776
28,40,-0.567232,0.698132,-0.174533,-0.174533,-0.573688,0.691489,-0.149223,-0.186959,1.29127,0.371998,-0.759307,0.372776
28,40,-0.567232,0.698132,-0.174533,-0.174533,-0.573688,0.691489,-0.149223,-0.186959,1.29127,0.371998,-0.759307,0.372776
28,40,-0.567232,0.698132,-0.174533,-0.174533,-0.573688,0.691489,-0.149223,-0.186959,1.29127,0.371998,-0.759307,0.372776
28,40,-0.567232,0.698132,-0.174533,-0.174533,-0.573688,0.691489,-0.149223,-0.186959,1.29127,0.371998,-0.759307,0.372776
28,40,-0.567232,0.698132,-0.174533,-0.174533,-0.573688,0.691489,-0.149223,-0.186959,1.29127,0.371998,-0.759307,0.372776
28,40,-0.567232,0.698132,-0.174533,-0.174533,-0.573688,0.691489,-0.149223,-0.186959,1.29127,0.371998,-0.759307,0.372776
28,40,-0.567232,0.698132,-0.174533,-0.174533,-0.573688,0.691489,-0.149223,-0.186959,1.29127,0.371998,-0.759307,0.372776
28,40,-0.567232,0.698132,-0.174533,-0.174533,-0.573688,0.691489,-0.149223,-0.186959,1.29127,0.371998,-0.759307,0.372776
28,40,-0.567232,0.698132,-0.174533,-0.174533,-0.573688,0.691489,-0.149223,-0.186959,1.29127,0.371998,-0.759307,0.372776
28,40,-0.567232,0.698132,-0.174533,-0.174533,-0.573688,0.691489,-0.149223,-0.186959,1.29127,0.371998,-0.759307,0.372776
28,40,-0.567232,0.698132,-0.174533,-0.174533,-0.573688,0.691489,-0.149223,-0.186959,1.29127,0.371998,-0.759307,0.372776
28,40,-0.567232,0.698132,-0.174533,-0.174533,-0.573688,0.691489,-0.149223,-0.186959,1.29127,0.371998,-0.759307,0.372776
28,40,-0.567232,0.698132,-0.174533,-0.174533,-0.573688,0.691489,-0.149223,-0.186959,1.29127,0.371998,-0.759307,0.372776
28,40,-0.567232,0.698132,-0.174533,-0.174533,-0.573688,0.691489,-0.149223,-0.186959,1.29127,0.371998,-0.759307,0.372776
28,40,-0.567232,0.698132,-0.174533,-0.174533,-0.573688,0.691489,-0.149223,-0.186959,1.29127,0.371998,-0.759307,0.372776
28,40,-0.567232,0.698132,-0.174533,-0.174533,-0.573688,0.691489,-0.149223,-0.186959,1.29127,0.371998,-0.759307,0.372776
28,40,-0.567232,0.698132,-0.174533,-0.174533,-0.573688,0.691489,-0.149223,-0.186959,1.29127,0.371998,-0.759307,0.372776
28,40,-0.567232,0.698132,-0.174533,-0.174533,-0.573688,0.691489,-0.149223,-0.186959,1.29127,0.371998,-0.759307,0.372776
28,40,-0.567232,0.698132,-0.174533,-0.174533,-0.573688,0.691489,-0.149223,-0.186959,1.29127,0.371998,-0.759307,0.372776
28,40,-0.567232,0.698132,-0.174533,-0.174533,-0.573688,0.691489,-0.149223,-0.186959,1.29127,0.371998,-0.759307,0.372776
28,40,-0.567232,0.698132,-0.174533,-0.174533,-0.573688,0.691489,-0.149223,-0.186959,1.29127,0.371998,-0.759307,0.372776
28,40,-0.567232,0.698132,-0.174533,-0.174533,-0.573688,0.691489,-0.149223,-0.186959,1.29127,0.371998,-0.759307,0.372776
28,40,-0.567232,0.698132,-0.174533,-0.174533,-0.573688,0.691489,-0.149223,-0.186959,1.29127,0.371998,-0.759307,0.372776
28,40,-0.567232,0.698132,-0.174533,-0.174533,-0.573688,0.691489,-0.149223,-0.186959,1.29127,0.371998,-0.759307,0.372776
28,40,-0.567232,0.698132,-0.174533,-0.174533,-0.573688,0.691489,-0.149223,-0.186959,1.29127,0.371998,-0.759307,0.372776
28,40,-0.567232,0.698132,-0.174533,-0.174533,-0.573688,0.691489,-0.149223,-0.186959,1.29127,0.371998,-0.759307,0.372776
28,40,-0.567232,0.698132,-0.174533,-0.174533,-0.573688,0.691489,-0.149223,-0.186959,1.29127,0.371998,-0.759307,0.372776
28,40,-0.567232,0.698132,-0.174533,-0.174533,-0.573688,0.691489,-0.149223,-0.186959,1.29127,0.371998,-0.759307,0.372776
28,40,-0.567232,0.698132,-0.174533,-0.174533,-0.573688,0.691489,-0.149223,-0.186959,1.29127,0.371998,-0.759307,0.372776
28,40,-0.567232,0.698132,-0.174533,-0.174533,-0.573688,0.691489,-0.149223,-0.186959,1.29127,0.371998,-0.759307,0.372776
28,40,-0.567232,0.698132,-0.174533,-0.174533,-0.573688,0.691489,-0.149223,-0.186959,1.29127,0.371998,-0.759307,0.372776
28,40,-0.567232,0.698132,-0.174533,-0.174533,-0.573688,0.691489,-0.149223,-0.186959,1.29127,0.371998,-0.759307,0.372776
28,40,-0.567232,0.698132,-0.174533,-0.174533,-0.573688,0.691489,-0.149223,-0.186959,1.29127,0.371998,-0.759307,0.372776
28,40,-0.567232,0.698132,-0.174533,-0.174533,-0.573688,0.691489,-0.149223,-0.186959,1.29127,0.371998,-0.759307,0.372776
28,40,-0.567232,0.698132,-0.174533,-0.174533,-0.573688,0.691489,-0.149223,-0.186959,1.29127,0.371998,-0.759307,0.372776
28,40,-0.567232,0.698132,-0.174533,-0.174533,-0.573688,0.691489,-0.149223,-0.186959,1.29127,0.371998,-0.759307,0.372776
28,40,-0.567232,0.698132,-0.174533,-0.174533,-0.573688,0.691489,-0.149223,-0.186959,1.29127,0.371998,-0.759307,0.372776
28,40,-0.567232,0.698132,-0.174533,-0.174533,-0.573688,0.691489,-0.149223,-0.186959,1.29127,0.371998,-0.759307,0.372776
28,40,-0.567232,0.698132,-0.174533,-0.174533,-0.573688,0.691489,-0.149223,-0.186959,1.29127,0.371998,-0.759307,0.372776
28,40,-0.567232,0.698132,-0.174533,-0.174533,-0.573688,0.691489,-0.149223,-0.186959,1.29127,0.371998,-0.759307,0.372776
28,40,-0.567232,0.698132,-0.174533,-0.174533,-0.573688,0.691489,-0.149223,-0.186959,1.29127,0.371998,-0.759307,0.372776
28,40,-0.567232,0.698132,-0.174533,-0.174533,-0.573688,0.691489,-0.149223,-0.186959,1.29127,0.371998,-0.759307,0.372776
28,40,-0.567232,0.698132,-0.174533,-0.174533,-0.573688,0.691489,-0.149223,-0.186959,1.29127,0.371998,-0.759307,0.372776
28,40,-0.567232,0.698132,-0.174533,-0.174533,-0.573688,0.691489,-0.149223,-0.186959,1.29127,0.371998,-0.759307,0.372776
28,40,-0.567232,0.698132,-0.174533,-0.174533,-0.573688,0.691489,-0.149223,-0.186959,1.29127,0.371998,-0.759307,0.372776
28,40,-0.567232,0.698132,-0.174533,-0.174533,-0.573688,0.691489,-0.149223,-0.186959,1.29127,0.371998,-0.759307,0.372776
28,40,-0.567232,0.698132,-0.174533,-0.174533,-0.573688,0.691489,-0.149223,-0.186959,1.29127,0.371998,-0.759307,0.372776
28,40,-0.567232,0.698132,-0.174533,-0.174533,-0.573688,0.691489,-0.149223,-0.186959,1.29127,0.371998,-0.759307,0.372776
28,40,-0.567232,0.698132,-0.174533,-0.174533,-0.573688,0.691489,-0.149223,-0.186959,1.29127,0.371998,-0.759307,0.372776
28,40,-0.567232,0.698132,-0.174533,-0.174533,-0.573688,0.691489,-0.149223,-0.186959,1.29127,0.371998,-0.759307,0.372776
28,40,-0.567232,0.698132,-0.174533,-0.174533,-0.573688,0.691489,-0.149223,-0.186959,1.29127,0.371998,-0.759307,0.372776
28,40,-0.567232,0.698132,-0.174533,-0.174533,-0.573688,0.691489,-0.149223,-0.186959,1.29127,0.371998,-0.759307,0.372776
28,40,-0.567232,0.698132,-0.174533,-0.174533,-0.573688,0.691489,-0.149223,-0.186959,1.29127,0.371998,-0.759307,0.372776
28,40,-0.567232,0.698132,-0.174533,-0.174533,-0.573688,0.691489,-0.149223,-0.186959,1.29127,0.371998,-0.759307,0.372776
28,40,-0.567232,0.698132,-0.174533,-0.174533,-0.573688,0.691489,-0.149223,-0.186959,1.29127,0.371998,-0.759307,0.372776
28,40,-0.567232,0.698132,-0.174533,-0.174533,-0.573688,0.691489,-0.149223,-0.186959,1.29127,0.371998,-0.759307,0.372776
28,40,-0.567232,0.698132,-0.174533,-0.174533,-0.573688,0.691489,-0.149223,-0.186959,1.29127,0.371998,-0.759307,0.372776
28,40,-0.567232,0.698132,-0.174533,-0.174533,-0.573688,0.691489,-0.149223,-0.186959,1.29127,0.371998,-0.759307,0.372776
28,40,-0.567232,0.698132,-0.174533,-0.174533,-0.573688,0.691489,-0.149223,-0.186959,1.29127,0.371998,-0.759307,0.372776
28,40,-0.567232,0.698132,-0.174533,-0.174533,-0.573688,0.691489,-0.149223,-0.186959,1.29127,0.371998,-0.759307,0.372776
28,40,-0.567232,0.698132,-0.174533,-0.174533,-0.573688,0.691489,-0.149223,-0.186959,1.29127,0.371998,-0.759307,0.372776
28,40,-0.567232,0.698132,-0.174533,-0.174533,-0.573688,0.691489,-0.149223,-0.186959,1.29127,0.371998,-0.759307,0.372776
28,40,-0.567232,0.698132,-0.174533,-0.174533,-0.573688,0.691489,-0.149223,-0.186959,1.29127,0.371998,-0.759307,0.372776
28,40,-0.567232,0.698132,-0.174533,-0.174533,-0.573688,0.691489,-0.149223,-0.186959,1.29127,0.371998,-0.759307,0.372776
28,40,-0.567232,0.698132,-0.174533,-0.174533,-0.573688,0.691489,-0.149223,-0.186959,1.29127,0.371998,-0.759307,0.372776
28,40,-0.567232,0.698132,-0.174533,-0.174533,-0.573688,0.691489,-0.149223,-0.186959,1.29127,0.371998,-0.759307,0.372776
28,40,-0.567232,0.698132,-0.174533,-0.174533,-0.573688,0.691489,-0.149223,-0.186959,1.29127,0.371998,-0.759307,0.372776
28,40,-0.567232,0.698132,-0.174533,-0.174533,-0.573688,0.691489,-0.149223,-0.186959,1.29127,0.371998,-0.759307,0.372776
28,40,-0.567232,0.698132,-0.174533,-0.174533,-0.573688,0.691489,-0.149223,-0.186959,1.29127,0.371998,-0.759307,0.372776
28,40,-0.567232,0.698132,-0.174533,-0.174533,-0.573688,0.691489,-0.149223,-0.186959,1.29127,0.371998,-0.759307,0.372776
28,40,-0.567232,0.698132,-0.174533,-0.174533,-0.573688,0.691489,-0.149223,-0.186959,1.29127,0.371998,-0.759307,0.372776
28,40,-0.567232,0.698132,-0.174533,-0.174533,-0.573688,0.691489,-0.149223,-0.186959,1.29127,0.371998,-0.759307,0.372776
28,40,-0.567232,0.698132,-0.174533,-0.174533,-0.573688,0.691489,-0.149223,-0.186959,1.29127,0.371998,-0.759307,0.372776
28,40,-0.567232,0.698132,-0.174533,-0.174533,-0.573688,0.691489,-0.149223,-0.186959,1.29127,0.371998,-0.759307,0.372776
28,40,-0.567232,0.698132,-0.174533,-0.174533,-0.573688,0.691489,-0.149223,-0.186959,1.29127,0.371998,-0.759307,0.372776
28,40,-0.567232,0.698132,-0.174533,-0.174533,-0.573688,0.691489,-0.149223,-0.186959,1.29127,0.371998,-0.759307,0.372776
28,40,-0.567232,0.698132,-0.174533,-0.174533,-0.573688,0.691489,-0.149223,-0.186959,1.29127,0.371998,-0.759307,0.372776
28,40,-0.567232,0.698132,-0.174533,-0.174533,-0.573688,0.691489,-0.149223,-0.186959,1.29127,0.371998,-0.759307,0.372776
28,40,-0.567232,0.698132,-0.174533,-0.174533,-0.573688,0.691489,-0.149223,-0.186959,1.29127,0.371998,-0.759307,0.372776
28,40,-0.567232,0.698132,-0.174533,-0.174533,-0.573688,0.691489,-0.149223,-0.186959,1.29127,0.371998,-0.759307,0.372776
28,40,-0.567232,0.698132,-0.174533,-0.174533,-0.573688,0.691489,-0.149223,-0.186959,1.29127,0.371998,-0.759307,0.372776
28,40,-0.567232,0.698132,-0.174533,-0.174533,-0.573688,0.691489,-0.149223,-0.186959,1.29127,0.371998,-0.759307,0.372776
28,40,-0.567232,0.698132,-0.174533,-0.174533,-0.573688,0.691489,-0.149223,-0.186959,1.29127,0.371998,-0.759307,0.372776
28,40,-0.567232,0.698132,-0.174533,-0.174533,-0.573688,0.691489,-0.149223,-0.186959,1.29127,0.371998,-0.759307,0.372776
28,40,-0.567232,0.698132,-0.174533,-0.174533,-0.573688,0.691489,-0.149223,-0.186959,1.29127,0.371998,-0.759307,0.372776
28,40,-0.567232,0.698132,-0.174533,-0.174533,-0.573688,0.691489,-0.149223,-0.186959,1.29127,0.371998,-0.759307,0.372776
28,40,-0.567232,0.698132,-0.174533,-0.174533,-0.573688,0.691489,-0.149223,-0.186959,1.29127,0.371998,-0.759307,0.372776
28,40,-0.567232,0.698132,-0.174533,-0.174533,-0.573688,0.691489,-0.149223,-0.186959,1.29127,0.371998,-0.759307,0.372776
28,40,-0.567232,0.698132,-0.174533,-0.174533,-0.573688,0.691489,-0.149223,-0.186959,1.29127,0.371998,-0.759307,0.372776
28,40,-0.567232,0.698132,-0.174533,-0.174533,-0.573688,0.691489,-0.149223,-0.186959,1.29127,0.371998,-0.759307,0.372776
28,40,-0.567232,0.698132,-0.174533,-0.174533,-0.573688,0.691489,-0.149223,-0.186959,1.29127,0.371998,-0.759307,0.372776
28,40,-0.567232,0.698132,-0.174533,-0.174533,-0.573688,0.691489,-0.149223,-0.186959,1.29127,0.371998,-0.759307,0.372776
28,40,-0.567232,0.698132,-0.174533,-0.174533,-0.573688,0.691489,-0.149223,-0.186959,1.29127,0.371998,-0.759307,0.372776
28,40,-0.567232,0.698132,-0.174533,-0.174533,-0.573688,0.691489,-0.149223,-0.186959,1.29127,0.371998,-0.759307,0.372776
28,40,-0.567232,0.698132,-0.174533,-0.174533,-0.573688,0.691489,-0.149223,-0.186959,1.29127,0.371998,-0.759307,0.372776
28,40,-0.567232,0.698132,-0.174533,-0.174533,-0.573688,0.691489,-0.149223,-0.186959,1.29127,0.371998,-0.759307,0.372776
28,40,-0.567232,0.698132,-0.174533,-0.174533,-0.573688,0.691489,-0.149223,-0.186959,1.29127,0.371998,-0.759307,0.372776
28,40,-0.567232,0.698132,-0.174533,-0.174533,-0.573688,0.691489,-0.149223,-0.186959,1.29127,0.371998,-0.759307,0.372776
28,40,-0.567232,0.698132,-0.174533,-0.174533,-0.573688,0.691489,-0.149223,-0.186959,1.29127,0.371998,-0.759307,0.372776
28,40,-0.567232,0.698132,-0.174533,-0.174533,-0.573688,0.691489,-0.149223,-0.186959,1.29127,0.371998,-0.759307,0.372776
28,40,-0.567232,0.698132,-0.174533,-0.174533,-0.573688,0.691489,-0.149223,-0.186959,1.29127,0.371998,-0.759307,0.372776
28,40,-0.567232,0.698132,-0.174533,-0.174533,-0.573688,0.691489,-0.149223,-0.186959,1.29127,0.371998,-0.759307,0.372776
28,40,-0.567232,0.698132,-0.174533,-0.174533,-0.573688,0.691489,-0.149223,-0.186959,1.29127,0.371998,-0.759307,0.372776
28,40,-0.567232,0.698132,-0.174533,-0.174533,-0.573688,0.691489,-0.149223,-0.186959,1.29127,0.371998,-0.759307,0.372776
28,40,-0.567232,0.698132,-0.174533,-0.174533,-0.573688,0.691489,-0.149223,-0.186959,1.29127,0.371998,-0.759307,0.372776
28,40,-0.567232,0.698132,-0.174533,-0.174533,-0.573688,0.691489,-0.149223,-0.186959,1.29127,0.371998,-0.759307,0.372776
28,40,-0.567232,0.698132,-0.174533,-0.174533,-0.573688,0.691489,-0.149223,-0.186959,1.29127,0.371998,-0.759307,0.372776
28,40,-0.567232,0.698132,-0.174533,-0.174533,-0.573688,0.691489,-0.149223,-0.186959,1.29127,0.371998,-0.759307,0.372776
28,40,-0.567232,0.698132,-0.174533,-0.174533,-0.573688,0.691489,-0.149223,-0.186959,1.29127,0.371998,-0.759307,0.372776
28,40,-0.567232,0.698132,-0.174533,-0.174533,-0.573688,0.691489,-0.149223,-0.186959,1.29127,0.371998,-0.759307,0.372776
28,40,-0.567232,0.698132,-0.174533,-0.174533,-0.573688,0.691489,-0.149223,-0.186959,1.29127,0.371998,-0.759307,0.372776
28,40,-0.567232,0.698132,-0.174533,-0.174533,-0.573688,0.691489,-0.149223,-0.186959,1.29127,0.371998,-0.759307,0.372776
28,40,-0.567232,0.698132,-0.174533,-0.174533,-0.573688,0.691489,-0.149223,-0.186959,1.29127,0.371998,-0.759307,0.372776
28,40,-0.567232,0.698132,-0.174533,-0.174533,-0.573688,0.691489,-0.149223,-0.186959,1.29127,0.371998,-0.759307,0.372776
28,40,-0.567232,0.698132,-0.174533,-0.174533,-0.573688,0.691489,-0.149223,-0.186959,1.29127,0.371998,-0.759307,0.372776
28,40,-0.567232,0.698132,-0.174533,-0.174533,-0.573688,0.691489,-0.149223,-0.186959,1.29127,0.371998,-0.759307,0.372776
28,40,-0.567232,0.698132,-0.174533,-0.174533,-0.573688,0.691489,-0.149223,-0.186959,1.29127,0.371998,-0.759307,0.372776
28,40,-0.567232,0.698132,-0.174533,-0.174533,-0.573688,0.691489,-0.149223,-0.186959,1.29127,0.371998,-0.759307,0.372776
28,40,-0.567232,0.698132,-0.174533,-0.174533,-0.573688,0.691489,-0.149223,-0.186959,1.29127,0.371998,-0.759307,0.372776
28,40,-0.567232,0.698132,-0.174533,-0.174533,-0.573688,0.691489,-0.149223,-0.186959,1.29127,0.371998,-0.759307,0.372776
28,40,-0.567232,0.698132,-0.174533,-0.174533,-0.573688,0.691489,-0.149223,-0.186959,1.29127,0.371998,-0.759307,0.372776
28,40,-0.567232,0.698132,-0.174533,-0.174533,-0.573688,0.691489,-0.149223,-0.186959,1.29127,0.371998,-0.759307,0.372776
28,40,-0.567232,0.698132,-0.174533,-0.174533,-0.573688,0.691489,-0.149223,-0.186959,1.29127,0.371998,-0.759307,0.372776
28,40,-0.567232,0.698132,-0.174533,-0.174533,-0.573688,0.691489,-0.149223,-0.186959,1.29127,0.371998,-0.759307,0.372776
28,40,-0.567232,0.698132,-0.174533,-0.174533,-0.573688,0.691489,-0.149223,-0.186959,1.29127,0.371998,-0.759307,0.372776
28,40,-0.567232,0.698132,-0.174533,-0.174533,-0.573688,0.691489,-0.149223,-0.186959,1.29127,0.371998,-0.759307,0.372776
28,40,-0.567232,0.698132,-0.174533,-0.174533,-0.573688,0.691489,-0.149223,-0.186959,1.29127,0.371998,-0.759307,0.372776
28,40,-0.567232,0.698132,-0.174533,-0.174533,-0.573688,0.691489,-0.149223,-0.186959,1.29127,0.371998,-0.759307,0.372776
28,40,-0.567232,0.698132,-0.174533,-0.174533,-0.573688,0.691489,-0.149223,-0.186959,1.29127,0.371998,-0.759307,0.372776
28,40,-0.567232,0.698132,-0.174533,-0.174533,-0.573688,0.691489,-0.149223,-0.186959,1.29127,0.371998,-0.759307,0.372776
28,40,-0.567232,0.698132,-0.174533,-0.174533,-0.573688,0.691489,-0.149223,-0.186959,1.29127,0.371998,-0.759307,0.372776
28,40,-0.567232,0.698132,-0.174533,-0.174533,-0.573688,0.691489,-0.149223,-0.186959,1.29127,0.371998,-0.759307,0.372776
28,40,-0.567232,0.698132,-0.174533,-0.174533,-0.573688,0.691489,-0.149223,-0.186959,1.29127,0.371998,-0.759307,0.372776
28,40,-0.567232,0.698132,-0.174533,-0.174533,-0.573688,0.691489,-0.149223,-0.186959,1.29127,0.371998,-0.759307,0.372776
28,40,-0.567232,0.698132,-0.174533,-0.174533,-0.573688,0.691489,-0.149223,-0.186959,1.29127,0.371998,-0.759307,0.372776
28,40,-0.567232,0.698132,-0.174533,-0.174533,-0.573688,0.691489,-0.149223,-0.186959,1.29127,0.371998,-0.759307,0.372776
28,40,-0.567232,0.698132,-0.174533,-0.174533,-0.573688,0.691489,-0.149223,-0.186959,1.29127,0.371998,-0.759307,0.372776
28,40,-0.567232,0.698132,-0.174533,-0.174533,-0.573688,0.691489,-0.149223,-0.186959,1.29127,0.371998,-0.759307,0.372776
28,40,-0.567232,0.698132,-0.174533,-0.174533,-0.573688,0.691489,-0.149223,-0.186959,1.29127,0.371998,-0.759307,0.372776
28,40,-0.567232,0.698132,-0.174533,-0.174533,-0.573688,0.691489,-0.149223,-0.186959,1.29127,0.371998,-0.759307,0.372776
28,40,-0.567232,0.698132,-0.174533,-0.174533,-0.573688,0.691489,-0.149223,-0.186959,1.29127,0.371998,-0.759307,0.372776
28,40,-0.567232,0.698132,-0.174533,-0.174533,-0.573688,0.691489,-0.149223,-0.186959,1.29127,0.371998,-0.759307,0.372776
28,40,-0.567232,0.698132,-0.174533,-0.174533,-0.573688,0.691489,-0.149223,-0.186959,1.29127,0.371998,-0.759307,0.372776
28,40,-0.567232,0.698132,-0.174533,-0.174533,-0.573688,0.691489,-0.149223,-0.186959,1.29127,0.371998,-0.759307,0.372776
28,40,-0.567232,0.698132,-0.174533,-0.174533,-0.573688,0.691489,-0.149223,-0.186959,1.29127,0.371998,-0.759307,0.372776
28,40,-0.567232,0.698132,-0.174533,-0.174533,-0.573688,0.691489,-0.149223,-0.186959,1.29127,0.371998,-0.759307,0.372776
28,40,-0.567232,0.698132,-0.174533,-0.174533,-0.573688,0.691489,-0.149223,-0.186959,1.29127,0.371998,-0.759307,0.372776
28,40,-0.567232,0.698132,-0.174533,-0.174533,-0.573688,0.691489,-0.149223,-0.186959,1.29127,0.371998,-0.759307,0.372776
28,40,-0.567232,0.698132,-0.174533,-0.174533,-0.573688,0.691489,-0.149223,-0.186959,1.29127,0.371998,-0.759307,0.372776
28,40,-0.567232,0.698132,-0.174533,-0.174533,-0.573688,0.691489,-0.149223,-0.186959,1.29127,0.371998,-0.759307,0.372776
28,40,-0.567232,0.698132,-0.174533,-0.174533,-0.573688,0.691489,-0.149223,-0.186959,1.29127,0.371998,-0.759307,0.372776
28,40,-0.567232,0.698132,-0.174533,-0.174533,-0.573688,0.691489,-0.149223,-0.186959,1.29127,0.371998,-0.759307,0.372776
28,40,-0.567232,0.698132,-0.174533,-0.174533,-0.573688,0.691489,-0.149223,-0.186959,1.29127,0.371998,-0.759307,0.372776
28,40,-0.567232,0.698132,-0.174533,-0.174533,-0.573688,0.691489,-0.149223,-0.186959,1.29127,0.371998,-0.759307,0.372776
28,40,-0.567232,0.698132,-0.174533,-0.174533,-0.573688,0.691489,-0.149223,-0.186959,1.29127,0.371998,-0.759307,0.372776
28,40,-0.567232,0.698132,-0.174533,-0.174533,-0.573688,0.691489,-0.149223,-0.186959,1.29127,0.371998,-0.759307,0.372776
28,40,-0.567232,0.698132,-0.174533,-0.174533,-0.573688,0.691489,-0.149223,-0.186959,1.29127,0.371998,-0.759307,0.372776
28,40,-0.567232,0.698132,-0.174533,-0.174533,-0.573688,0.691489,-0.149223,-0.186959,1.29127,0.371998,-0.759307,0.372776
28,40,-0.567232,0.698132,-0.174533,-0.174533,-0.573688,0.691489,-0.149223,-0.186959,1.29127,0.371998,-0.759307,0.372776
28,40,-0.567232,0.698132,-0.174533,-0.174533,-0.573688,0.691489,-0.149223,-0.186959,1.29127,0.371998,-0.759307,0.372776
28,40,-0.567232,0.698132,-0.174533,-0.174533,-0.573688,0.691489,-0.149223,-0.186959,1.29127,0.371998,-0.759307,0.372776
28,40,-0.567232,0.698132,-0.174533,-0.174533,-0.573688,0.691489,-0.149223,-0.186959,1.29127,0.371998,-0.759307,0.372776
28,40,-0.567232,0.698132,-0.174533,-0.174533,-0.573688,0.691489,-0.149223,-0.186959,1.29127,0.371998,-0.759307,0.372776
28,40,-0.567232,0.698132,-0.174533,-0.174533,-0.573688,0.691489,-0.149223,-0.186959,1.29127,0.371998,-0.759307,0.372776
28,40,-0.567232,0.698132,-0.174533,-0.174533,-0.573688,0.691489,-0.149223,-0.186959,1.29127,0.371998,-0.759307,0.372776
28,40,-0.567232,0.698132,-0.174533,-0.174533,-0.573688,0.691489,-0.149223,-0.186959,1.29127,0.371998,-0.759307,0.372776
28,40,-0.567232,0.698132,-0.174533,-0.174533,-0.573688,0.691489,-0.149223,-0.186959,1.29127,0.371998,-0.759307,0.372776
28,40,-0.567232,0.698132,-0.174533,-0.174533,-0.573688,0.691489,-0.149223,-0.186959,1.29127,0.371998,-0.759307,0.372776
28,40,-0.567232,0.698132,-0.174533,-0.174533,-0.573688,0.691489,-0.149223,-0.186959,1.29127,0.371998,-0.759307,0.372776
28,40,-0.567232,0.698132,-0.174533,-0.174533,-0.573688,0.691489,-0.149223,-0.186959,1.29127,0.371998,-0.759307,0.372776
28,40,-0.567232,0.698132,-0.174533,-0.174533,-0.573688,0.691489,-0.149223,-0.186959,1.29127,0.371998,-0.759307,0.372776
28,40,-0.567232,0.698132,-0.174533,-0.174533,-0.573688,0.691489,-0.149223,-0.186959,1.29127,0.371998,-0.759307,0.372776
28,40,-0.567232,0.698132,-0.174533,-0.174533,-0.573688,0.691489,-0.149223,-0.186959,1.29127,0.371998,-0.759307,0.372776
28,40,-0.567232,0.698132,-0.174533,-0.174533,-0.573688,0.691489,-0.149223,-0.186959,1.29127,0.371998,-0.759307,0.372776
28,40,-0.567232,0.698132,-0.174533,-0.174533,-0.573688,0.691489,-0.149223,-0.186959,1.29127,0.371998,-0.759307,0.372776
28,40,-0.567232,0.698132,-0.174533,-0.174533,-0.573688,0.691489,-0.149223,-0.186959,1.29127,0.371998,-0.759307,0.372776
28,40,-0.567232,0.698132,-0.174533,-0.174533,-0.573688,0.691489,-0.149223,-0.186959,1.29127,0.371998,-0.759307,0.372776
28,40,-0.567232,0.698132,-0.174533,-0.174533,-0.573688,0.691489,-0.149223,-0.186959,1.29127,0.371998,-0.759307,0.372776
28,40,-0.567232,0.698132,-0.174533,-0.174533,-0.573688,0.691489,-0.149223,-0.186959,1.29127,0.371998,-0.759307,0.372776
28,40,-0.567232,0.698132,-0.174533,-0.174533,-0.573688,0.691489,-0.149223,-0.186959,1.29127,0.371998,-0.759307,0.372776
28,40,-0.567232,0.698132,-0.174533,-0.174533,-0.573688,0.691489,-0.149223,-0.186959,1.29127,0.371998,-0.759307,0.372776
28,40,-0.567232,0.698132,-0.174533,-0.174533,-0.573688,0.691489,-0.149223,-0.186959,1.29127,0.371998,-0.759307,0.372776
28,40,-0.567232,0.698132,-0.174533,-0.174533,-0.573688,0.691489,-0.149223,-0.186959,1.29127,0.371998,-0.759307,0.372776
28,40,-0.567232,0.698132,-0.174533,-0.174533,-0.573688,0.691489,-0.149223,-0.186959,1.29127,0.371998,-0.759307,0.372776
28,40,-0.567232,0.698132,-0.174533,-0.174533,-0.573688,0.691489,-0.149223,-0.186959,1.29127,0.371998,-0.759307,0.372776
28,40,-0.567232,0.698132,-0.174533,-0.174533,-0.573688,0.691489,-0.149223,-0.186959,1.29127,0.371998,-0.759307,0.372776
28,40,-0.567232,0.698132,-0.174533,-0.174533,-0.573688,0.691489,-0.149223,-0.186959,1.29127,0.371998,-0.759307,0.372776
28,40,-0.567232,0.698132,-0.174533,-0.174533,-0.573688,0.691489,-0.149223,-0.186959,1.29127,0.371998,-0.759307,0.372776
28,40,-0.567232,0.698132,-0.174533,-0.174533,-0.573688,0.691489,-0.149223,-0.186959,1.29127,0.371998,-0.759307,0.372776
28,40,-0.567232,0.698132,-0.174533,-0.174533,-0.573688,0.691489,-0.149223,-0.186959,1.29127,0.371998,-0.759307,0.372776
28,40,-0.567232,0.698132,-0.174533,-0.174533,-0.573688,0.691489,-0.149223,-0.186959,1.29127,0.371998,-0.759307,0.372776
28,40,-0.567232,0.698132,-0.174533,-0.174533,-0.573688,0.691489,-0.149223,-0.186959,1.29127,0.371998,-0.759307,0.372776
28,40,-0.567232,0.698132,-0.174533,-0.174533,-0.573688,0.691489,-0.149223,-0.186959,1.29127,0.371998,-0.759307,0.372776
28,40,-0.567232,0.698132,-0.174533,-0.174533,-0.573688,0.691489,-0.149223,-0.186959,1.29127,0.371998,-0.759307,0.372776
28,40,-0.567232,0.698132,-0.174533,-0.174533,-0.573688,0.691489,-0.149223,-0.186959,1.29127,0.371998,-0.759307,0.372776
28,40,-0.567232,0.698132,-0.174533,-0.174533,-0.573688,0.691489,-0.149223,-0.186959,1.29127,0.371998,-0.759307,0.372776
28,40,-0.567232,0.698132,-0.174533,-0.174533,-0.573688,0.691489,-0.149223,-0.186959,1.29127,0.371998,-0.759307,0.372776
28,40,-0.567232,0.698132,-0.174533,-0.174533,-0.573688,0.691489,-0.149223,-0.186959,1.29127,0.371998,-0.759307,0.372776
28,40,-0.567232,0.698132,-0.174533,-0.174533,-0.573688,0.691489,-0.149223,-0.186959,1.29127,0.371998,-0.759307,0.372776
28,40,-0.567232,0.698132,-0.174533,-0.174533,-0.573688,0.691489,-0.149223,-0.186959,1.29127,0.371998,-0.759307,0.372776
28,40,-0.567232,0.698132,-0.174533,-0.174533,-0.573688,0.691489,-0.149223,-0.186959,1.29127,0.371998,-0.759307,0.372776
28,40,-0.567232,0.698132,-0.174533,-0.174533,-0.573688,0.691489,-0.149223,-0.186959,1.29127,0.371998,-0.759307,0.372776
28,40,-0.567232,0.698132,-0.174533,-0.174533,-0.573688,0.691489,-0.149223,-0.186959,1.29127,0.371998,-0.759307,0.372776
28,40,-0.567232,0.698132,-0.174533,-0.174533,-0.573688,0.691489,-0.149223,-0.186959,1.29127,0.371998,-0.759307,0.372776
28,40,-0.567232,0.698132,-0.174533,-0.174533,-0.573688,0.691489,-0.149223,-0.186959,1.29127,0.371998,-0.759307,0.372776
28,40,-0.567232,0.698132,-0.174533,-0.174533,-0.573688,0.691489,-0.149223,-0.186959,1.29127,0.371998,-0.759307,0.372776
28,40,-0.567232,0.698132,-0.174533,-0.174533,-0.573688,0.691489,-0.149223,-0.186959,1.29127,0.371998,-0.759307,0.372776
28,40,-0.567232,0.698132,-0.174533,-0.174533,-0.573688,0.691489,-0.149223,-0.186959,1.29127,0.371998,-0.759307,0.372776
28,40,-0.567232,0.698132,-0.174533,-0.174533,-0.573688,0.691489,-0.149223,-0.186959,1.29127,0.371998,-0.759307,0.372776
28,40,-0.567232,0.698132,-0.174533,-0.174533,-0.573688,0.691489,-0.149223,-0.186959,1.29127,0.371998,-0.759307,0.372776
28,40,-0.567232,0.698132,-0.174533,-0.174533,-0.573688,0.691489,-0.149223,-0.186959,1.29127,0.371998,-0.759307,0.372776
28,40,-0.567232,0.698132,-0.174533,-0.174533,-0.573688,0.691489,-0.149223,-0.186959,1.29127,0.371998,-0.759307,0.372776
28,40,-0.567232,0.698132,-0.174533,-0.174533,-0.573688,0.691489,-0.149223,-0.186959,1.29127,0.371998,-0.759307,0.372776
28,40,-0.567232,0.698132,-0.174533,-0.174533,-0.573688,0.691489,-0.149223,-0.186959,1.29127,0.371998,-0.759307,0.372776
28,40,-0.567232,0.698132,-0.174533,-0.174533,-0.573688,0.691489,-0.149223,-0.186959,1.29127,0.371998,-0.759307,0.372776
28,40,-0.567232,0.698132,-0.174533,-0.174533,-0.573688,0.691489,-0.149223,-0.186959,1.29127,0.371998,-0.759307,0.372776
28,40,-0.567232,0.698132,-0.174533,-0.174533,-0.573688,0.691489,-0.149223,-0.186959,1.29127,0.371998,-0.759307,0.372776
28,40,-0.567232,0.698132,-0.174533,-0.174533,-0.573688,0.691489,-0.149223,-0.186959,1.29127,0.371998,-0.759307,0.372776
28,40,-0.567232,0.698132,-0.174533,-0.174533,-0.573688,0.691489,-0.149223,-0.186959,1.29127,0.371998,-0.759307,0.372776
28,40,-0.567232,0.698132,-0.174533,-0.174533,-0.573688,0.691489,-0.149223,-0.186959,1.29127,0.371998,-0.759307,0.372776
28,40,-0.567232,0.698132,-0.174533,-0.174533,-0.573688,0.691489,-0.149223,-0.186959,1.29127,0.371998,-0.759307,0.372776
28,40,-0.567232,0.698132,-0.174533,-0.174533,-0.573688,0.691489,-0.149223,-0.186959,1.29127,0.371998,-0.759307,0.372776
28,40,-0.567232,0.698132,-0.174533,-0.174533,-0.573688,0.691489,-0.149223,-0.186959,1.29127,0.371998,-0.759307,0.372776
28,40,-0.567232,0.698132,-0.174533,-0.174533,-0.573688,0.691489,-0.149223,-0.186959,1.29127,0.371998,-0.759307,0.372776
28,40,-0.567232,0.698132,-0.174533,-0.174533,-0.573688,0.691489,-0.149223,-0.186959,1.29127,0.371998,-0.759307,0.372776
28,40,-0.567232,0.698132,-0.174533,-0.174533,-0.573688,0.691489,-0.149223,-0.186959,1.29127,0.371998,-0.759307,0.372776
28,40,-0.567232,0.698132,-0.174533,-0.174533,-0.573688,0.691489,-0.149223,-0.186959,1.29127,0.371998,-0.759307,0.372776
28,40,-0.567232,0.698132,-0.174533,-0.174533,-0.573688,0.691489,-0.149223,-0.186959,1.29127,0.371998,-0.759307,0.372776
28,40,-0.567232,0.698132,-0.174533,-0.174533,-0.573688,0.691489,-0.149223,-0.186959,1.29127,0.371998,-0.759307,0.372776
28,40,-0.567232,0.698132,-0.174533,-0.174533,-0.573688,0.691489,-0.149223,-0.186959,1.29127,0.371998,-0.759307,0.372776
28,40,-0.567232,0.698132,-0.174533,-0.174533,-0.573688,0.691489,-0.149223,-0.186959,1.29127,0.371998,-0.759307,0.372776
28,40,-0.567232,0.698132,-0.174533,-0.174533,-0.573688,0.691489,-0.149223,-0.186959,1.29127,0.371998,-0.759307,0.372776
28,40,-0.567232,0.698132,-0.174533,-0.174533,-0.573688,0.691489,-0.149223,-0.186959,1.29127,0.371998,-0.759307,0.372776
28,40,-0.567232,0.698132,-0.174533,-0.174533,-0.573688,0.691489,-0.149223,-0.186959,1.29127,0.371998,-0.759307,0.372776
28,40,-0.567232,0.698132,-0.174533,-0.174533,-0.573688,0.691489,-0.149223,-0.186959,1.29127,0.371998,-0.759307,0.372776
28,40,-0.567232,0.698132,-0.174533,-0.174533,-0.573688,0.691489,-0.149223,-0.186959,1.29127,0.371998,-0.759307,0.372776
28,40,-0.567232,0.698132,-0.174533,-0.174533,-0.573688,0.691489,-0.149223,-0.186959,1.29127,0.371998,-0.759307,0.372776
28,40,-0.567232,0.698132,-0.174533,-0.174533,-0.573688,0.691489,-0.149223,-0.186959,1.29127,0.371998,-0.759307,0.372776
28,40,-0.567232,0.698132,-0.174533,-0.174533,-0.573688,0.691489,-0.149223,-0.186959,1.29127,0.371998,-0.759307,0.372776
28,40,-0.567232,0.698132,-0.174533,-0.174533,-0.573688,0.691489,-0.149223,-0.186959,1.29127,0.371998,-0.759307,0.372776
28,40,-0.567232,0.698132,-0.174533,-0.174533,-0.573688,0.691489,-0.149223,-0.186959,1.29127,0.371998,-0.759307,0.372776
28,40,-0.567232,0.698132,-0.174533,-0.174533,-0.573688,0.691489,-0.149223,-0.186959,1.29127,0.371998,-0.759307,0.372776
28,40,-0.567232,0.698132,-0.174533,-0.174533,-0.573688,0.691489,-0.149223,-0.186959,1.29127,0.371998,-0.759307,0.372776
28,40,-0.567232,0.698132,-0.174533,-0.174533,-0.573688,0.691489,-0.149223,-0.186959,1.29127,0.371998,-0.759307,0.372776
28,40,-0.567232,0.698132,-0.174533,-0.174533,-0.573688,0.691489,-0.149223,-0.186959,1.29127,0.371998,-0.759307,0.372776
28,40,-0.567232,0.698132,-0.174533,-0.174533,-0.573688,0.691489,-0.149223,-0.186959,1.29127,0.371998,-0.759307,0.372776
28,40,-0.567232,0.698132,-0.174533,-0.174533,-0.573688,0.691489,-0.149223,-0.186959,1.29127,0.371998,-0.759307,0.372776
28,40,-0.567232,0.698132,-0.174533,-0.174533,-0.573688,0.691489,-0.149223,-0.186959,1.29127,0.371998,-0.759307,0.372776
28,40,-0.567232,0.698132,-0.174533,-0.174533,-0.573688,0.691489,-0.149223,-0.186959,1.29127,0.371998,-0.759307,0.372776
28,40,-0.567232,0.698132,-0.174533,-0.174533,-0.573688,0.691489,-0.149223,-0.186959,1.29127,0.371998,-0.759307,0.372776
28,40,-0.567232,0.698132,-0.174533,-0.174533,-0.573688,0.691489,-0.149223,-0.186959,1.29127,0.371998,-0.759307,0.372776
28,40,-0.567232,0.698132,-0.174533,-0.174533,-0.573688,0.691489,-0.149223,-0.186959,1.29127,0.371998,-0.759307,0.372776
28,40,-0.567232,0.698132,-0.174533,-0.174533,-0.573688,0.691489,-0.149223,-0.186959,1.29127,0.371998,-0.759307,0.372776
28,40,-0.567232,0.698132,-0.174533,-0.174533,-0.573688,0.691489,-0.149223,-0.186959,1.29127,0.371998,-0.759307,0.372776
28,40,-0.567232,0.698132,-0.174533,-0.174533,-0.573688,0.691489,-0.149223,-0.186959,1.29127,0.371998,-0.759307,0.372776
28,40,-0.567232,0.698132,-0.174533,-0.174533,-0.573688,0.691489,-0.149223,-0.186959,1.29127,0.371998,-0.759307,0.372776
28,40,-0.567232,0.698132,-0.174533,-0.174533,-0.573688,0.691489,-0.149223,-0.186959,1.29127,0.371998,-0.759307,0.372776
28,40,-0.567232,0.698132,-0.174533,-0.174533,-0.573688,0.691489,-0.149223,-0.186959,1.29127,0.371998,-0.759307,0.372776
28,40,-0.567232,0.698132,-0.174533,-0.174533,-0.573688,0.691489,-0.149223,-0.186959,1.29127,0.371998,-0.759307,0.372776
28,40,-0.567232,0.698132,-0.174533,-0.174533,-0.573688,0.691489,-0.149223,-0.186959,1.29127,0.371998,-0.759307,0.372776
28,40,-0.567232,0.698132,-0.174533,-0.174533,-0.573688,0.691489,-0.149223,-0.186959,1.29127,0.371998,-0.759307,0.372776
28,40,-0.567232,0.698132,-0.174533,-0.174533,-0.573688,0.691489,-0.149223,-0.186959,1.29127,0.371998,-0.759307,0.372776
28,40,-0.567232,0.698132,-0.174533,-0.174533,-0.573688,0.691489,-0.149223,-0.186959,1.29127,0.371998,-0.759307,0.372776
28,40,-0.567232,0.698132,-0.174533,-0.174533,-0.573688,0.691489,-0.149223,-0.186959,1.29127,0.371998,-0.759307,0.372776
28,40,-0.567232,0.698132,-0.174533,-0.174533,-0.573688,0.691489,-0.149223,-0.186959,1.29127,0.371998,-0.759307,0.372776
28,40,-0.567232,0.698132,-0.174533,-0.174533,-0.573688,0.691489,-0.149223,-0.186959,1.29127,0.371998,-0.759307,0.372776
28,40,-0.567232,0.698132,-0.174533,-0.174533,-0.573688,0.691489,-0.149223,-0.186959,1.29127,0.371998,-0.759307,0.372776
28,40,-0.567232,0.698132,-0.174533,-0.174533,-0.573688,0.691489,-0.149223,-0.186959,1.29127,0.371998,-0.759307,0.372776
28,40,-0.567232,0.698132,-0.174533,-0.174533,-0.573688,0.691489,-0.149223,-0.186959,1.29127,0.371998,-0.759307,0.372776
28,40,-0.567232,0.698132,-0.174533,-0.174533,-0.573688,0.691489,-0.149223,-0.186959,1.29127,0.371998,-0.759307,0.372776
28,40,-0.567232,0.698132,-0.174533,-0.174533,-0.573688,0.691489,-0.149223,-0.186959,1.29127,0.371998,-0.759307,0.372776
28,40,-0.567232,0.698132,-0.174533,-0.174533,-0.573688,0.691489,-0.149223,-0.186959,1.29127,0.371998,-0.759307,0.372776
28,40,-0.567232,0.698132,-0.174533,-0.174533,-0.573688,0.691489,-0.149223,-0.186959,1.29127,0.371998,-0.759307,0.372776
28,40,-0.567232,0.698132,-0.174533,-0.174533,-0.573688,0.691489,-0.149223,-0.186959,1.29127,0.371998,-0.759307,0.372776
28,40,-0.567232,0.698132,-0.174533,-0.174533,-0.573688,0.691489,-0.149223,-0.186959,1.29127,0.371998,-0.759307,0.372776
28,40,-0.567232,0.698132,-0.174533,-0.174533,-0.573688,0.691489,-0.149223,-0.186959,1.29127,0.371998,-0.759307,0.372776
28,40,-0.567232,0.698132,-0.174533,-0.174533,-0.573688,0.691489,-0.149223,-0.186959,1.29127,0.371998,-0.759307,0.372776
28,40,-0.567232,0.698132,-0.174533,-0.174533,-0.573688,0.691489,-0.149223,-0.186959,1.29127,0.371998,-0.759307,0.372776
28,40,-0.567232,0.698132,-0.174533,-0.174533,-0.573688,0.691489,-0.149223,-0.186959,1.29127,0.371998,-0.759307,0.372776
28,40,-0.567232,0.698132,-0.174533,-0.174533,-0.573688,0.691489,-0.149162,-0.186978,1.29127,0.371998,-0.761115,0.373367
28,40,-0.567232,0.698132,-0.174533,-0.174533,-0.573688,0.691489,-0.149162,-0.186978,1.29127,0.371998,-0.761115,0.373367
28,40,-0.567232,0.698132,-0.174533,-0.174533,-0.573688,0.691489,-0.149162,-0.186978,1.29127,0.371998,-0.761115,0.373367
28,40,-0.567232,0.698132,-0.174533,-0.174533,-0.573688,0.691489,-0.149162,-0.186978,1.29127,0.371998,-0.761115,0.373367
28,40,-0.567232,0.698132,-0.174533,-0.174533,-0.573688,0.691489,-0.149162,-0.186978,1.29127,0.371998,-0.761115,0.373367
28,40,-0.567232,0.698132,-0.174533,-0.174533,-0.573688,0.691489,-0.149162,-0.186978,1.29127,0.371998,-0.761115,0.373367
28,40,-0.567232,0.698132,-0.174533,-0.174533,-0.573688,0.691489,-0.149162,-0.186978,1.29127,0.371998,-0.761115,0.373367
28,40,-0.567232,0.698132,-0.174533,-0.174533,-0.573688,0.691489,-0.149162,-0.186978,1.29127,0.371998,-0.761115,0.373367
28,40,-0.567232,0.698132,-0.174533,-0.174533,-0.573688,0.691489,-0.149162,-0.186978,1.29127,0.371998,-0.761115,0.373367
28,40,-0.567232,0.698132,-0.174533,-0.174533,-0.573688,0.691489,-0.149162,-0.186978,1.29127,0.371998,-0.761115,0.373367
28,40,-0.567232,0.698132,-0.174533,-0.174533,-0.573688,0.691489,-0.149162,-0.186978,1.29127,0.371998,-0.761115,0.373367
28,40,-0.567232,0.698132,-0.174533,-0.174533,-0.573688,0.691489,-0.149162,-0.186978,1.29127,0.371998,-0.761115,0.373367
28,40,-0.567232,0.698132,-0.174533,-0.174533,-0.573688,0.691489,-0.149162,-0.186978,1.29127,0.371998,-0.761115,0.373367
28,40,-0.567232,0.698132,-0.174533,-0.174533,-0.573688,0.691489,-0.149162,-0.186978,1.29127,0.371998,-0.761115,0.373367
28,40,-0.567232,0.698132,-0.174533,-0.174533,-0.573688,0.691489,-0.149162,-0.186978,1.29127,0.371998,-0.761115,0.373367
28,40,-0.567232,0.698132,-0.174533,-0.174533,-0.573688,0.691489,-0.149162,-0.186978,1.29127,0.371998,-0.761115,0.373367
28,40,-0.567232,0.698132,-0.174533,-0.174533,-0.573688,0.691489,-0.149162,-0.186978,1.29127,0.371998,-0.761115,0.373367
28,40,-0.567232,0.698132,-0.174533,-0.174533,-0.573688,0.691489,-0.149162,-0.186978,1.29127,0.371998,-0.761115,0.373367
28,40,-0.567232,0.698132,-0.174533,-0.174533,-0.573688,0.691489,-0.149162,-0.186978,1.29127,0.371998,-0.761115,0.373367
28,40,-0.567232,0.698132,-0.174533,-0.174533,-0.573688,0.691489,-0.149162,-0.186978,1.29127,0.371998,-0.761115,0.373367
28,40,-0.567232,0.698132,-0.174533,-0.174533,-0.573688,0.691489,-0.149162,-0.186978,1.29127,0.371998,-0.761115,0.373367
28,40,-0.567232,0.698132,-0.174533,-0.174533,-0.573688,0.691489,-0.149162,-0.186978,1.29127,0.371998,-0.761115,0.373367
28,40,-0.567232,0.698132,-0.174533,-0.174533,-0.573688,0.691489,-0.149162,-0.186978,1.29127,0.371998,-0.761115,0.373367
28,40,-0.567232,0.698132,-0.174533,-0.174533,-0.573688,0.691489,-0.149162,-0.186978,1.29127,0.371998,-0.761115,0.373367
28,40,-0.567232,0.698132,-0.174533,-0.174533,-0.573688,0.691489,-0.149162,-0.186978,1.29127,0.371998,-0.761115,0.373367
28,40,-0.567232,0.698132,-0.174533,-0.174533,-0.573688,0.691489,-0.149162,-0.186978,1.29127,0.371998,-0.761115,0.373367
28,40,-0.567232,0.698132,-0.174533,-0.174533,-0.573688,0.691489,-0.149162,-0.186978,1.29127,0.371998,-0.761115,0.373367
28,40,-0.567232,0.698132,-0.174533,-0.174533,-0.573688,0.691489,-0.149162,-0.186978,1.29127,0.371998,-0.761115,0.373367
28,40,-0.567232,0.698132,-0.174533,-0.174533,-0.573688,0.691489,-0.149162,-0.186978,1.29127,0.371998,-0.761115,0.373367
28,40,-0.567232,0.698132,-0.174533,-0.174533,-0.573688,0.691489,-0.149162,-0.186978,1.29127,0.371998,-0.761115,0.373367
28,40,-0.567232,0.698132,-0.174533,-0.174533,-0.573688,0.691489,-0.149162,-0.186978,1.29127,0.371998,-0.761115,0.373367
28,40,-0.567232,0.698132,-0.174533,-0.174533,-0.573688,0.691489,-0.149162,-0.186978,1.29127,0.371998,-0.761115,0.373367
28,40,-0.567232,0.698132,-0.174533,-0.174533,-0.573688,0.691489,-0.149162,-0.186978,1.29127,0.371998,-0.761115,0.373367
28,40,-0.567232,0.698132,-0.174533,-0.174533,-0.573688,0.691489,-0.149162,-0.186978,1.29127,0.371998,-0.761115,0.373367
28,40,-0.567232,0.698132,-0.174533,-0.174533,-0.573688,0.691489,-0.149162,-0.186978,1.29127,0.371998,-0.761115,0.373367
28,40,-0.567232,0.698132,-0.174533,-0.174533,-0.573688,0.691489,-0.149162,-0.186978,1.29127,0.371998,-0.761115,0.373367
28,40,-0.567232,0.698132,-0.174533,-0.174533,-0.573688,0.691489,-0.149162,-0.186978,1.29127,0.371998,-0.761115,0.373367
28,40,-0.567232,0.698132,-0.174533,-0.174533,-0.573688,0.691489,-0.149162,-0.186978,1.29127,0.371998,-0.761115,0.373367
28,40,-0.567232,0.698132,-0.174533,-0.174533,-0.573688,0.691489,-0.149162,-0.186978,1.29127,0.371998,-0.761115,0.373367
28,40,-0.567232,0.698132,-0.174533,-0.174533,-0.573688,0.691489,-0.149162,-0.186978,1.29127,0.371998,-0.761115,0.373367
28,40,-0.567232,0.698132,-0.174533,-0.174533,-0.573688,0.691489,-0.149162,-0.186978,1.29127,0.371998,-0.761115,0.373367
28,40,-0.567232,0.698132,-0.174533,-0.174533,-0.573688,0.691489,-0.149162,-0.186978,1.29127,0.371998,-0.761115,0.373367
28,40,-0.567232,0.698132,-0.174533,-0.174533,-0.573688,0.691489,-0.149162,-0.186978,1.29127,0.371998,-0.761115,0.373367
28,40,-0.567232,0.698132,-0.174533,-0.174533,-0.573688,0.691489,-0.149162,-0.186978,1.29127,0.371998,-0.761115,0.373367
28,40,-0.567232,0.698132,-0.174533,-0.174533,-0.573688,0.691489,-0.149162,-0.186978,1.29127,0.371998,-0.761115,0.373367
28,40,-0.567232,0.698132,-0.174533,-0.174533,-0.573688,0.691489,-0.149162,-0.186978,1.29127,0.371998,-0.761115,0.373367
28,40,-0.567232,0.698132,-0.174533,-0.174533,-0.573688,0.691489,-0.149162,-0.186978,1.29127,0.371998,-0.761115,0.373367
28,40,-0.567232,0.698132,-0.174533,-0.174533,-0.573688,0.691489,-0.149162,-0.186978,1.29127,0.371998,-0.761115,0.373367
28,40,-0.567232,0.698132,-0.174533,-0.174533,-0.573688,0.691489,-0.149162,-0.186978,1.29127,0.371998,-0.761115,0.373367
28,40,-0.567232,0.698132,-0.174533,-0.174533,-0.573688,0.691489,-0.149162,-0.186978,1.29127,0.371998,-0.761115,0.373367
28,40,-0.567232,0.698132,-0.174533,-0.174533,-0.573688,0.691489,-0.149162,-0.186978,1.29127,0.371998,-0.761115,0.373367
28,40,-0.567232,0.698132,-0.174533,-0.174533,-0.573688,0.691489,-0.149162,-0.186978,1.29127,0.371998,-0.761115,0.373367
28,40,-0.567232,0.698132,-0.174533,-0.174533,-0.573688,0.691489,-0.149162,-0.186978,1.29127,0.371998,-0.761115,0.373367
28,40,-0.567232,0.698132,-0.174533,-0.174533,-0.573688,0.691489,-0.149162,-0.186978,1.29127,0.371998,-0.761115,0.373367
28,40,-0.567232,0.698132,-0.174533,-0.174533,-0.573688,0.691489,-0.149162,-0.186978,1.29127,0.371998,-0.761115,0.373367
28,40,-0.567232,0.698132,-0.174533,-0.174533,-0.573688,0.691489,-0.149162,-0.186978,1.29127,0.371998,-0.761115,0.373367
28,40,-0.567232,0.698132,-0.174533,-0.174533,-0.573688,0.691489,-0.149162,-0.186978,1.29127,0.371998,-0.761115,0.373367
28,40,-0.567232,0.698132,-0.174533,-0.174533,-0.573688,0.691489,-0.149162,-0.186978,1.29127,0.371998,-0.761115,0.373367
28,40,-0.567232,0.698132,-0.174533,-0.174533,-0.573688,0.691489,-0.149162,-0.186978,1.29127,0.371998,-0.761115,0.373367
28,40,-0.567232,0.698132,-0.174533,-0.174533,-0.573688,0.691489,-0.149162,-0.186978,1.29127,0.371998,-0.761115,0.373367
28,40,-0.567232,0.698132,-0.174533,-0.174533,-0.573688,0.691489,-0.149162,-0.186978,1.29127,0.371998,-0.761115,0.373367
28,40,-0.567232,0.698132,-0.174533,-0.174533,-0.573688,0.691489,-0.149162,-0.186978,1.29127,0.371998,-0.761115,0.373367
28,40,-0.567232,0.698132,-0.174533,-0.174533,-0.573688,0.691489,-0.149162,-0.186978,1.29127,0.371998,-0.761115,0.373367
28,40,-0.567232,0.698132,-0.174533,-0.174533,-0.573688,0.691489,-0.149162,-0.186978,1.29127,0.371998,-0.761115,0.373367
28,40,-0.567232,0.698132,-0.174533,-0.174533,-0.573688,0.691489,-0.149162,-0.186978,1.29127,0.371998,-0.761115,0.373367
28,40,-0.567232,0.698132,-0.174533,-0.174533,-0.573688,0.691489,-0.149162,-0.186978,1.29127,0.371998,-0.761115,0.373367
28,40,-0.567232,0.698132,-0.174533,-0.174533,-0.573688,0.691489,-0.149162,-0.186978,1.29127,0.371998,-0.761115,0.373367
28,40,-0.567232,0.698132,-0.174533,-0.174533,-0.573688,0.691489,-0.149162,-0.186978,1.29127,0.371998,-0.761115,0.373367
28,40,-0.567232,0.698132,-0.174533,-0.174533,-0.573688,0.691489,-0.149162,-0.186978,1.29127,0.371998,-0.761115,0.373367
28,40,-0.567232,0.698132,-0.174533,-0.174533,-0.573688,0.691489,-0.149162,-0.186978,1.29127,0.371998,-0.761115,0.373367
28,40,-0.567232,0.698132,-0.174533,-0.174533,-0.573688,0.691489,-0.149162,-0.186978,1.29127,0.371998,-0.761115,0.373367
28,40,-0.567232,0.698132,-0.174533,-0.174533,-0.573688,0.691489,-0.149162,-0.186978,1.29127,0.371998,-0.761115,0.373367
28,40,-0.567232,0.698132,-0.174533,-0.174533,-0.573688,0.691489,-0.149162,-0.186978,1.29127,0.371998,-0.761115,0.373367
28,40,-0.567232,0.698132,-0.174533,-0.174533,-0.573688,0.691489,-0.149162,-0.186978,1.29127,0.371998,-0.761115,0.373367
28,40,-0.567232,0.698132,-0.174533,-0.174533,-0.573688,0.691489,-0.149162,-0.186978,1.29127,0.371998,-0.761115,0.373367
28,40,-0.567232,0.698132,-0.174533,-0.174533,-0.573688,0.691489,-0.149162,-0.186978,1.29127,0.371998,-0.761115,0.373367
28,40,-0.567232,0.698132,-0.174533,-0.174533,-0.573688,0.691489,-0.149162,-0.186978,1.29127,0.371998,-0.761115,0.373367
28,40,-0.567232,0.698132,-0.174533,-0.174533,-0.573688,0.691489,-0.149162,-0.186978,1.29127,0.371998,-0.761115,0.373367
28,40,-0.567232,0.698132,-0.174533,-0.174533,-0.573688,0.691489,-0.149162,-0.186978,1.29127,0.371998,-0.761115,0.373367
28,40,-0.567232,0.698132,-0.174533,-0.174533,-0.573688,0.691489,-0.149162,-0.186978,1.29127,0.371998,-0.761115,0.373367
28,40,-0.567232,0.698132,-0.174533,-0.174533,-0.573688,0.691489,-0.149162,-0.186978,1.29127,0.371998,-0.761115,0.373367
28,40,-0.567232,0.698132,-0.174533,-0.174533,-0.573688,0.691489,-0.149162,-0.186978,1.29127,0.371998,-0.761115,0.373367
28,40,-0.567232,0.698132,-0.174533,-0.174533,-0.573688,0.691489,-0.149162,-0.186978,1.29127,0.371998,-0.761115,0.373367
28,40,-0.567232,0.698132,-0.174533,-0.174533,-0.573688,0.691489,-0.149162,-0.186978,1.29127,0.371998,-0.761115,0.373367
28,40,-0.567232,0.698132,-0.174533,-0.174533,-0.573688,0.691489,-0.149162,-0.186978,1.29127,0.371998,-0.761115,0.373367
28,40,-0.567232,0.698132,-0.174533,-0.174533,-0.573688,0.691489,-0.149162,-0.186978,1.29127,0.371998,-0.761115,0.373367
28,40,-0.567232,0.698132,-0.174533,-0.174533,-0.573688,0.691489,-0.149162,-0.186978,1.29127,0.371998,-0.761115,0.373367
28,40,-0.567232,0.698132,-0.174533,-0.174533,-0.573688,0.691489,-0.149162,-0.186978,1.29127,0.371998,-0.761115,0.373367
28,40,-0.567232,0.698132,-0.174533,-0.174533,-0.573688,0.691489,-0.149162,-0.186978,1.29127,0.371998,-0.761115,0.373367
28,40,-0.567232,0.698132,-0.174533,-0.174533,-0.573688,0.691489,-0.149162,-0.186978,1.29127,0.371998,-0.761115,0.373367
28,40,-0.567232,0.698132,-0.174533,-0.174533,-0.573688,0.691489,-0.149162,-0.186978,1.29127,0.371998,-0.761115,0.373367
28,40,-0.567232,0.698132,-0.174533,-0.174533,-0.573688,0.691489,-0.149162,-0.186978,1.29127,0.371998,-0.761115,0.373367
28,40,-0.567232,0.698132,-0.174533,-0.174533,-0.573688,0.691489,-0.149162,-0.186978,1.29127,0.371998,-0.761115,0.373367
28,40,-0.567232,0.698132,-0.174533,-0.174533,-0.573688,0.691489,-0.149162,-0.186978,1.29127,0.371998,-0.761115,0.373367
28,40,-0.567232,0.698132,-0.174533,-0.174533,-0.573688,0.691489,-0.149162,-0.186978,1.29127,0.371998,-0.761115,0.373367
28,40,-0.567232,0.698132,-0.174533,-0.174533,-0.573688,0.691489,-0.149162,-0.186978,1.29127,0.371998,-0.761115,0.373367
28,40,-0.567232,0.698132,-0.174533,-0.174533,-0.573688,0.691489,-0.149162,-0.186978,1.29127,0.371998,-0.761115,0.373367
28,40,-0.567232,0.698132,-0.174533,-0.174533,-0.573688,0.691489,-0.149162,-0.186978,1.29127,0.371998,-0.761115,0.373367
28,40,-0.567232,0.698132,-0.174533,-0.174533,-0.573688,0.691489,-0.149162,-0.186978,1.29127,0.371998,-0.761115,0.373367
28,40,-0.567232,0.698132,-0.174533,-0.174533,-0.573688,0.691489,-0.149162,-0.186978,1.29127,0.371998,-0.761115,0.373367
28,40,-0.567232,0.698132,-0.174533,-0.174533,-0.573688,0.691489,-0.149162,-0.186978,1.29127,0.371998,-0.761115,0.373367
28,40,-0.567232,0.698132,-0.174533,-0.174533,-0.573688,0.691489,-0.149162,-0.186978,1.29127,0.371998,-0.761115,0.373367
28,40,-0.567232,0.698132,-0.174533,-0.174533,-0.573688,0.691489,-0.149162,-0.186978,1.29127,0.371998,-0.761115,0.373367
28,40,-0.567232,0.698132,-0.174533,-0.174533,-0.573688,0.691489,-0.149162,-0.186978,1.29127,0.371998,-0.761115,0.373367
28,40,-0.567232,0.698132,-0.174533,-0.174533,-0.573688,0.691489,-0.149162,-0.186978,1.29127,0.371998,-0.761115,0.373367
28,40,-0.567232,0.698132,-0.174533,-0.174533,-0.573688,0.691489,-0.149162,-0.186978,1.29127,0.371998,-0.761115,0.373367
28,40,-0.567232,0.698132,-0.174533,-0.174533,-0.573688,0.691489,-0.149162,-0.186978,1.29127,0.371998,-0.761115,0.373367
28,40,-0.567232,0.698132,-0.174533,-0.174533,-0.573688,0.691489,-0.149162,-0.186978,1.29127,0.371998,-0.761115,0.373367
28,40,-0.567232,0.698132,-0.174533,-0.174533,-0.573688,0.691489,-0.149162,-0.186978,1.29127,0.371998,-0.761115,0.373367
28,40,-0.567232,0.698132,-0.174533,-0.174533,-0.573688,0.691489,-0.149162,-0.186978,1.29127,0.371998,-0.761115,0.373367
28,40,-0.567232,0.698132,-0.174533,-0.174533,-0.573688,0.691489,-0.149162,-0.186978,1.29127,0.371998,-0.761115,0.373367
28,40,-0.567232,0.698132,-0.174533,-0.174533,-0.573688,0.691489,-0.149162,-0.186978,1.29127,0.371998,-0.761115,0.373367
28,40,-0.567232,0.698132,-0.174533,-0.174533,-0.573688,0.691489,-0.149162,-0.186978,1.29127,0.371998,-0.761115,0.373367
28,40,-0.567232,0.698132,-0.174533,-0.174533,-0.573688,0.691489,-0.149162,-0.186978,1.29127,0.371998,-0.761115,0.373367
28,40,-0.567232,0.698132,-0.174533,-0.174533,-0.573688,0.691489,-0.149162,-0.186978,1.29127,0.371998,-0.761115,0.373367
28,40,-0.567232,0.698132,-0.174533,-0.174533,-0.573688,0.691489,-0.149162,-0.186978,1.29127,0.371998,-0.761115,0.373367
28,40,-0.567232,0.698132,-0.174533,-0.174533,-0.573688,0.691489,-0.149162,-0.186978,1.29127,0.371998,-0.761115,0.373367
28,40,-0.567232,0.698132,-0.174533,-0.174533,-0.573688,0.691489,-0.149162,-0.186978,1.29127,0.371998,-0.761115,0.373367
28,40,-0.567232,0.698132,-0.174533,-0.174533,-0.573688,0.691489,-0.149162,-0.186978,1.29127,0.371998,-0.761115,0.373367
28,40,-0.567232,0.698132,-0.174533,-0.174533,-0.573688,0.691489,-0.149162,-0.186978,1.29127,0.371998,-0.761115,0.373367
28,40,-0.567232,0.698132,-0.174533,-0.174533,-0.573688,0.691489,-0.149162,-0.186978,1.29127,0.371998,-0.761115,0.373367
28,40,-0.567232,0.698132,-0.174533,-0.174533,-0.573688,0.691489,-0.149162,-0.186978,1.29127,0.371998,-0.761115,0.373367
28,40,-0.567232,0.698132,-0.174533,-0.174533,-0.573688,0.691489,-0.149162,-0.186978,1.29127,0.371998,-0.761115,0.373367
28,40,-0.567232,0.698132,-0.174533,-0.174533,-0.573688,0.691489,-0.149162,-0.186978,1.29127,0.371998,-0.761115,0.373367
28,40,-0.567232,0.698132,-0.174533,-0.174533,-0.573688,0.691489,-0.149162,-0.186978,1.29127,0.371998,-0.761115,0.373367
28,40,-0.567232,0.698132,-0.174533,-0.174533,-0.573688,0.691489,-0.149162,-0.186978,1.29127,0.371998,-0.761115,0.373367
28,40,-0.567232,0.698132,-0.174533,-0.174533,-0.573688,0.691489,-0.149162,-0.186978,1.29127,0.371998,-0.761115,0.373367
28,40,-0.567232,0.698132,-0.174533,-0.174533,-0.573688,0.691489,-0.149162,-0.186978,1.29127,0.371998,-0.761115,0.373367
28,40,-0.567232,0.698132,-0.174533,-0.174533,-0.573688,0.691489,-0.149162,-0.186978,1.29127,0.371998,-0.761115,0.373367
28,40,-0.567232,0.698132,-0.174533,-0.174533,-0.573688,0.691489,-0.149162,-0.186978,1.29127,0.371998,-0.761115,0.373367
28,40,-0.567232,0.698132,-0.174533,-0.174533,-0.573688,0.691489,-0.149162,-0.186978,1.29127,0.371998,-0.761115,0.373367
28,40,-0.567232,0.698132,-0.174533,-0.174533,-0.573688,0.691489,-0.149162,-0.186978,1.29127,0.371998,-0.761115,0.373367
28,40,-0.567232,0.698132,-0.174533,-0.174533,-0.573688,0.691489,-0.149162,-0.186978,1.29127,0.371998,-0.761115,0.373367
28,40,-0.567232,0.698132,-0.174533,-0.174533,-0.573688,0.691489,-0.149162,-0.186978,1.29127,0.371998,-0.761115,0.373367
28,40,-0.567232,0.698132,-0.174533,-0.174533,-0.573688,0.691489,-0.149162,-0.186978,1.29127,0.371998,-0.761115,0.373367
28,40,-0.567232,0.698132,-0.174533,-0.174533,-0.573688,0.691489,-0.149162,-0.186978,1.29127,0.371998,-0.761115,0.373367
28,40,-0.567232,0.698132,-0.174533,-0.174533,-0.573688,0.691489,-0.149162,-0.186978,1.29127,0.371998,-0.761115,0.373367
28,40,-0.567232,0.698132,-0.174533,-0.174533,-0.573688,0.691489,-0.149162,-0.186978,1.29127,0.371998,-0.761115,0.373367
28,40,-0.567232,0.698132,-0.174533,-0.174533,-0.573688,0.691489,-0.149162,-0.186978,1.29127,0.371998,-0.761115,0.373367
28,40,-0.567232,0.698132,-0.174533,-0.174533,-0.573688,0.691489,-0.149162,-0.186978,1.29127,0.371998,-0.761115,0.373367
28,40,-0.567232,0.698132,-0.174533,-0.174533,-0.573688,0.691489,-0.149162,-0.186978,1.29127,0.371998,-0.761115,0.373367
28,40,-0.567232,0.698132,-0.174533,-0.174533,-0.573688,0.691489,-0.149162,-0.186978,1.29127,0.371998,-0.761115,0.373367
28,40,-0.567232,0.698132,-0.174533,-0.174533,-0.573688,0.691489,-0.149162,-0.186978,1.29127,0.371998,-0.761115,0.373367
28,40,-0.567232,0.698132,-0.174533,-0.174533,-0.573688,0.691489,-0.149162,-0.186978,1.29127,0.371998,-0.761115,0.373367
28,40,-0.567232,0.698132,-0.174533,-0.174533,-0.573688,0.691489,-0.149162,-0.186978,1.29127,0.371998,-0.761115,0.373367
28,40,-0.567232,0.698132,-0.174533,-0.174533,-0.573688,0.691489,-0.149162,-0.186978,1.29127,0.371998,-0.761115,0.373367
28,40,-0.567232,0.698132,-0.174533,-0.174533,-0.573688,0.691489,-0.149162,-0.186978,1.29127,0.371998,-0.761115,0.373367
28,40,-0.567232,0.698132,-0.174533,-0.174533,-0.573688,0.691489,-0.149162,-0.186978,1.29127,0.371998,-0.761115,0.373367
28,40,-0.567232,0.698132,-0.174533,-0.174533,-0.573688,0.691489,-0.149162,-0.186978,1.29127,0.371998,-0.761115,0.373367
28,40,-0.567232,0.698132,-0.174533,-0.174533,-0.573688,0.691489,-0.149162,-0.186978,1.29127,0.371998,-0.761115,0.373367
28,40,-0.567232,0.698132,-0.174533,-0.174533,-0.573688,0.691489,-0.149162,-0.186978,1.29127,0.371998,-0.761115,0.373367
28,40,-0.567232,0.698132,-0.174533,-0.174533,-0.573688,0.691489,-0.149162,-0.186978,1.29127,0.371998,-0.761115,0.373367
28,40,-0.567232,0.698132,-0.174533,-0.174533,-0.573688,0.691489,-0.149162,-0.186978,1.29127,0.371998,-0.761115,0.373367
28,40,-0.567232,0.698132,-0.174533,-0.174533,-0.573688,0.691489,-0.149162,-0.186978,1.29127,0.371998,-0.761115,0.373367
28,40,-0.567232,0.698132,-0.174533,-0.174533,-0.573688,0.691489,-0.149162,-0.186978,1.29127,0.371998,-0.761115,0.373367
